OOIBase32 Version 2.0.0.6 Data File
++++++++++++++++++++++++++++++++++++
Date: 01-22-2012, 21:05:06
User: Valued Ocean Optics Customer
Spectrometer Serial Number: USB2E2917
Spectrometer Channel: Master
Integration Time (msec): 4
Spectra Averaged: 10
Boxcar Smoothing: 5
Correct for Electrical Dark: Enabled
Time Normalized: Disabled
Dual-beam Reference: Disabled
Reference Channel: Master
Temperature: Not acquired
Spectrometer Type: S2000
ADC Type: USB2000
Number of Pixels in File: 2048
Graph Title: 
>>>>>Begin Spectral Data<<<<<
180.30	0.000
180.67	0.000
181.03	-140.651
181.40	121.491
181.77	-41.846
182.14	-80.733
182.51	-503.877
182.88	148.783
183.25	127.659
183.62	27.592
183.99	23.555
184.36	136.549
184.73	86.783
185.10	1714.959
185.46	13.540
185.83	26.019
186.20	-5.115
186.57	430.362
186.94	109.513
187.31	10.742
187.68	-2841.918
188.05	-122.578
188.42	-59.671
188.78	225.011
189.15	104.783
189.52	82.361
189.89	53.325
190.26	52.910
190.63	29.137
191.00	1.058
191.37	-3.047
191.73	-18.430
192.10	-50.036
192.47	-38.975
192.84	-241.985
193.21	-405.871
193.58	-426.899
193.94	-309.680
194.31	-136.080
194.68	-53.767
195.05	-34.397
195.42	-45.046
195.79	-40.616
196.15	-6.682
196.52	-17.181
196.89	-7.566
197.26	3.773
197.63	3.797
198.00	13.289
198.36	-52.880
198.73	-79.327
199.10	-65.647
199.47	4.552
199.84	18.941
200.20	-8.987
200.57	13.602
200.94	28.856
201.31	36.619
201.68	43.478
202.04	38.952
202.41	37.303
202.78	31.129
203.15	27.400
203.51	20.667
203.88	13.181
204.25	8.550
204.62	0.057
204.98	-0.810
205.35	-30.487
205.72	-80.939
206.09	-165.342
206.46	-93.152
206.82	-131.437
207.19	-130.717
207.56	-151.462
207.92	-177.143
208.29	-105.206
208.66	-84.599
209.03	-84.176
209.39	-33.309
209.76	-18.540
210.13	1.846
210.50	-0.880
210.86	-14.987
211.23	-26.101
211.60	-38.360
211.96	-26.933
212.33	-98.306
212.70	3326.740
213.07	345.024
213.43	308.649
213.80	844.951
214.17	186.489
214.53	902.945
214.90	-41.659
215.27	-15.229
215.63	-45.465
216.00	-30.012
216.37	-8.175
216.74	-1.043
217.10	-5.017
217.47	1.965
217.84	0.062
218.20	6.202
218.57	4.877
218.94	-14.288
219.30	-1.076
219.67	10.503
220.04	13.015
220.40	15.451
220.77	14.657
221.13	24.863
221.50	20.967
221.87	22.449
222.23	25.368
222.60	24.219
222.97	23.043
223.33	12.964
223.70	4.072
224.07	0.220
224.43	0.523
224.80	6.627
225.16	1.095
225.53	-1.670
225.90	-3.177
226.26	-4.693
226.63	-7.042
226.99	-6.002
227.36	-1.970
227.73	0.902
228.09	0.451
228.46	0.834
228.82	-2.682
229.19	-0.791
229.56	-2.019
229.92	-0.295
230.29	0.008
230.65	3.404
231.02	2.678
231.38	2.114
231.75	0.813
232.12	1.807
232.48	-0.201
232.85	2.273
233.21	1.592
233.58	4.754
233.94	4.490
234.31	6.734
234.68	3.702
235.04	5.273
235.41	4.689
235.77	4.058
236.14	3.894
236.50	6.958
236.87	7.099
237.23	6.522
237.60	4.423
237.96	3.607
238.33	1.924
238.69	3.567
239.06	2.749
239.42	2.721
239.79	2.990
240.15	4.001
240.52	3.311
240.88	2.712
241.25	2.087
241.61	1.778
241.98	2.106
242.34	2.160
242.71	1.678
243.07	2.292
243.44	2.014
243.80	2.279
244.17	1.409
244.53	1.077
244.90	1.378
245.26	1.763
245.63	2.171
245.99	2.070
246.36	2.160
246.72	2.172
247.09	2.030
247.45	2.475
247.81	2.482
248.18	2.797
248.54	3.225
248.91	2.945
249.27	3.181
249.64	3.579
250.00	3.836
250.36	4.114
250.73	3.863
251.09	3.090
251.46	2.730
251.82	2.730
252.19	2.782
252.55	2.478
252.91	2.564
253.28	2.063
253.64	1.125
254.01	0.733
254.37	0.839
254.73	1.360
255.10	2.221
255.46	2.564
255.83	2.674
256.19	2.883
256.55	2.922
256.92	2.886
257.28	3.194
257.65	3.547
258.01	3.340
258.37	3.237
258.74	3.190
259.10	3.233
259.46	2.916
259.83	2.869
260.19	2.704
260.55	2.559
260.92	2.461
261.28	2.315
261.64	1.879
262.01	1.876
262.37	1.786
262.73	1.563
263.10	1.016
263.46	1.769
263.82	1.322
264.19	1.088
264.55	1.172
264.91	1.488
265.28	1.417
265.64	1.554
266.00	1.692
266.37	1.821
266.73	2.181
267.09	2.247
267.46	1.600
267.82	1.928
268.18	2.106
268.54	2.153
268.91	2.434
269.27	2.526
269.63	2.439
270.00	2.646
270.36	2.626
270.72	2.371
271.08	2.388
271.45	2.788
271.81	2.843
272.17	3.076
272.53	3.262
272.90	3.013
273.26	2.779
273.62	3.049
273.98	2.900
274.35	3.020
274.71	2.948
275.07	3.384
275.43	3.288
275.80	3.231
276.16	3.243
276.52	3.211
276.88	3.265
277.25	3.347
277.61	3.357
277.97	3.472
278.33	3.257
278.69	3.415
279.06	3.024
279.42	2.947
279.78	2.921
280.14	2.856
280.50	2.759
280.87	2.571
281.23	2.613
281.59	2.630
281.95	2.431
282.31	2.427
282.68	2.422
283.04	2.356
283.40	2.131
283.76	2.121
284.12	1.944
284.48	1.909
284.85	1.908
285.21	1.932
285.57	1.917
285.93	2.152
286.29	2.139
286.65	2.148
287.02	2.409
287.38	2.519
287.74	2.616
288.10	2.720
288.46	2.644
288.82	2.642
289.18	2.348
289.54	2.208
289.91	2.078
290.27	2.247
290.63	2.298
290.99	2.153
291.35	2.223
291.71	1.919
292.07	1.728
292.43	1.769
292.79	1.880
293.16	2.295
293.52	2.290
293.88	2.411
294.24	2.341
294.60	2.383
294.96	2.304
295.32	2.460
295.68	2.509
296.04	2.776
296.40	2.876
296.76	2.850
297.12	2.764
297.49	2.966
297.85	3.024
298.21	3.065
298.57	2.851
298.93	3.141
299.29	2.968
299.65	3.187
300.01	3.125
300.37	3.215
300.73	3.236
301.09	3.367
301.45	3.246
301.81	3.298
302.17	3.322
302.53	3.390
302.89	3.171
303.25	3.342
303.61	3.259
303.97	3.286
304.33	3.229
304.69	3.584
305.05	3.512
305.41	3.618
305.77	3.446
306.13	3.490
306.49	3.721
306.85	3.887
307.21	3.688
307.57	3.548
307.93	3.475
308.29	3.598
308.65	3.318
309.01	3.380
309.37	3.354
309.73	3.418
310.09	3.429
310.45	3.260
310.81	3.188
311.17	3.281
311.53	3.483
311.89	3.586
312.25	3.403
312.61	3.517
312.96	3.567
313.32	3.590
313.68	3.415
314.04	3.318
314.40	3.283
314.76	3.362
315.12	3.488
315.48	3.448
315.84	3.225
316.20	3.267
316.56	3.186
316.92	2.923
317.27	2.919
317.63	3.051
317.99	3.066
318.35	3.171
318.71	3.207
319.07	3.121
319.43	3.047
319.79	3.271
320.15	3.394
320.50	3.492
320.86	3.614
321.22	3.661
321.58	3.616
321.94	3.716
322.30	3.965
322.66	4.012
323.01	3.963
323.37	4.224
323.73	4.209
324.09	4.406
324.45	4.436
324.81	4.609
325.17	4.639
325.52	4.859
325.88	4.869
326.24	4.682
326.60	4.640
326.96	4.822
327.31	4.630
327.67	4.713
328.03	4.653
328.39	4.608
328.75	4.685
329.11	4.723
329.46	4.797
329.82	4.906
330.18	5.046
330.54	5.114
330.90	5.145
331.25	5.336
331.61	5.378
331.97	5.334
332.33	5.332
332.68	5.322
333.04	5.378
333.40	5.344
333.76	5.387
334.11	5.422
334.47	5.497
334.83	5.490
335.19	5.409
335.54	5.334
335.90	5.203
336.26	5.314
336.62	5.314
336.97	5.288
337.33	5.283
337.69	5.215
338.05	5.279
338.40	5.185
338.76	5.284
339.12	5.331
339.48	5.372
339.83	5.505
340.19	5.557
340.55	5.545
340.90	5.566
341.26	5.544
341.62	5.417
341.97	5.421
342.33	5.439
342.69	5.386
343.04	5.402
343.40	5.515
343.76	5.533
344.12	5.500
344.47	5.472
344.83	5.557
345.19	5.672
345.54	5.855
345.90	5.757
346.26	5.804
346.61	5.758
346.97	5.877
347.32	5.735
347.68	5.766
348.04	5.813
348.39	5.872
348.75	5.844
349.11	5.734
349.46	5.731
349.82	5.743
350.18	5.784
350.53	5.886
350.89	5.753
351.24	5.832
351.60	5.811
351.96	5.784
352.31	5.755
352.67	5.741
353.02	5.837
353.38	5.861
353.74	5.948
354.09	5.915
354.45	5.874
354.80	5.870
355.16	5.907
355.52	5.930
355.87	5.937
356.23	6.000
356.58	5.984
356.94	6.004
357.29	5.981
357.65	5.918
358.00	5.907
358.36	5.928
358.72	5.897
359.07	5.879
359.43	5.887
359.78	5.821
360.14	5.768
360.49	5.761
360.85	5.660
361.20	5.678
361.56	5.696
361.91	5.738
362.27	5.782
362.62	5.856
362.98	5.918
363.33	5.944
363.69	6.064
364.04	6.117
364.40	6.188
364.75	6.185
365.11	6.128
365.46	6.156
365.82	6.093
366.17	6.019
366.53	6.003
366.88	5.971
367.24	5.993
367.59	5.996
367.95	5.990
368.30	5.938
368.66	5.985
369.01	6.018
369.37	6.063
369.72	6.125
370.08	6.212
370.43	6.287
370.78	6.315
371.14	6.317
371.49	6.292
371.85	6.281
372.20	6.288
372.56	6.410
372.91	6.401
373.26	6.430
373.62	6.394
373.97	6.350
374.33	6.277
374.68	6.292
375.03	6.246
375.39	6.210
375.74	6.282
376.10	6.319
376.45	6.275
376.80	6.336
377.16	6.270
377.51	6.286
377.87	6.354
378.22	6.406
378.57	6.385
378.93	6.432
379.28	6.502
379.63	6.480
379.99	6.500
380.34	6.476
380.70	6.475
381.05	6.536
381.40	6.562
381.76	6.554
382.11	6.546
382.46	6.557
382.82	6.575
383.17	6.498
383.52	6.500
383.88	6.504
384.23	6.573
384.58	6.570
384.94	6.601
385.29	6.634
385.64	6.620
385.99	6.633
386.35	6.648
386.70	6.648
387.05	6.699
387.41	6.743
387.76	6.722
388.11	6.676
388.47	6.688
388.82	6.655
389.17	6.659
389.52	6.644
389.88	6.696
390.23	6.728
390.58	6.715
390.93	6.766
391.29	6.784
391.64	6.832
391.99	6.885
392.34	6.909
392.70	6.944
393.05	6.991
393.40	7.046
393.75	7.065
394.11	7.070
394.46	7.115
394.81	7.133
395.16	7.122
395.52	7.125
395.87	7.140
396.22	7.181
396.57	7.161
396.92	7.123
397.28	7.099
397.63	7.067
397.98	7.065
398.33	7.071
398.68	7.070
399.04	7.050
399.39	7.061
399.74	7.059
400.09	7.024
400.44	7.055
400.80	7.076
401.15	7.097
401.50	7.145
401.85	7.174
402.20	7.190
402.55	7.219
402.90	7.256
403.26	7.265
403.61	7.258
403.96	7.291
404.31	7.310
404.66	7.340
405.01	7.370
405.36	7.339
405.72	7.380
406.07	7.404
406.42	7.406
406.77	7.447
407.12	7.475
407.47	7.524
407.82	7.528
408.17	7.525
408.53	7.542
408.88	7.560
409.23	7.580
409.58	7.556
409.93	7.543
410.28	7.547
410.63	7.520
410.98	7.529
411.33	7.530
411.68	7.586
412.03	7.557
412.38	7.554
412.73	7.547
413.09	7.559
413.44	7.521
413.79	7.543
414.14	7.562
414.49	7.560
414.84	7.567
415.19	7.558
415.54	7.530
415.89	7.556
416.24	7.573
416.59	7.574
416.94	7.579
417.29	7.603
417.64	7.581
417.99	7.575
418.34	7.583
418.69	7.544
419.04	7.513
419.39	7.511
419.74	7.511
420.09	7.490
420.44	7.488
420.79	7.473
421.14	7.464
421.49	7.479
421.84	7.485
422.19	7.482
422.54	7.518
422.89	7.537
423.24	7.544
423.59	7.550
423.94	7.575
424.29	7.589
424.64	7.624
424.99	7.684
425.34	7.715
425.68	7.717
426.03	7.756
426.38	7.762
426.73	7.801
427.08	7.810
427.43	7.845
427.78	7.822
428.13	7.830
428.48	7.832
428.83	7.789
429.18	7.784
429.53	7.808
429.87	7.796
430.22	7.786
430.57	7.792
430.92	7.796
431.27	7.791
431.62	7.815
431.97	7.819
432.32	7.830
432.67	7.863
433.01	7.876
433.36	7.875
433.71	7.908
434.06	7.950
434.41	7.951
434.76	7.986
435.11	8.016
435.45	8.041
435.80	8.043
436.15	8.055
436.50	8.031
436.85	8.036
437.20	8.029
437.54	8.034
437.89	8.042
438.24	8.056
438.59	8.046
438.94	8.033
439.29	8.027
439.63	8.017
439.98	8.010
440.33	8.018
440.68	8.010
441.03	8.015
441.37	7.983
441.72	7.956
442.07	7.953
442.42	7.943
442.76	7.968
443.11	7.957
443.46	7.970
443.81	7.970
444.16	7.985
444.50	7.996
444.85	8.008
445.20	8.020
445.55	8.040
445.89	8.042
446.24	8.056
446.59	8.040
446.94	8.046
447.28	8.063
447.63	8.055
447.98	8.044
448.32	8.044
448.67	8.049
449.02	8.051
449.37	8.054
449.71	8.072
450.06	8.090
450.41	8.094
450.75	8.110
451.10	8.113
451.45	8.129
451.79	8.151
452.14	8.151
452.49	8.162
452.84	8.182
453.18	8.189
453.53	8.201
453.88	8.211
454.22	8.214
454.57	8.241
454.92	8.248
455.26	8.255
455.61	8.253
455.95	8.274
456.30	8.276
456.65	8.283
456.99	8.270
457.34	8.265
457.69	8.274
458.03	8.287
458.38	8.297
458.73	8.338
459.07	8.359
459.42	8.393
459.76	8.405
460.11	8.444
460.46	8.478
460.80	8.517
461.15	8.535
461.49	8.549
461.84	8.584
462.19	8.599
462.53	8.584
462.88	8.606
463.22	8.619
463.57	8.657
463.91	8.658
464.26	8.658
464.61	8.675
464.95	8.723
465.30	8.741
465.64	8.759
465.99	8.773
466.33	8.789
466.68	8.802
467.02	8.803
467.37	8.815
467.71	8.815
468.06	8.828
468.41	8.834
468.75	8.836
469.10	8.868
469.44	8.884
469.79	8.892
470.13	8.916
470.48	8.940
470.82	8.964
471.17	8.964
471.51	8.967
471.86	9.008
472.20	9.017
472.55	9.014
472.89	9.008
473.23	8.995
473.58	8.980
473.92	8.972
474.27	8.953
474.61	8.938
474.96	8.933
475.30	8.961
475.65	8.931
475.99	8.938
476.34	8.925
476.68	8.911
477.02	8.917
477.37	8.940
477.71	8.928
478.06	8.925
478.40	8.925
478.75	8.960
479.09	8.998
479.43	9.051
479.78	9.116
480.12	9.187
480.47	9.275
480.81	9.353
481.15	9.440
481.50	9.537
481.84	9.664
482.19	9.796
482.53	9.875
482.87	9.904
483.22	9.854
483.56	9.741
483.90	9.629
484.25	9.534
484.59	9.485
484.94	9.417
485.28	9.343
485.62	9.240
485.97	9.113
486.31	9.027
486.65	8.995
487.00	9.055
487.34	9.173
487.68	9.301
488.03	9.385
488.37	9.416
488.71	9.426
489.06	9.440
489.40	9.457
489.74	9.486
490.09	9.501
490.43	9.512
490.77	9.521
491.11	9.565
491.46	9.602
491.80	9.622
492.14	9.644
492.49	9.703
492.83	9.738
493.17	9.768
493.51	9.794
493.86	9.847
494.20	9.887
494.54	9.924
494.88	9.945
495.23	9.976
495.57	10.015
495.91	10.058
496.25	10.085
496.60	10.140
496.94	10.185
497.28	10.245
497.62	10.287
497.97	10.356
498.31	10.420
498.65	10.478
498.99	10.534
499.33	10.608
499.68	10.669
500.02	10.739
500.36	10.796
500.70	10.860
501.04	10.924
501.39	10.997
501.73	11.041
502.07	11.090
502.41	11.155
502.75	11.221
503.09	11.289
503.44	11.374
503.78	11.422
504.12	11.495
504.46	11.573
504.80	11.642
505.14	11.696
505.49	11.774
505.83	11.860
506.17	11.925
506.51	11.967
506.85	12.030
507.19	12.085
507.53	12.161
507.87	12.216
508.22	12.268
508.56	12.329
508.90	12.396
509.24	12.439
509.58	12.497
509.92	12.536
510.26	12.590
510.60	12.640
510.94	12.703
511.28	12.760
511.63	12.839
511.97	12.896
512.31	12.941
512.65	12.985
512.99	13.062
513.33	13.113
513.67	13.182
514.01	13.251
514.35	13.310
514.69	13.349
515.03	13.398
515.37	13.426
515.71	13.458
516.05	13.507
516.39	13.540
516.73	13.560
517.07	13.607
517.41	13.643
517.75	13.678
518.09	13.714
518.43	13.754
518.77	13.801
519.11	13.828
519.45	13.869
519.79	13.907
520.13	13.965
520.47	14.019
520.81	14.048
521.15	14.082
521.49	14.133
521.83	14.151
522.17	14.169
522.51	14.176
522.85	14.226
523.19	14.283
523.53	14.345
523.87	14.423
524.21	14.516
524.55	14.619
524.89	14.701
525.23	14.771
525.57	14.845
525.91	14.910
526.25	14.985
526.58	15.045
526.92	15.095
527.26	15.142
527.60	15.164
527.94	15.171
528.28	15.158
528.62	15.159
528.96	15.154
529.30	15.145
529.64	15.141
529.97	15.127
530.31	15.110
530.65	15.095
530.99	15.074
531.33	15.082
531.67	15.087
532.01	15.109
532.35	15.117
532.68	15.127
533.02	15.141
533.36	15.154
533.70	15.162
534.04	15.176
534.38	15.183
534.71	15.193
535.05	15.182
535.39	15.181
535.73	15.173
536.07	15.182
536.41	15.207
536.74	15.218
537.08	15.248
537.42	15.288
537.76	15.317
538.10	15.343
538.43	15.390
538.77	15.441
539.11	15.495
539.45	15.527
539.79	15.557
540.12	15.576
540.46	15.609
540.80	15.611
541.14	15.608
541.47	15.620
541.81	15.634
542.15	15.642
542.49	15.632
542.82	15.619
543.16	15.624
543.50	15.639
543.84	15.650
544.17	15.640
544.51	15.647
544.85	15.655
545.18	15.644
545.52	15.658
545.86	15.672
546.20	15.706
546.53	15.705
546.87	15.725
547.21	15.741
547.54	15.771
547.88	15.818
548.22	15.855
548.55	15.896
548.89	15.941
549.23	15.977
549.56	15.992
549.90	16.003
550.24	16.037
550.57	16.047
550.91	16.048
551.25	16.054
551.58	16.052
551.92	16.073
552.26	16.107
552.59	16.127
552.93	16.135
553.27	16.130
553.60	16.120
553.94	16.134
554.27	16.149
554.61	16.158
554.95	16.194
555.28	16.233
555.62	16.235
555.95	16.221
556.29	16.233
556.63	16.274
556.96	16.289
557.30	16.355
557.63	16.378
557.97	16.426
558.31	16.440
558.64	16.430
558.98	16.435
559.31	16.469
559.65	16.476
559.98	16.443
560.32	16.425
560.65	16.459
560.99	16.435
561.33	16.420
561.66	16.391
562.00	16.425
562.33	16.434
562.67	16.399
563.00	16.402
563.34	16.431
563.67	16.479
564.01	16.481
564.34	16.461
564.68	16.469
565.01	16.500
565.35	16.532
565.68	16.535
566.02	16.501
566.35	16.535
566.69	16.511
567.02	16.487
567.36	16.508
567.69	16.494
568.03	16.492
568.36	16.508
568.69	16.511
569.03	16.494
569.36	16.471
569.70	16.507
570.03	16.519
570.37	16.547
570.70	16.576
571.04	16.553
571.37	16.568
571.70	16.584
572.04	16.587
572.37	16.614
572.71	16.641
573.04	16.644
573.37	16.657
573.71	16.660
574.04	16.666
574.38	16.665
574.71	16.684
575.04	16.716
575.38	16.731
575.71	16.755
576.05	16.729
576.38	16.758
576.71	16.780
577.05	16.800
577.38	16.795
577.71	16.807
578.05	16.840
578.38	16.840
578.71	16.843
579.05	16.842
579.38	16.831
579.71	16.850
580.05	16.834
580.38	16.850
580.71	16.848
581.05	16.871
581.38	16.887
581.71	16.876
582.05	16.898
582.38	16.883
582.71	16.859
583.04	16.855
583.38	16.857
583.71	16.851
584.04	16.856
584.38	16.861
584.71	16.854
585.04	16.849
585.37	16.829
585.71	16.842
586.04	16.827
586.37	16.854
586.70	16.828
587.04	16.839
587.37	16.818
587.70	16.777
588.03	16.740
588.37	16.744
588.70	16.715
589.03	16.701
589.36	16.675
589.69	16.670
590.03	16.622
590.36	16.643
590.69	16.581
591.02	16.562
591.35	16.569
591.69	16.554
592.02	16.514
592.35	16.511
592.68	16.485
593.01	16.440
593.35	16.461
593.68	16.456
594.01	16.427
594.34	16.454
594.67	16.437
595.00	16.368
595.34	16.335
595.67	16.331
596.00	16.287
596.33	16.292
596.66	16.302
596.99	16.275
597.32	16.271
597.65	16.236
597.99	16.198
598.32	16.176
598.65	16.206
598.98	16.209
599.31	16.210
599.64	16.230
599.97	16.217
600.30	16.183
600.63	16.124
600.96	16.142
601.30	16.127
601.63	16.124
601.96	16.135
602.29	16.152
602.62	16.160
602.95	16.129
603.28	16.103
603.61	16.075
603.94	16.047
604.27	16.065
604.60	15.999
604.93	15.998
605.26	15.958
605.59	15.929
605.92	15.889
606.25	15.865
606.58	15.843
606.91	15.826
607.24	15.838
607.57	15.842
607.90	15.829
608.23	15.835
608.56	15.825
608.89	15.802
609.22	15.745
609.55	15.753
609.88	15.734
610.21	15.723
610.54	15.675
610.87	15.617
611.20	15.547
611.53	15.518
611.86	15.509
612.19	15.486
612.52	15.461
612.85	15.506
613.18	15.478
613.51	15.427
613.84	15.403
614.17	15.418
614.49	15.392
614.82	15.448
615.15	15.425
615.48	15.383
615.81	15.379
616.14	15.380
616.47	15.322
616.80	15.295
617.13	15.305
617.46	15.261
617.78	15.196
618.11	15.219
618.44	15.187
618.77	15.157
619.10	15.116
619.43	15.085
619.76	15.035
620.09	15.001
620.41	14.964
620.74	14.933
621.07	14.938
621.40	15.003
621.73	14.942
622.06	14.936
622.38	14.978
622.71	15.011
623.04	14.981
623.37	14.996
623.70	15.006
624.02	15.004
624.35	15.028
624.68	15.041
625.01	15.007
625.34	15.026
625.66	14.997
625.99	14.934
626.32	14.900
626.65	14.923
626.98	14.891
627.30	14.911
627.63	14.900
627.96	14.861
628.29	14.796
628.61	14.750
628.94	14.728
629.27	14.713
629.60	14.695
629.92	14.686
630.25	14.614
630.58	14.605
630.91	14.517
631.23	14.494
631.56	14.468
631.89	14.464
632.21	14.450
632.54	14.447
632.87	14.396
633.19	14.380
633.52	14.328
633.85	14.293
634.18	14.255
634.50	14.265
634.83	14.203
635.16	14.186
635.48	14.134
635.81	14.133
636.14	14.059
636.46	14.048
636.79	14.001
637.11	13.964
637.44	13.969
637.77	13.965
638.09	13.904
638.42	13.856
638.75	13.801
639.07	13.772
639.40	13.727
639.73	13.710
640.05	13.617
640.38	13.577
640.70	13.579
641.03	13.532
641.36	13.517
641.68	13.527
642.01	13.587
642.33	13.579
642.66	13.536
642.98	13.503
643.31	13.471
643.64	13.540
643.96	13.566
644.29	13.533
644.61	13.511
644.94	13.494
645.26	13.496
645.59	13.477
645.91	13.465
646.24	13.487
646.56	13.476
646.89	13.488
647.22	13.449
647.54	13.403
647.87	13.397
648.19	13.418
648.52	13.405
648.84	13.371
649.17	13.352
649.49	13.308
649.82	13.289
650.14	13.284
650.47	13.254
650.79	13.239
651.11	13.233
651.44	13.191
651.76	13.159
652.09	13.112
652.41	13.064
652.74	12.986
653.06	12.997
653.39	12.974
653.71	12.937
654.04	12.909
654.36	12.871
654.68	12.828
655.01	12.855
655.33	12.857
655.66	12.818
655.98	12.830
656.30	12.846
656.63	12.877
656.95	12.888
657.28	12.858
657.60	12.858
657.92	12.832
658.25	12.827
658.57	12.748
658.90	12.687
659.22	12.690
659.54	12.612
659.87	12.587
660.19	12.461
660.51	12.391
660.84	12.308
661.16	12.211
661.48	12.203
661.81	12.117
662.13	12.060
662.45	12.034
662.78	11.956
663.10	11.966
663.42	11.951
663.75	11.962
664.07	11.955
664.39	12.045
664.72	12.051
665.04	12.053
665.36	12.059
665.69	12.104
666.01	12.054
666.33	12.104
666.65	12.032
666.98	11.977
667.30	11.987
667.62	11.946
667.94	11.830
668.27	11.814
668.59	11.770
668.91	11.795
669.23	11.830
669.56	11.873
669.88	11.802
670.20	11.790
670.52	11.776
670.85	11.687
671.17	11.638
671.49	11.580
671.81	11.521
672.13	11.494
672.46	11.443
672.78	11.379
673.10	11.245
673.42	11.229
673.74	11.252
674.07	11.265
674.39	11.275
674.71	11.294
675.03	11.382
675.35	11.420
675.67	11.356
676.00	11.378
676.32	11.367
676.64	11.470
676.96	11.533
677.28	11.597
677.60	11.605
677.92	11.605
678.25	11.604
678.57	11.620
678.89	11.657
679.21	11.653
679.53	11.587
679.85	11.581
680.17	11.582
680.49	11.492
680.81	11.422
681.13	11.452
681.46	11.426
681.78	11.437
682.10	11.408
682.42	11.352
682.74	11.397
683.06	11.432
683.38	11.425
683.70	11.434
684.02	11.533
684.34	11.587
684.66	11.570
684.98	11.652
685.30	11.702
685.62	11.729
685.94	11.706
686.26	11.687
686.58	11.719
686.90	11.764
687.22	11.765
687.54	11.781
687.86	11.731
688.18	11.719
688.50	11.715
688.82	11.718
689.14	11.626
689.46	11.647
689.78	11.675
690.10	11.636
690.42	11.607
690.74	11.593
691.06	11.533
691.38	11.490
691.70	11.411
692.02	11.339
692.34	11.253
692.66	11.286
692.98	11.230
693.30	11.288
693.62	11.329
693.94	11.383
694.26	11.385
694.57	11.377
694.89	11.431
695.21	11.456
695.53	11.487
695.85	11.480
696.17	11.548
696.49	11.600
696.81	11.616
697.13	11.654
697.44	11.665
697.76	11.695
698.08	11.684
698.40	11.629
698.72	11.517
699.04	11.441
699.36	11.414
699.67	11.284
699.99	11.202
700.31	11.014
700.63	10.829
700.95	10.691
701.27	10.464
701.58	10.341
701.90	10.364
702.22	10.411
702.54	10.428
702.86	10.426
703.17	10.317
703.49	10.234
703.81	10.325
704.13	10.352
704.45	10.202
704.76	10.234
705.08	10.204
705.40	10.094
705.72	10.136
706.03	10.219
706.35	10.250
706.67	10.375
706.99	10.477
707.30	10.417
707.62	10.485
707.94	10.670
708.26	10.667
708.57	10.705
708.89	10.788
709.21	10.822
709.53	10.710
709.84	10.757
710.16	10.739
710.48	10.781
710.79	10.822
711.11	10.795
711.43	10.721
711.74	10.770
712.06	10.844
712.38	10.885
712.69	10.857
713.01	10.915
713.33	10.874
713.64	10.968
713.96	11.004
714.28	11.058
714.59	11.141
714.91	11.251
715.23	11.404
715.54	11.384
715.86	11.386
716.17	11.442
716.49	11.372
716.81	11.336
717.12	11.266
717.44	11.126
717.76	11.062
718.07	10.922
718.39	10.759
718.70	10.557
719.02	10.513
719.33	10.387
719.65	10.251
719.97	10.351
720.28	10.407
720.60	10.415
720.91	10.483
721.23	10.522
721.54	10.568
721.86	10.762
722.17	10.968
722.49	11.086
722.81	11.262
723.12	11.317
723.44	11.390
723.75	11.387
724.07	11.305
724.38	11.348
724.70	11.253
725.01	11.216
725.33	11.254
725.64	11.095
725.96	11.008
726.27	11.023
726.59	11.216
726.90	11.146
727.22	11.198
727.53	11.335
727.84	11.237
728.16	11.246
728.47	11.274
728.79	11.201
729.10	11.130
729.42	11.107
729.73	10.998
730.05	10.846
730.36	10.736
730.67	10.673
730.99	10.555
731.30	10.519
731.62	10.564
731.93	10.464
732.24	10.174
732.56	10.191
732.87	10.146
733.19	10.008
733.50	9.938
733.81	9.917
734.13	9.883
734.44	9.856
734.76	9.903
735.07	9.686
735.38	9.699
735.70	9.770
736.01	9.730
736.32	9.742
736.64	9.757
736.95	9.615
737.26	9.607
737.58	9.474
737.89	9.401
738.20	9.260
738.52	9.244
738.83	9.215
739.14	9.208
739.45	9.170
739.77	9.019
740.08	8.973
740.39	8.983
740.71	8.882
741.02	8.825
741.33	8.720
741.64	8.560
741.96	8.617
742.27	8.582
742.58	8.523
742.90	8.375
743.21	8.187
743.52	8.290
743.83	8.221
744.14	8.052
744.46	7.862
744.77	7.945
745.08	8.029
745.39	8.010
745.71	8.038
746.02	8.090
746.33	8.221
746.64	8.467
746.95	8.359
747.27	8.338
747.58	8.449
747.89	8.647
748.20	8.555
748.51	8.498
748.82	8.406
749.14	8.219
749.45	8.160
749.76	8.059
750.07	7.953
750.38	7.849
750.69	7.828
751.01	7.942
751.32	7.819
751.63	7.876
751.94	8.052
752.25	8.183
752.56	8.142
752.87	8.234
753.18	8.211
753.49	8.191
753.81	8.391
754.12	8.495
754.43	8.553
754.74	8.872
755.05	8.961
755.36	9.016
755.67	9.122
755.98	9.466
756.29	9.584
756.60	9.821
756.91	10.237
757.22	10.518
757.53	10.848
757.84	11.040
758.15	11.242
758.46	11.504
758.77	11.838
759.09	12.018
759.40	12.239
759.71	12.415
760.02	12.595
760.33	12.543
760.64	12.425
760.95	12.457
761.26	12.502
761.57	12.448
761.88	12.488
762.18	12.388
762.49	12.317
762.80	12.162
763.11	12.099
763.42	11.953
763.73	11.839
764.04	11.748
764.35	11.551
764.66	11.293
764.97	11.016
765.28	10.650
765.59	10.333
765.90	10.108
766.21	9.810
766.52	9.380
766.83	9.152
767.14	8.850
767.44	8.547
767.75	8.304
768.06	8.213
768.37	8.029
768.68	7.937
768.99	7.900
769.30	7.584
769.61	7.451
769.91	7.526
770.22	7.370
770.53	7.527
770.84	7.562
771.15	7.361
771.46	7.272
771.77	7.395
772.07	7.199
772.38	7.261
772.69	7.315
773.00	7.355
773.31	7.424
773.61	7.325
773.92	7.150
774.23	7.422
774.54	7.491
774.85	7.424
775.15	7.252
775.46	7.295
775.77	6.877
776.08	6.926
776.39	6.883
776.69	6.693
777.00	6.812
777.31	6.833
777.62	6.647
777.92	6.980
778.23	6.909
778.54	6.892
778.85	7.040
779.15	7.347
779.46	7.305
779.77	7.297
780.07	7.206
780.38	7.149
780.69	7.068
781.00	7.192
781.30	6.943
781.61	6.945
781.92	6.914
782.22	6.749
782.53	6.746
782.84	6.785
783.14	6.793
783.45	7.162
783.76	7.298
784.06	7.571
784.37	7.607
784.68	7.655
784.98	7.964
785.29	8.609
785.60	8.844
785.90	9.064
786.21	9.203
786.51	9.536
786.82	9.557
787.13	9.711
787.43	9.822
787.74	9.892
788.04	10.002
788.35	10.022
788.66	9.719
788.96	9.893
789.27	9.838
789.57	10.031
789.88	9.994
790.19	10.088
790.49	10.125
790.80	10.046
791.10	10.000
791.41	9.988
791.71	9.741
792.02	9.820
792.32	9.627
792.63	9.464
792.93	9.572
793.24	9.525
793.54	9.425
793.85	9.207
794.15	9.326
794.46	9.482
794.76	9.681
795.07	9.997
795.37	9.897
795.68	10.201
795.98	10.263
796.29	10.268
796.59	10.227
796.90	10.328
797.20	10.339
797.51	10.309
797.81	10.374
798.12	10.229
798.42	10.492
798.72	10.477
799.03	10.506
799.33	10.604
799.64	10.322
799.94	10.400
800.25	10.037
800.55	10.147
800.85	10.060
801.16	9.724
801.46	9.731
801.77	9.337
802.07	9.645
802.37	9.416
802.68	9.602
802.98	9.946
803.28	9.899
803.59	10.361
803.89	10.558
804.20	10.845
804.50	11.142
804.80	11.173
805.11	11.148
805.41	10.984
805.71	11.150
806.02	10.877
806.32	10.464
806.62	10.442
806.93	10.301
807.23	10.389
807.53	10.384
807.83	10.405
808.14	10.556
808.44	11.017
808.74	10.970
809.05	11.112
809.35	11.564
809.65	12.222
809.95	12.333
810.26	12.536
810.56	12.587
810.86	12.607
811.16	12.540
811.47	12.476
811.77	12.169
812.07	12.625
812.37	12.454
812.68	12.613
812.98	12.347
813.28	12.670
813.58	12.754
813.88	12.861
814.19	13.420
814.49	13.651
814.79	14.086
815.09	14.186
815.39	13.965
815.70	14.198
816.00	14.041
816.30	14.129
816.60	14.005
816.90	13.851
817.20	14.134
817.50	13.784
817.81	13.755
818.11	13.794
818.41	14.091
818.71	14.231
819.01	14.238
819.31	14.381
819.61	14.539
819.92	14.729
820.22	14.795
820.52	14.781
820.82	14.881
821.12	14.939
821.42	14.933
821.72	14.955
822.02	14.969
822.32	15.008
822.62	15.068
822.92	15.059
823.22	14.967
823.52	15.071
823.83	15.057
824.13	15.003
824.43	14.966
824.73	15.022
825.03	15.000
825.33	15.106
825.63	15.097
825.93	14.906
826.23	14.810
826.53	14.915
826.83	14.704
827.13	14.568
827.43	14.449
827.73	14.453
828.03	14.441
828.33	14.481
828.63	14.212
828.93	14.328
829.23	14.383
829.53	14.430
829.83	14.390
830.13	14.633
830.42	14.839
830.72	14.955
831.02	14.996
831.32	14.987
831.62	14.878
831.92	14.966
832.22	14.824
832.52	14.949
832.82	15.031
833.12	14.851
833.42	14.710
833.72	14.785
834.01	14.908
834.31	14.791
834.61	14.703
834.91	14.581
835.21	14.547
835.51	14.286
835.81	13.981
836.11	13.879
836.40	14.115
836.70	13.881
837.00	13.612
837.30	13.607
837.60	13.846
837.90	13.977
838.19	13.805
838.49	13.963
838.79	14.242
839.09	14.342
839.39	14.167
839.68	13.638
839.98	13.523
840.28	13.667
840.58	13.588
840.88	13.334
841.17	12.688
841.47	12.886
841.77	12.394
842.07	12.507
842.36	12.635
842.66	12.319
842.96	11.965
843.26	11.930
843.55	11.020
843.85	9.696
844.15	8.683
844.45	8.713
844.74	7.951
845.04	8.227
845.34	7.641
845.63	7.912
845.93	9.439
846.23	11.021
846.53	12.018
846.82	11.950
847.12	12.318
847.42	12.912
847.71	13.685
848.01	14.807
848.31	15.093
848.60	16.214
848.90	15.935
849.19	14.453
849.49	12.281
849.79	11.782
850.08	13.082
850.38	13.115
850.68	13.383
850.97	13.384
851.27	11.607
851.56	11.043
851.86	9.253
852.16	8.488
852.45	7.839
852.75	8.609
853.04	7.733
853.34	7.651
853.64	7.981
853.93	7.873
854.23	7.772
854.52	8.683
854.82	8.420
855.11	9.066
855.41	9.102
855.70	9.640
856.00	9.831
856.30	9.432
856.59	8.238
856.89	7.546
857.18	7.708
857.48	7.333
857.77	6.778
858.07	6.981
858.36	6.553
858.66	8.175
858.95	7.965
859.25	9.288
859.54	10.733
859.84	11.069
860.13	11.549
860.42	12.662
860.72	12.947
861.01	12.952
861.31	13.109
861.60	14.296
861.90	14.536
862.19	14.305
862.49	13.504
862.78	13.982
863.07	12.817
863.37	13.596
863.66	12.720
863.96	12.966
864.25	13.283
864.54	13.221
864.84	12.256
865.13	10.623
865.43	10.772
865.72	6.546
866.01	11.678
866.31	8.983
866.60	6.612
866.89	6.486
>>>>>End Spectral Data<<<<<
