OOIBase32 Version 2.0.0.6 Data File
++++++++++++++++++++++++++++++++++++
Date: 01-22-2012, 21:07:22
User: Valued Ocean Optics Customer
Spectrometer Serial Number: USB2E2917
Spectrometer Channel: Master
Integration Time (msec): 4
Spectra Averaged: 10
Boxcar Smoothing: 5
Correct for Electrical Dark: Enabled
Time Normalized: Disabled
Dual-beam Reference: Disabled
Reference Channel: Master
Temperature: Not acquired
Spectrometer Type: S2000
ADC Type: USB2000
Number of Pixels in File: 2048
Graph Title: 
>>>>>Begin Spectral Data<<<<<
180.30	0.000
180.67	0.000
181.03	25.471
181.40	-13.209
181.77	-340.989
182.14	-53.651
182.51	342.977
182.88	53.309
183.25	167.645
183.62	166.914
183.99	39.146
184.36	136.417
184.73	-36.745
185.10	2228.556
185.46	143.670
185.83	32.563
186.20	-54.273
186.57	883.299
186.94	156.069
187.31	-10.402
187.68	-2861.234
188.05	26.990
188.42	192.544
188.78	202.018
189.15	147.198
189.52	107.548
189.89	70.991
190.26	73.090
190.63	70.397
191.00	77.060
191.37	41.976
191.73	46.966
192.10	-6.982
192.47	-19.033
192.84	-245.650
193.21	-496.341
193.58	-497.372
193.94	-366.859
194.31	-131.943
194.68	-70.980
195.05	-73.419
195.42	-96.368
195.79	-95.045
196.15	-79.771
196.52	-59.492
196.89	-42.136
197.26	-28.898
197.63	-36.064
198.00	-66.897
198.36	-186.720
198.73	-295.950
199.10	-155.194
199.47	-39.290
199.84	-20.148
200.20	-40.484
200.57	-22.721
200.94	-7.578
201.31	-7.945
201.68	9.356
202.04	23.049
202.41	18.836
202.78	21.929
203.15	12.232
203.51	14.506
203.88	6.465
204.25	-3.978
204.62	-14.350
204.98	-6.962
205.35	-27.707
205.72	-78.070
206.09	-187.746
206.46	-109.824
206.82	-165.525
207.19	-148.505
207.56	-216.474
207.92	-217.796
208.29	-128.158
208.66	-81.189
209.03	-98.312
209.39	-43.929
209.76	-28.935
210.13	0.053
210.50	-10.249
210.86	-9.675
211.23	-22.591
211.60	-8.989
211.96	-20.126
212.33	-83.398
212.70	3720.593
213.07	433.820
213.43	458.160
213.80	1111.511
214.17	224.818
214.53	1060.609
214.90	-102.344
215.27	-22.869
215.63	-51.687
216.00	-9.728
216.37	7.604
216.74	-0.757
217.10	8.970
217.47	14.457
217.84	1.689
218.20	2.599
218.57	6.249
218.94	-12.038
219.30	-16.108
219.67	-5.763
220.04	-6.784
220.40	-4.989
220.77	1.819
221.13	3.456
221.50	7.444
221.87	10.251
222.23	13.024
222.60	4.346
222.97	7.099
223.33	-5.570
223.70	-16.388
224.07	-13.234
224.43	-13.952
224.80	-10.716
225.16	-8.751
225.53	-8.282
225.90	-6.471
226.26	-4.777
226.63	-3.719
226.99	-2.924
227.36	0.629
227.73	5.198
228.09	4.111
228.46	5.325
228.82	5.670
229.19	5.553
229.56	4.262
229.92	3.611
230.29	3.764
230.65	4.920
231.02	2.037
231.38	2.829
231.75	-0.366
232.12	1.129
232.48	-2.061
232.85	-1.666
233.21	-2.600
233.58	0.720
233.94	0.852
234.31	0.210
234.68	-1.361
235.04	2.127
235.41	0.226
235.77	0.197
236.14	-1.725
236.50	1.839
236.87	2.447
237.23	2.487
237.60	0.596
237.96	0.782
238.33	-0.518
238.69	0.831
239.06	1.086
239.42	1.653
239.79	2.352
240.15	3.691
240.52	3.706
240.88	3.313
241.25	3.556
241.61	3.345
241.98	3.307
242.34	3.953
242.71	3.612
243.07	3.477
243.44	3.523
243.80	3.531
244.17	3.162
244.53	2.488
244.90	2.534
245.26	2.815
245.63	3.061
245.99	2.977
246.36	2.789
246.72	2.825
247.09	2.469
247.45	2.927
247.81	3.005
248.18	2.976
248.54	3.150
248.91	3.186
249.27	2.650
249.64	2.743
250.00	3.135
250.36	3.465
250.73	2.826
251.09	3.126
251.46	1.931
251.82	1.656
252.19	1.415
252.55	1.710
252.91	1.932
253.28	2.291
253.64	2.444
254.01	2.071
254.37	2.252
254.73	2.792
255.10	2.666
255.46	3.460
255.83	3.125
256.19	3.387
256.55	3.657
256.92	3.634
257.28	3.735
257.65	3.727
258.01	3.686
258.37	3.520
258.74	3.691
259.10	3.931
259.46	3.752
259.83	4.127
260.19	4.134
260.55	3.805
260.92	3.653
261.28	3.317
261.64	3.172
262.01	3.372
262.37	3.323
262.73	3.157
263.10	2.563
263.46	2.881
263.82	2.371
264.19	1.974
264.55	2.385
264.91	2.633
265.28	3.110
265.64	3.031
266.00	2.628
266.37	2.882
266.73	2.923
267.09	3.153
267.46	2.728
267.82	3.071
268.18	3.355
268.54	3.486
268.91	3.609
269.27	3.320
269.63	3.002
270.00	3.214
270.36	3.046
270.72	2.952
271.08	3.002
271.45	3.360
271.81	3.385
272.17	3.737
272.53	3.643
272.90	3.453
273.26	3.388
273.62	3.793
273.98	4.064
274.35	4.177
274.71	4.104
275.07	4.170
275.43	4.110
275.80	4.087
276.16	3.829
276.52	3.633
276.88	3.640
277.25	3.617
277.61	3.579
277.97	3.247
278.33	3.233
278.69	3.434
279.06	3.262
279.42	3.396
279.78	3.334
280.14	3.326
280.50	3.430
280.87	3.347
281.23	3.495
281.59	3.543
281.95	3.566
282.31	3.532
282.68	3.376
283.04	3.369
283.40	2.888
283.76	2.852
284.12	2.845
284.48	2.735
284.85	2.745
285.21	2.766
285.57	2.722
285.93	2.786
286.29	2.594
286.65	2.540
287.02	2.679
287.38	2.944
287.74	3.113
288.10	3.066
288.46	2.953
288.82	2.805
289.18	2.442
289.54	2.386
289.91	2.362
290.27	2.681
290.63	2.844
290.99	2.683
291.35	2.636
291.71	2.398
292.07	2.289
292.43	2.441
292.79	2.646
293.16	3.030
293.52	3.053
293.88	3.028
294.24	2.829
294.60	2.901
294.96	2.975
295.32	3.123
295.68	3.024
296.04	3.052
296.40	2.919
296.76	2.714
297.12	2.725
297.49	2.801
297.85	2.976
298.21	3.222
298.57	3.147
298.93	3.250
299.29	3.256
299.65	3.559
300.01	3.725
300.37	3.990
300.73	4.402
301.09	4.333
301.45	4.069
301.81	3.947
302.17	3.887
302.53	3.943
302.89	3.993
303.25	3.968
303.61	3.761
303.97	3.752
304.33	3.745
304.69	3.803
305.05	3.839
305.41	4.077
305.77	4.023
306.13	3.966
306.49	4.010
306.85	3.983
307.21	3.848
307.57	3.879
307.93	3.747
308.29	3.809
308.65	3.503
309.01	3.462
309.37	3.343
309.73	3.394
310.09	3.380
310.45	3.384
310.81	3.338
311.17	3.355
311.53	3.459
311.89	3.548
312.25	3.486
312.61	3.575
312.96	3.653
313.32	3.727
313.68	3.582
314.04	3.669
314.40	3.556
314.76	3.556
315.12	3.594
315.48	3.488
315.84	3.323
316.20	3.284
316.56	3.320
316.92	3.291
317.27	3.380
317.63	3.567
317.99	3.551
318.35	3.674
318.71	3.790
319.07	3.878
319.43	3.791
319.79	3.934
320.15	4.014
320.50	4.133
320.86	4.220
321.22	4.221
321.58	4.084
321.94	4.202
322.30	4.292
322.66	4.247
323.01	4.276
323.37	4.520
323.73	4.580
324.09	4.678
324.45	4.617
324.81	4.635
325.17	4.747
325.52	4.991
325.88	5.000
326.24	4.967
326.60	5.049
326.96	5.139
327.31	5.042
327.67	5.170
328.03	5.189
328.39	5.239
328.75	5.329
329.11	5.355
329.46	5.409
329.82	5.409
330.18	5.491
330.54	5.546
330.90	5.544
331.25	5.668
331.61	5.569
331.97	5.450
332.33	5.576
332.68	5.659
333.04	5.683
333.40	5.723
333.76	5.741
334.11	5.683
334.47	5.852
334.83	5.854
335.19	5.814
335.54	5.867
335.90	5.995
336.26	5.920
336.62	5.855
336.97	5.891
337.33	5.925
337.69	5.962
338.05	6.066
338.40	5.907
338.76	5.999
339.12	6.047
339.48	6.057
339.83	6.062
340.19	6.240
340.55	6.335
340.90	6.337
341.26	6.265
341.62	6.279
341.97	6.355
342.33	6.445
342.69	6.576
343.04	6.602
343.40	6.643
343.76	6.605
344.12	6.455
344.47	6.331
344.83	6.330
345.19	6.367
345.54	6.427
345.90	6.271
346.26	6.265
346.61	6.055
346.97	6.173
347.32	6.183
347.68	6.288
348.04	6.393
348.39	6.546
348.75	6.533
349.11	6.573
349.46	6.554
349.82	6.661
350.18	6.665
350.53	6.805
350.89	6.743
351.24	6.787
351.60	6.761
351.96	6.813
352.31	6.717
352.67	6.730
353.02	6.739
353.38	6.814
353.74	6.822
354.09	6.910
354.45	6.824
354.80	6.788
355.16	6.804
355.52	6.837
355.87	6.801
356.23	6.874
356.58	6.929
356.94	6.965
357.29	6.925
357.65	6.936
358.00	6.864
358.36	6.941
358.72	6.924
359.07	6.899
359.43	6.862
359.78	6.916
360.14	6.910
360.49	6.872
360.85	6.884
361.20	6.906
361.56	6.921
361.91	7.016
362.27	7.017
362.62	7.091
362.98	7.150
363.33	7.292
363.69	7.317
364.04	7.355
364.40	7.450
364.75	7.406
365.11	7.384
365.46	7.393
365.82	7.271
366.17	7.276
366.53	7.269
366.88	7.280
367.24	7.253
367.59	7.203
367.95	7.221
368.30	7.216
368.66	7.226
369.01	7.279
369.37	7.278
369.72	7.346
370.08	7.373
370.43	7.374
370.78	7.393
371.14	7.385
371.49	7.402
371.85	7.464
372.20	7.506
372.56	7.619
372.91	7.634
373.26	7.745
373.62	7.725
373.97	7.784
374.33	7.798
374.68	7.815
375.03	7.830
375.39	7.812
375.74	7.770
376.10	7.736
376.45	7.732
376.80	7.763
377.16	7.710
377.51	7.787
377.87	7.841
378.22	7.925
378.57	7.946
378.93	7.950
379.28	8.042
379.63	8.120
379.99	8.190
380.34	8.213
380.70	8.278
381.05	8.328
381.40	8.333
381.76	8.324
382.11	8.317
382.46	8.333
382.82	8.370
383.17	8.391
383.52	8.367
383.88	8.366
384.23	8.377
384.58	8.398
384.94	8.501
385.29	8.552
385.64	8.540
385.99	8.593
386.35	8.620
386.70	8.667
387.05	8.703
387.41	8.742
387.76	8.759
388.11	8.794
388.47	8.749
388.82	8.737
389.17	8.761
389.52	8.829
389.88	8.837
390.23	8.896
390.58	8.900
390.93	8.935
391.29	8.999
391.64	9.041
391.99	9.061
392.34	9.142
392.70	9.140
393.05	9.190
393.40	9.201
393.75	9.256
394.11	9.279
394.46	9.309
394.81	9.318
395.16	9.332
395.52	9.361
395.87	9.364
396.22	9.397
396.57	9.418
396.92	9.411
397.28	9.403
397.63	9.389
397.98	9.421
398.33	9.479
398.68	9.534
399.04	9.526
399.39	9.545
399.74	9.586
400.09	9.576
400.44	9.599
400.80	9.650
401.15	9.683
401.50	9.757
401.85	9.739
402.20	9.732
402.55	9.717
402.90	9.742
403.26	9.738
403.61	9.770
403.96	9.806
404.31	9.836
404.66	9.822
405.01	9.864
405.36	9.860
405.72	9.938
406.07	9.967
406.42	10.023
406.77	10.037
407.12	10.105
407.47	10.123
407.82	10.141
408.17	10.146
408.53	10.184
408.88	10.206
409.23	10.229
409.58	10.207
409.93	10.221
410.28	10.229
410.63	10.253
410.98	10.221
411.33	10.221
411.68	10.234
412.03	10.251
412.38	10.271
412.73	10.258
413.09	10.260
413.44	10.264
413.79	10.272
414.14	10.284
414.49	10.295
414.84	10.314
415.19	10.297
415.54	10.302
415.89	10.272
416.24	10.279
416.59	10.263
416.94	10.253
417.29	10.220
417.64	10.228
417.99	10.214
418.34	10.207
418.69	10.180
419.04	10.184
419.39	10.190
419.74	10.227
420.09	10.225
420.44	10.247
420.79	10.258
421.14	10.281
421.49	10.296
421.84	10.297
422.19	10.307
422.54	10.353
422.89	10.376
423.24	10.378
423.59	10.370
423.94	10.391
424.29	10.407
424.64	10.422
424.99	10.471
425.34	10.490
425.68	10.532
426.03	10.569
426.38	10.594
426.73	10.623
427.08	10.658
427.43	10.702
427.78	10.710
428.13	10.741
428.48	10.783
428.83	10.798
429.18	10.783
429.53	10.806
429.87	10.832
430.22	10.823
430.57	10.846
430.92	10.858
431.27	10.864
431.62	10.858
431.97	10.828
432.32	10.814
432.67	10.804
433.01	10.837
433.36	10.856
433.71	10.855
434.06	10.895
434.41	10.883
434.76	10.901
435.11	10.924
435.45	10.966
435.80	10.984
436.15	11.021
436.50	11.011
436.85	11.005
437.20	10.979
437.54	10.989
437.89	10.984
438.24	10.991
438.59	10.976
438.94	10.957
439.29	10.934
439.63	10.940
439.98	10.919
440.33	10.935
440.68	10.934
441.03	10.938
441.37	10.917
441.72	10.908
442.07	10.919
442.42	10.945
442.76	10.959
443.11	10.976
443.46	10.980
443.81	10.981
444.16	10.996
444.50	10.995
444.85	11.012
445.20	11.035
445.55	11.044
445.89	11.038
446.24	11.030
446.59	11.046
446.94	11.053
447.28	11.073
447.63	11.102
447.98	11.081
448.32	11.090
448.67	11.109
449.02	11.111
449.37	11.133
449.71	11.156
450.06	11.211
450.41	11.218
450.75	11.217
451.10	11.239
451.45	11.252
451.79	11.303
452.14	11.360
452.49	11.360
452.84	11.377
453.18	11.382
453.53	11.400
453.88	11.396
454.22	11.410
454.57	11.432
454.92	11.430
455.26	11.417
455.61	11.396
455.95	11.376
456.30	11.382
456.65	11.377
456.99	11.383
457.34	11.393
457.69	11.392
458.03	11.384
458.38	11.417
458.73	11.454
459.07	11.494
459.42	11.540
459.76	11.584
460.11	11.627
460.46	11.680
460.80	11.706
461.15	11.758
461.49	11.798
461.84	11.866
462.19	11.906
462.53	11.933
462.88	11.991
463.22	11.996
463.57	12.037
463.91	12.063
464.26	12.119
464.61	12.155
464.95	12.179
465.30	12.215
465.64	12.257
465.99	12.277
466.33	12.302
466.68	12.285
467.02	12.366
467.37	12.396
467.71	12.401
468.06	12.395
468.41	12.434
468.75	12.471
469.10	12.501
469.44	12.531
469.79	12.547
470.13	12.570
470.48	12.616
470.82	12.615
471.17	12.580
471.51	12.602
471.86	12.611
472.20	12.592
472.55	12.590
472.89	12.568
473.23	12.547
473.58	12.522
473.92	12.508
474.27	12.512
474.61	12.485
474.96	12.506
475.30	12.520
475.65	12.526
475.99	12.556
476.34	12.537
476.68	12.536
477.02	12.531
477.37	12.542
477.71	12.539
478.06	12.503
478.40	12.498
478.75	12.524
479.09	12.557
479.43	12.611
479.78	12.685
480.12	12.771
480.47	12.873
480.81	12.977
481.15	13.096
481.50	13.231
481.84	13.403
482.19	13.568
482.53	13.681
482.87	13.726
483.22	13.656
483.56	13.494
483.90	13.320
484.25	13.196
484.59	13.136
484.94	13.041
485.28	12.923
485.62	12.774
485.97	12.619
486.31	12.500
486.65	12.450
487.00	12.531
487.34	12.702
487.68	12.889
488.03	13.017
488.37	13.033
488.71	13.071
489.06	13.098
489.40	13.118
489.74	13.146
490.09	13.171
490.43	13.205
490.77	13.233
491.11	13.279
491.46	13.320
491.80	13.357
492.14	13.413
492.49	13.460
492.83	13.518
493.17	13.582
493.51	13.634
493.86	13.708
494.20	13.765
494.54	13.817
494.88	13.878
495.23	13.913
495.57	13.960
495.91	14.040
496.25	14.123
496.60	14.208
496.94	14.268
497.28	14.351
497.62	14.426
497.97	14.500
498.31	14.595
498.65	14.670
498.99	14.817
499.33	14.927
499.68	15.007
500.02	15.083
500.36	15.162
500.70	15.264
501.04	15.354
501.39	15.449
501.73	15.544
502.07	15.624
502.41	15.718
502.75	15.798
503.09	15.881
503.44	15.955
503.78	16.035
504.12	16.113
504.46	16.184
504.80	16.266
505.14	16.333
505.49	16.424
505.83	16.518
506.17	16.595
506.51	16.670
506.85	16.740
507.19	16.827
507.53	16.906
507.87	16.987
508.22	17.067
508.56	17.147
508.90	17.216
509.24	17.292
509.58	17.376
509.92	17.445
510.26	17.513
510.60	17.593
510.94	17.670
511.28	17.751
511.63	17.848
511.97	17.927
512.31	17.990
512.65	18.091
512.99	18.171
513.33	18.246
513.67	18.329
514.01	18.407
514.35	18.495
514.69	18.552
515.03	18.623
515.37	18.652
515.71	18.719
516.05	18.779
516.39	18.829
516.73	18.858
517.07	18.888
517.41	18.934
517.75	18.980
518.09	19.016
518.43	19.086
518.77	19.146
519.11	19.198
519.45	19.252
519.79	19.316
520.13	19.371
520.47	19.451
520.81	19.535
521.15	19.606
521.49	19.661
521.83	19.696
522.17	19.741
522.51	19.745
522.85	19.801
523.19	19.851
523.53	19.949
523.87	20.057
524.21	20.159
524.55	20.250
524.89	20.349
525.23	20.451
525.57	20.552
525.91	20.637
526.25	20.751
526.58	20.840
526.92	20.928
527.26	20.983
527.60	21.030
527.94	21.054
528.28	21.064
528.62	21.059
528.96	21.060
529.30	21.064
529.64	21.060
529.97	21.042
530.31	21.025
530.65	21.009
530.99	20.988
531.33	20.973
531.67	20.985
532.01	21.019
532.35	21.055
532.68	21.079
533.02	21.106
533.36	21.115
533.70	21.135
534.04	21.158
534.38	21.166
534.71	21.195
535.05	21.214
535.39	21.219
535.73	21.236
536.07	21.236
536.41	21.276
536.74	21.283
537.08	21.306
537.42	21.340
537.76	21.396
538.10	21.468
538.43	21.524
538.77	21.588
539.11	21.674
539.45	21.719
539.79	21.785
540.12	21.812
540.46	21.846
540.80	21.873
541.14	21.892
541.47	21.917
541.81	21.909
542.15	21.920
542.49	21.933
542.82	21.934
543.16	21.952
543.50	21.968
543.84	21.993
544.17	22.007
544.51	22.056
544.85	22.103
545.18	22.110
545.52	22.146
545.86	22.180
546.20	22.202
546.53	22.251
546.87	22.290
547.21	22.315
547.54	22.343
547.88	22.425
548.22	22.493
548.55	22.517
548.89	22.558
549.23	22.613
549.56	22.635
549.90	22.658
550.24	22.660
550.57	22.688
550.91	22.752
551.25	22.797
551.58	22.825
551.92	22.843
552.26	22.918
552.59	22.964
552.93	23.045
553.27	23.105
553.60	23.165
553.94	23.205
554.27	23.241
554.61	23.283
554.95	23.344
555.28	23.360
555.62	23.363
555.95	23.395
556.29	23.456
556.63	23.432
556.96	23.460
557.30	23.498
557.63	23.529
557.97	23.569
558.31	23.573
558.64	23.604
558.98	23.655
559.31	23.693
559.65	23.694
559.98	23.677
560.32	23.707
560.65	23.712
560.99	23.731
561.33	23.727
561.66	23.724
562.00	23.757
562.33	23.732
562.67	23.734
563.00	23.757
563.34	23.763
563.67	23.793
564.01	23.802
564.34	23.838
564.68	23.825
565.01	23.874
565.35	23.916
565.68	23.926
566.02	23.941
566.35	23.966
566.69	23.984
567.02	24.011
567.36	24.058
567.69	24.056
568.03	24.047
568.36	24.077
568.69	24.098
569.03	24.113
569.36	24.110
569.70	24.125
570.03	24.143
570.37	24.166
570.70	24.212
571.04	24.205
571.37	24.260
571.70	24.303
572.04	24.331
572.37	24.329
572.71	24.343
573.04	24.363
573.37	24.391
573.71	24.420
574.04	24.444
574.38	24.458
574.71	24.498
575.04	24.551
575.38	24.582
575.71	24.635
576.05	24.733
576.38	24.806
576.71	24.878
577.05	24.958
577.38	25.027
577.71	25.084
578.05	25.136
578.38	25.162
578.71	25.150
579.05	25.146
579.38	25.168
579.71	25.164
580.05	25.164
580.38	25.206
580.71	25.217
581.05	25.224
581.38	25.245
581.71	25.235
582.05	25.281
582.38	25.307
582.71	25.370
583.04	25.396
583.38	25.386
583.71	25.356
584.04	25.329
584.38	25.360
584.71	25.355
585.04	25.356
585.37	25.325
585.71	25.320
586.04	25.318
586.37	25.321
586.70	25.313
587.04	25.329
587.37	25.353
587.70	25.335
588.03	25.272
588.37	25.291
588.70	25.286
589.03	25.327
589.36	25.289
589.69	25.284
590.03	25.240
590.36	25.225
590.69	25.212
591.02	25.198
591.35	25.213
591.69	25.221
592.02	25.171
592.35	25.168
592.68	25.124
593.01	25.107
593.35	25.104
593.68	25.097
594.01	25.061
594.34	25.040
594.67	25.027
595.00	24.992
595.34	24.979
595.67	24.949
596.00	24.911
596.33	24.933
596.66	24.957
596.99	24.950
597.32	24.988
597.65	25.002
597.99	24.983
598.32	24.974
598.65	24.955
598.98	24.939
599.31	24.921
599.64	24.911
599.97	24.881
600.30	24.835
600.63	24.754
600.96	24.726
601.30	24.662
601.63	24.630
601.96	24.622
602.29	24.625
602.62	24.649
602.95	24.682
603.28	24.661
603.61	24.630
603.94	24.600
604.27	24.638
604.60	24.600
604.93	24.669
605.26	24.665
605.59	24.662
605.92	24.668
606.25	24.645
606.58	24.632
606.91	24.632
607.24	24.623
607.57	24.656
607.90	24.643
608.23	24.634
608.56	24.591
608.89	24.614
609.22	24.578
609.55	24.563
609.88	24.529
610.21	24.518
610.54	24.505
610.87	24.533
611.20	24.480
611.53	24.476
611.86	24.474
612.19	24.501
612.52	24.452
612.85	24.462
613.18	24.480
613.51	24.450
613.84	24.390
614.17	24.382
614.49	24.339
614.82	24.386
615.15	24.387
615.48	24.377
615.81	24.337
616.14	24.386
616.47	24.379
616.80	24.325
617.13	24.334
617.46	24.357
617.78	24.295
618.11	24.292
618.44	24.248
618.77	24.217
619.10	24.168
619.43	24.177
619.76	24.156
620.09	24.140
620.41	24.123
620.74	24.147
621.07	24.118
621.40	24.159
621.73	24.119
622.06	24.122
622.38	24.110
622.71	24.104
623.04	24.014
623.37	23.947
623.70	23.922
624.02	23.868
624.35	23.806
624.68	23.792
625.01	23.739
625.34	23.682
625.66	23.608
625.99	23.570
626.32	23.563
626.65	23.545
626.98	23.523
627.30	23.491
627.63	23.483
627.96	23.464
628.29	23.425
628.61	23.409
628.94	23.426
629.27	23.416
629.60	23.367
629.92	23.335
630.25	23.325
630.58	23.274
630.91	23.218
631.23	23.189
631.56	23.191
631.89	23.153
632.21	23.124
632.54	23.122
632.87	23.139
633.19	23.111
633.52	23.018
633.85	22.963
634.18	22.934
634.50	22.939
634.83	22.950
635.16	22.906
635.48	22.884
635.81	22.866
636.14	22.795
636.46	22.735
636.79	22.714
637.11	22.731
637.44	22.735
637.77	22.731
638.09	22.674
638.42	22.634
638.75	22.549
639.07	22.479
639.40	22.435
639.73	22.418
640.05	22.336
640.38	22.300
640.70	22.281
641.03	22.255
641.36	22.214
641.68	22.163
642.01	22.159
642.33	22.175
642.66	22.157
642.98	22.121
643.31	22.041
643.64	22.097
643.96	22.090
644.29	22.070
644.61	22.026
644.94	21.980
645.26	22.036
645.59	21.963
645.91	21.957
646.24	21.948
646.56	21.967
646.89	21.990
647.22	21.931
647.54	21.888
647.87	21.877
648.19	21.837
648.52	21.812
648.84	21.680
649.17	21.663
649.49	21.528
649.82	21.453
650.14	21.382
650.47	21.341
650.79	21.289
651.11	21.201
651.44	21.133
651.76	21.124
652.09	21.091
652.41	21.156
652.74	21.121
653.06	21.115
653.39	21.101
653.71	21.048
654.04	21.005
654.36	20.966
654.68	20.986
655.01	20.981
655.33	20.982
655.66	20.987
655.98	20.911
656.30	20.893
656.63	20.840
656.95	20.804
657.28	20.780
657.60	20.738
657.92	20.696
658.25	20.646
658.57	20.570
658.90	20.454
659.22	20.404
659.54	20.336
659.87	20.236
660.19	20.200
660.51	20.182
660.84	20.130
661.16	20.076
661.48	20.004
661.81	19.918
662.13	19.851
662.45	19.888
662.78	19.772
663.10	19.719
663.42	19.686
663.75	19.650
664.07	19.629
664.39	19.586
664.72	19.537
665.04	19.596
665.36	19.578
665.69	19.557
666.01	19.464
666.33	19.497
666.65	19.524
666.98	19.492
667.30	19.531
667.62	19.483
667.94	19.454
668.27	19.445
668.59	19.335
668.91	19.353
669.23	19.324
669.56	19.284
669.88	19.221
670.20	19.160
670.52	19.144
670.85	19.097
671.17	19.011
671.49	19.028
671.81	19.010
672.13	19.009
672.46	18.984
672.78	18.983
673.10	18.916
673.42	18.892
673.74	18.829
674.07	18.837
674.39	18.811
674.71	18.785
675.03	18.698
675.35	18.600
675.67	18.574
676.00	18.550
676.32	18.485
676.64	18.526
676.96	18.506
677.28	18.573
677.60	18.476
677.92	18.398
678.25	18.372
678.57	18.355
678.89	18.381
679.21	18.335
679.53	18.280
679.85	18.288
680.17	18.227
680.49	18.196
680.81	18.131
681.13	18.145
681.46	18.099
681.78	18.081
682.10	18.099
682.42	18.051
682.74	18.012
683.06	17.977
683.38	17.931
683.70	18.046
684.02	18.065
684.34	18.017
684.66	18.021
684.98	18.102
685.30	18.112
685.62	18.107
685.94	18.108
686.26	18.145
686.58	18.183
686.90	18.171
687.22	18.004
687.54	17.957
687.86	17.867
688.18	17.834
688.50	17.748
688.82	17.778
689.14	17.711
689.46	17.725
689.78	17.689
690.10	17.672
690.42	17.617
690.74	17.613
691.06	17.595
691.38	17.619
691.70	17.555
692.02	17.480
692.34	17.316
692.66	17.212
692.98	17.069
693.30	17.076
693.62	16.980
693.94	16.994
694.26	16.926
694.57	16.893
694.89	16.823
695.21	16.850
695.53	16.890
695.85	16.921
696.17	16.962
696.49	16.977
696.81	16.965
697.13	16.969
697.44	16.959
697.76	16.989
698.08	16.953
698.40	17.013
698.72	16.954
699.04	16.828
699.36	16.777
699.67	16.624
699.99	16.517
700.31	16.339
700.63	16.243
700.95	16.121
701.27	15.964
701.58	15.867
701.90	15.690
702.22	15.621
702.54	15.701
702.86	15.627
703.17	15.619
703.49	15.612
703.81	15.646
704.13	15.514
704.45	15.436
704.76	15.420
705.08	15.450
705.40	15.356
705.72	15.319
706.03	15.253
706.35	15.283
706.67	15.325
706.99	15.270
707.30	15.196
707.62	15.281
707.94	15.389
708.26	15.416
708.57	15.312
708.89	15.478
709.21	15.459
709.53	15.430
709.84	15.438
710.16	15.363
710.48	15.482
710.79	15.413
711.11	15.356
711.43	15.291
711.74	15.228
712.06	15.258
712.38	15.274
712.69	15.249
713.01	15.317
713.33	15.300
713.64	15.427
713.96	15.417
714.28	15.627
714.59	15.769
714.91	15.889
715.23	16.016
715.54	16.072
715.86	15.985
716.17	16.060
716.49	15.940
716.81	15.948
717.12	15.918
717.44	15.826
717.76	15.721
718.07	15.606
718.39	15.417
718.70	15.349
719.02	15.289
719.33	15.218
719.65	15.142
719.97	15.159
720.28	15.060
720.60	14.906
720.91	14.966
721.23	14.947
721.54	14.896
721.86	15.013
722.17	15.081
722.49	15.131
722.81	15.238
723.12	15.285
723.44	15.329
723.75	15.464
724.07	15.486
724.38	15.484
724.70	15.411
725.01	15.443
725.33	15.286
725.64	15.179
725.96	15.076
726.27	15.068
726.59	15.102
726.90	15.033
727.22	14.939
727.53	15.029
727.84	14.868
728.16	14.944
728.47	14.952
728.79	15.013
729.10	14.942
729.42	15.011
729.73	14.945
730.05	14.863
730.36	14.838
730.67	14.718
730.99	14.592
731.30	14.595
731.62	14.465
731.93	14.409
732.24	14.112
732.56	14.085
732.87	13.826
733.19	13.832
733.50	13.675
733.81	13.541
734.13	13.609
734.44	13.585
734.76	13.616
735.07	13.449
735.38	13.300
735.70	13.314
736.01	13.294
736.32	13.414
736.64	13.230
736.95	13.138
737.26	13.218
737.58	13.134
737.89	13.053
738.20	12.860
738.52	12.808
738.83	12.687
739.14	12.812
739.45	12.746
739.77	12.610
740.08	12.533
740.39	12.492
740.71	12.354
741.02	12.158
741.33	12.052
741.64	11.921
741.96	11.976
742.27	12.000
742.58	11.860
742.90	11.702
743.21	11.520
743.52	11.512
743.83	11.505
744.14	11.371
744.46	11.336
744.77	11.357
745.08	11.439
745.39	11.359
745.71	11.429
746.02	11.457
746.33	11.609
746.64	11.769
746.95	11.857
747.27	11.768
747.58	11.809
747.89	11.893
748.20	11.802
748.51	11.838
748.82	11.807
749.14	11.700
749.45	11.643
749.76	11.471
750.07	11.488
750.38	11.241
750.69	11.443
751.01	11.481
751.32	11.370
751.63	11.409
751.94	11.473
752.25	11.569
752.56	11.627
752.87	11.745
753.18	11.670
753.49	11.582
753.81	11.617
754.12	11.576
754.43	11.658
754.74	11.799
755.05	11.922
755.36	11.713
755.67	11.903
755.98	12.194
756.29	12.311
756.60	12.639
756.91	13.017
757.22	13.510
757.53	13.685
757.84	13.783
758.15	14.058
758.46	14.304
758.77	14.705
759.09	14.958
759.40	15.093
759.71	15.312
760.02	15.429
760.33	15.476
760.64	15.375
760.95	15.527
761.26	15.627
761.57	15.571
761.88	15.517
762.18	15.445
762.49	15.251
762.80	15.103
763.11	14.977
763.42	14.850
763.73	14.595
764.04	14.509
764.35	14.209
764.66	13.955
764.97	13.737
765.28	13.409
765.59	13.135
765.90	12.824
766.21	12.619
766.52	12.203
766.83	11.849
767.14	11.707
767.44	11.323
767.75	11.028
768.06	10.722
768.37	10.439
768.68	10.509
768.99	10.485
769.30	10.421
769.61	10.090
769.91	10.019
770.22	10.076
770.53	9.962
770.84	9.814
771.15	9.894
771.46	10.090
771.77	10.246
772.07	10.029
772.38	9.975
772.69	10.035
773.00	9.775
773.31	9.901
773.61	9.640
773.92	9.927
774.23	10.060
774.54	9.987
774.85	10.019
775.15	9.717
775.46	9.718
775.77	9.572
776.08	9.496
776.39	9.755
776.69	9.458
777.00	9.770
777.31	9.335
777.62	9.241
777.92	9.332
778.23	9.189
778.54	9.459
778.85	9.457
779.15	9.561
779.46	9.580
779.77	9.763
780.07	9.913
780.38	9.942
780.69	9.947
781.00	10.114
781.30	10.032
781.61	10.155
781.92	10.075
782.22	10.210
782.53	10.151
782.84	10.207
783.14	10.127
783.45	10.317
783.76	10.062
784.06	10.264
784.37	10.487
784.68	10.517
784.98	10.686
785.29	10.907
785.60	10.809
785.90	11.093
786.21	10.927
786.51	11.303
786.82	11.161
787.13	11.459
787.43	11.683
787.74	11.526
788.04	11.717
788.35	11.594
788.66	11.599
788.96	11.868
789.27	11.870
789.57	12.197
789.88	11.879
790.19	11.926
790.49	11.898
790.80	11.633
791.10	11.668
791.41	11.776
791.71	11.660
792.02	11.520
792.32	11.384
792.63	11.384
792.93	11.199
793.24	11.315
793.54	11.435
793.85	11.480
794.15	11.681
794.46	11.957
794.76	11.794
795.07	12.148
795.37	12.076
795.68	12.272
795.98	12.205
796.29	12.296
796.59	12.166
796.90	12.365
797.20	12.425
797.51	12.536
797.81	12.118
798.12	12.379
798.42	12.461
798.72	12.808
799.03	12.733
799.33	12.984
799.64	13.062
799.94	13.332
800.25	13.164
800.55	13.029
800.85	12.745
801.16	12.893
801.46	12.605
801.77	12.306
802.07	12.484
802.37	12.423
802.68	12.674
802.98	12.898
803.28	12.670
803.59	12.782
803.89	12.748
804.20	12.968
804.50	13.026
804.80	13.063
805.11	12.979
805.41	12.307
805.71	12.155
806.02	11.389
806.32	10.889
806.62	10.797
806.93	10.643
807.23	10.826
807.53	10.966
807.83	11.169
808.14	11.265
808.44	11.346
808.74	12.193
809.05	12.477
809.35	12.852
809.65	13.206
809.95	13.607
810.26	14.107
810.56	14.275
810.86	14.114
811.16	13.967
811.47	14.253
811.77	14.717
812.07	14.292
812.37	14.442
812.68	14.673
812.98	14.642
813.28	14.862
813.58	14.965
813.88	14.527
814.19	15.239
814.49	15.761
814.79	15.939
815.09	15.457
815.39	15.562
815.70	15.532
816.00	15.679
816.30	15.855
816.60	15.472
816.90	15.042
817.20	15.699
817.50	15.365
817.81	15.383
818.11	15.490
818.41	15.804
818.71	16.021
819.01	16.183
819.31	16.199
819.61	16.385
819.92	16.555
820.22	16.720
820.52	16.663
820.82	16.663
821.12	16.719
821.42	16.698
821.72	16.715
822.02	16.707
822.32	16.701
822.62	16.728
822.92	16.667
823.22	16.545
823.52	16.517
823.83	16.553
824.13	16.622
824.43	16.540
824.73	16.656
825.03	16.687
825.33	16.709
825.63	16.583
825.93	16.559
826.23	16.462
826.53	16.547
826.83	16.439
827.13	16.261
827.43	16.119
827.73	16.105
828.03	15.844
828.33	15.756
828.63	15.672
828.93	15.887
829.23	15.812
829.53	15.767
829.83	15.840
830.13	15.895
830.42	16.030
830.72	16.191
831.02	16.074
831.32	15.881
831.62	15.595
831.92	15.561
832.22	15.504
832.52	15.544
832.82	15.660
833.12	15.605
833.42	15.505
833.72	15.480
834.01	15.240
834.31	15.190
834.61	15.333
834.91	15.440
835.21	15.471
835.51	15.136
835.81	14.657
836.11	14.734
836.40	14.640
836.70	14.386
837.00	14.154
837.30	14.517
837.60	14.727
837.90	14.753
838.19	15.221
838.49	15.598
838.79	15.980
839.09	16.374
839.39	16.243
839.68	16.015
839.98	16.039
840.28	16.405
840.58	15.915
840.88	15.672
841.17	15.624
841.47	15.719
841.77	14.000
842.07	13.458
842.36	13.323
842.66	12.363
842.96	12.044
843.26	11.539
843.55	10.288
843.85	10.526
844.15	9.465
844.45	8.418
844.74	7.229
845.04	8.899
845.34	8.481
845.63	8.226
845.93	9.155
846.23	10.346
846.53	11.423
846.82	12.121
847.12	10.935
847.42	11.436
847.71	11.937
848.01	11.705
848.31	11.649
848.60	13.131
848.90	12.890
849.19	14.049
849.49	11.805
849.79	11.748
850.08	12.461
850.38	13.557
850.68	13.937
850.97	14.808
851.27	15.272
851.56	14.112
851.86	12.867
852.16	13.774
852.45	12.577
852.75	14.323
853.04	14.010
853.34	14.202
853.64	13.031
853.93	13.639
854.23	12.890
854.52	12.014
854.82	11.356
855.11	11.941
855.41	9.929
855.70	10.070
856.00	8.794
856.30	7.016
856.59	5.084
856.89	4.693
857.18	4.247
857.48	4.025
857.77	4.770
858.07	6.569
858.36	7.435
858.66	9.419
858.95	8.954
859.25	10.149
859.54	12.299
859.84	13.343
860.13	14.039
860.42	14.510
860.72	15.447
861.01	15.017
861.31	14.770
861.60	14.434
861.90	14.847
862.19	13.256
862.49	13.051
862.78	13.250
863.07	11.505
863.37	11.509
863.66	11.253
863.96	9.942
864.25	10.620
864.54	10.412
864.84	9.924
865.13	8.861
865.43	9.521
865.72	18.993
866.01	10.583
866.31	13.819
866.60	4.597
866.89	-0.015
>>>>>End Spectral Data<<<<<
