OOIBase32 Version 2.0.0.6 Data File
++++++++++++++++++++++++++++++++++++
Date: 01-22-2012, 21:06:30
User: Valued Ocean Optics Customer
Spectrometer Serial Number: USB2E2917
Spectrometer Channel: Master
Integration Time (msec): 4
Spectra Averaged: 10
Boxcar Smoothing: 5
Correct for Electrical Dark: Enabled
Time Normalized: Disabled
Dual-beam Reference: Disabled
Reference Channel: Master
Temperature: Not acquired
Spectrometer Type: S2000
ADC Type: USB2000
Number of Pixels in File: 2048
Graph Title: 
>>>>>Begin Spectral Data<<<<<
180.30	0.000
180.67	0.000
181.03	-55.988
181.40	-22.258
181.77	128.434
182.14	-22.258
182.51	196.913
182.88	88.655
183.25	241.576
183.62	101.912
183.99	21.721
184.36	70.655
184.73	78.069
185.10	-231.622
185.46	113.078
185.83	34.695
186.20	38.329
186.57	664.371
186.94	78.399
187.31	205.457
187.68	215.218
188.05	57.874
188.42	85.697
188.78	188.169
189.15	75.856
189.52	86.934
189.89	72.103
190.26	47.851
190.63	29.365
191.00	1.276
191.37	-28.250
191.73	-53.748
192.10	-128.944
192.47	-123.983
192.84	-352.224
193.21	-497.887
193.58	-432.896
193.94	-373.965
194.31	-138.767
194.68	-63.222
195.05	-58.784
195.42	-70.753
195.79	-46.615
196.15	-29.312
196.52	3.755
196.89	-14.625
197.26	-4.573
197.63	-21.037
198.00	-47.468
198.36	-59.287
198.73	-57.132
199.10	-0.393
199.47	21.031
199.84	22.127
200.20	9.512
200.57	-1.422
200.94	32.995
201.31	29.532
201.68	31.694
202.04	41.338
202.41	25.762
202.78	30.685
203.15	25.306
203.51	32.322
203.88	27.112
204.25	15.367
204.62	4.150
204.98	-1.990
205.35	-26.096
205.72	-61.214
206.09	-138.629
206.46	-97.854
206.82	-150.889
207.19	-160.527
207.56	-210.534
207.92	-213.870
208.29	-130.001
208.66	-87.285
209.03	-108.634
209.39	-55.151
209.76	-29.912
210.13	-9.549
210.50	2.177
210.86	-36.787
211.23	-41.266
211.60	-59.383
211.96	-50.542
212.33	-86.740
212.70	3729.070
213.07	328.639
213.43	340.406
213.80	861.547
214.17	170.908
214.53	1014.850
214.90	-18.830
215.27	9.656
215.63	-3.975
216.00	-11.698
216.37	2.334
216.74	2.362
217.10	1.640
217.47	7.113
217.84	-4.822
218.20	-3.264
218.57	3.172
218.94	-19.560
219.30	-15.040
219.67	-4.409
220.04	-3.124
220.40	3.962
220.77	1.764
221.13	5.617
221.50	9.217
221.87	12.295
222.23	17.965
222.60	12.900
222.97	13.689
223.33	3.688
223.70	-2.608
224.07	-5.460
224.43	-9.965
224.80	-1.239
225.16	0.946
225.53	0.793
225.90	-0.977
226.26	-1.180
226.63	-1.850
226.99	-0.230
227.36	2.301
227.73	2.584
228.09	2.062
228.46	2.391
228.82	-0.498
229.19	-0.437
229.56	-2.709
229.92	-1.813
230.29	-1.888
230.65	-0.289
231.02	-2.264
231.38	-2.541
231.75	-2.889
232.12	-0.216
232.48	-0.288
232.85	3.021
233.21	1.926
233.58	4.770
233.94	3.082
234.31	4.630
234.68	2.921
235.04	4.806
235.41	4.324
235.77	3.598
236.14	2.152
236.50	2.957
236.87	3.083
237.23	4.352
237.60	2.868
237.96	4.264
238.33	2.414
238.69	4.236
239.06	2.554
239.42	1.502
239.79	2.218
240.15	2.669
240.52	3.126
240.88	2.533
241.25	1.642
241.61	1.551
241.98	1.044
242.34	1.184
242.71	0.426
243.07	1.617
243.44	2.503
243.80	2.712
244.17	2.307
244.53	1.521
244.90	1.627
245.26	1.855
245.63	2.087
245.99	2.599
246.36	2.686
246.72	2.940
247.09	2.450
247.45	2.406
247.81	2.374
248.18	2.588
248.54	3.028
248.91	2.778
249.27	2.804
249.64	3.465
250.00	3.279
250.36	3.233
250.73	2.563
251.09	2.421
251.46	1.789
251.82	1.565
252.19	1.558
252.55	1.764
252.91	2.295
253.28	2.315
253.64	1.817
254.01	1.509
254.37	1.771
254.73	2.452
255.10	2.689
255.46	3.572
255.83	3.695
256.19	3.478
256.55	3.030
256.92	2.904
257.28	2.936
257.65	2.796
258.01	2.606
258.37	2.486
258.74	2.422
259.10	2.575
259.46	2.287
259.83	2.396
260.19	2.415
260.55	2.627
260.92	2.603
261.28	2.288
261.64	2.264
262.01	2.217
262.37	2.149
262.73	1.982
263.10	1.254
263.46	1.398
263.82	1.128
264.19	0.935
264.55	0.715
264.91	0.856
265.28	1.311
265.64	1.202
266.00	1.298
266.37	1.539
266.73	2.020
267.09	2.426
267.46	1.966
267.82	1.883
268.18	2.262
268.54	2.110
268.91	2.273
269.27	1.943
269.63	1.825
270.00	1.802
270.36	1.892
270.72	1.687
271.08	1.590
271.45	1.873
271.81	2.037
272.17	1.940
272.53	2.187
272.90	1.874
273.26	2.108
273.62	2.382
273.98	2.733
274.35	2.806
274.71	2.761
275.07	3.062
275.43	3.142
275.80	3.055
276.16	3.111
276.52	2.900
276.88	2.882
277.25	2.497
277.61	2.502
277.97	1.995
278.33	1.787
278.69	1.854
279.06	1.639
279.42	1.615
279.78	1.787
280.14	1.719
280.50	1.968
280.87	2.180
281.23	2.437
281.59	2.345
281.95	2.612
282.31	2.483
282.68	2.529
283.04	2.502
283.40	2.344
283.76	2.221
284.12	2.120
284.48	2.016
284.85	1.796
285.21	1.773
285.57	1.692
285.93	1.740
286.29	1.726
286.65	1.638
287.02	1.745
287.38	2.031
287.74	2.153
288.10	2.203
288.46	2.160
288.82	2.205
289.18	2.138
289.54	2.128
289.91	2.111
290.27	2.438
290.63	2.609
290.99	2.605
291.35	2.354
291.71	2.093
292.07	2.020
292.43	1.983
292.79	2.102
293.16	2.388
293.52	2.578
293.88	2.652
294.24	2.455
294.60	2.366
294.96	2.332
295.32	2.504
295.68	2.586
296.04	2.793
296.40	2.820
296.76	2.893
297.12	2.881
297.49	2.967
297.85	3.118
298.21	3.339
298.57	3.424
298.93	3.740
299.29	3.932
299.65	4.285
300.01	4.431
300.37	4.879
300.73	5.164
301.09	5.203
301.45	5.285
301.81	5.425
302.17	5.538
302.53	5.668
302.89	5.612
303.25	5.713
303.61	5.827
303.97	6.016
304.33	6.154
304.69	6.386
305.05	6.658
305.41	6.995
305.77	7.168
306.13	7.375
306.49	7.761
306.85	8.103
307.21	8.220
307.57	8.276
307.93	8.300
308.29	8.406
308.65	8.343
309.01	8.486
309.37	8.471
309.73	8.493
310.09	8.503
310.45	8.432
310.81	8.542
311.17	8.512
311.53	8.646
311.89	8.835
312.25	8.925
312.61	9.073
312.96	9.067
313.32	9.138
313.68	9.159
314.04	9.370
314.40	9.526
314.76	9.471
315.12	9.616
315.48	9.715
315.84	9.499
316.20	9.337
316.56	9.486
316.92	9.453
317.27	9.478
317.63	9.563
317.99	9.421
318.35	9.446
318.71	9.457
319.07	9.480
319.43	9.245
319.79	9.381
320.15	9.453
320.50	9.434
320.86	9.471
321.22	9.515
321.58	9.339
321.94	9.320
322.30	9.455
322.66	9.455
323.01	9.412
323.37	9.681
323.73	9.539
324.09	9.624
324.45	9.458
324.81	9.518
325.17	9.532
325.52	9.645
325.88	9.751
326.24	9.443
326.60	9.429
326.96	9.511
327.31	9.296
327.67	9.310
328.03	9.127
328.39	9.038
328.75	8.981
329.11	8.939
329.46	8.852
329.82	8.785
330.18	8.977
330.54	8.918
330.90	8.866
331.25	8.874
331.61	8.937
331.97	9.008
332.33	9.124
332.68	9.123
333.04	9.008
333.40	8.966
333.76	8.917
334.11	8.795
334.47	8.835
334.83	8.724
335.19	8.732
335.54	8.705
335.90	8.565
336.26	8.502
336.62	8.438
336.97	8.449
337.33	8.550
337.69	8.574
338.05	8.638
338.40	8.532
338.76	8.582
339.12	8.492
339.48	8.386
339.83	8.485
340.19	8.480
340.55	8.403
340.90	8.412
341.26	8.345
341.62	8.240
341.97	8.158
342.33	8.105
342.69	8.145
343.04	8.115
343.40	8.157
343.76	8.025
344.12	7.902
344.47	7.829
344.83	7.777
345.19	7.741
345.54	7.695
345.90	7.636
346.26	7.669
346.61	7.438
346.97	7.526
347.32	7.442
347.68	7.461
348.04	7.534
348.39	7.568
348.75	7.522
349.11	7.489
349.46	7.481
349.82	7.466
350.18	7.396
350.53	7.516
350.89	7.385
351.24	7.379
351.60	7.362
351.96	7.304
352.31	7.244
352.67	7.170
353.02	7.143
353.38	7.221
353.74	7.161
354.09	7.147
354.45	6.995
354.80	6.953
355.16	7.007
355.52	6.962
355.87	6.896
356.23	6.915
356.58	6.870
356.94	6.873
357.29	6.750
357.65	6.725
358.00	6.673
358.36	6.685
358.72	6.585
359.07	6.478
359.43	6.476
359.78	6.498
360.14	6.452
360.49	6.427
360.85	6.378
361.20	6.342
361.56	6.293
361.91	6.263
362.27	6.239
362.62	6.344
362.98	6.383
363.33	6.362
363.69	6.337
364.04	6.317
364.40	6.340
364.75	6.227
365.11	6.188
365.46	6.142
365.82	6.101
366.17	6.045
366.53	5.932
366.88	5.900
367.24	5.882
367.59	5.828
367.95	5.821
368.30	5.754
368.66	5.824
369.01	5.852
369.37	5.857
369.72	5.851
370.08	5.861
370.43	5.855
370.78	5.802
371.14	5.763
371.49	5.691
371.85	5.704
372.20	5.714
372.56	5.672
372.91	5.583
373.26	5.593
373.62	5.606
373.97	5.640
374.33	5.600
374.68	5.624
375.03	5.574
375.39	5.621
375.74	5.592
376.10	5.585
376.45	5.575
376.80	5.601
377.16	5.537
377.51	5.498
377.87	5.507
378.22	5.501
378.57	5.471
378.93	5.453
379.28	5.408
379.63	5.367
379.99	5.322
380.34	5.298
380.70	5.270
381.05	5.296
381.40	5.245
381.76	5.185
382.11	5.138
382.46	5.103
382.82	5.122
383.17	5.098
383.52	5.086
383.88	5.103
384.23	5.073
384.58	5.046
384.94	5.001
385.29	5.015
385.64	4.958
385.99	4.961
386.35	4.932
386.70	4.909
387.05	4.906
387.41	4.822
387.76	4.732
388.11	4.683
388.47	4.640
388.82	4.613
389.17	4.600
389.52	4.569
389.88	4.578
390.23	4.548
390.58	4.494
390.93	4.484
391.29	4.541
391.64	4.521
391.99	4.532
392.34	4.539
392.70	4.527
393.05	4.470
393.40	4.477
393.75	4.440
394.11	4.396
394.46	4.376
394.81	4.319
395.16	4.249
395.52	4.258
395.87	4.204
396.22	4.141
396.57	4.073
396.92	4.052
397.28	4.014
397.63	3.955
397.98	3.972
398.33	3.982
398.68	3.982
399.04	3.938
399.39	3.891
399.74	3.895
400.09	3.907
400.44	3.929
400.80	3.922
401.15	3.922
401.50	3.944
401.85	3.878
402.20	3.843
402.55	3.814
402.90	3.814
403.26	3.815
403.61	3.794
403.96	3.767
404.31	3.740
404.66	3.754
405.01	3.742
405.36	3.693
405.72	3.721
406.07	3.697
406.42	3.675
406.77	3.655
407.12	3.649
407.47	3.653
407.82	3.638
408.17	3.624
408.53	3.589
408.88	3.554
409.23	3.552
409.58	3.560
409.93	3.553
410.28	3.562
410.63	3.554
410.98	3.534
411.33	3.477
411.68	3.495
412.03	3.453
412.38	3.449
412.73	3.454
413.09	3.401
413.44	3.350
413.79	3.331
414.14	3.332
414.49	3.290
414.84	3.284
415.19	3.281
415.54	3.247
415.89	3.240
416.24	3.226
416.59	3.208
416.94	3.229
417.29	3.200
417.64	3.189
417.99	3.151
418.34	3.168
418.69	3.142
419.04	3.132
419.39	3.137
419.74	3.151
420.09	3.120
420.44	3.104
420.79	3.086
421.14	3.092
421.49	3.088
421.84	3.077
422.19	3.062
422.54	3.064
422.89	3.056
423.24	3.024
423.59	3.001
423.94	3.021
424.29	3.019
424.64	3.033
424.99	3.062
425.34	3.057
425.68	3.071
426.03	3.064
426.38	3.068
426.73	3.098
427.08	3.089
427.43	3.114
427.78	3.106
428.13	3.104
428.48	3.101
428.83	3.072
429.18	3.055
429.53	3.057
429.87	3.068
430.22	3.040
430.57	3.020
430.92	3.029
431.27	2.995
431.62	2.983
431.97	2.970
432.32	2.946
432.67	2.938
433.01	2.961
433.36	2.954
433.71	2.940
434.06	2.980
434.41	2.977
434.76	2.994
435.11	3.025
435.45	3.034
435.80	3.033
436.15	3.044
436.50	3.037
436.85	3.045
437.20	3.039
437.54	3.049
437.89	3.049
438.24	3.056
438.59	3.053
438.94	3.045
439.29	3.045
439.63	3.052
439.98	3.054
440.33	3.064
440.68	3.043
441.03	3.055
441.37	3.036
441.72	3.040
442.07	3.030
442.42	3.025
442.76	3.021
443.11	3.017
443.46	3.010
443.81	3.006
444.16	2.995
444.50	3.000
444.85	3.005
445.20	3.025
445.55	3.007
445.89	3.001
446.24	3.006
446.59	3.014
446.94	3.024
447.28	3.032
447.63	3.026
447.98	3.009
448.32	3.002
448.67	2.987
449.02	2.961
449.37	2.953
449.71	2.956
450.06	2.962
450.41	2.960
450.75	2.942
451.10	2.949
451.45	2.949
451.79	2.990
452.14	2.994
452.49	3.004
452.84	3.013
453.18	3.008
453.53	3.010
453.88	3.011
454.22	2.982
454.57	2.980
454.92	2.960
455.26	2.958
455.61	2.932
455.95	2.925
456.30	2.916
456.65	2.920
456.99	2.925
457.34	2.939
457.69	2.943
458.03	2.942
458.38	2.955
458.73	2.970
459.07	2.976
459.42	2.989
459.76	2.998
460.11	3.018
460.46	3.017
460.80	3.020
461.15	3.024
461.49	3.021
461.84	3.039
462.19	3.043
462.53	3.034
462.88	3.028
463.22	3.027
463.57	3.041
463.91	3.019
464.26	3.043
464.61	3.044
464.95	3.050
465.30	3.039
465.64	3.060
465.99	3.067
466.33	3.076
466.68	3.084
467.02	3.102
467.37	3.109
467.71	3.113
468.06	3.097
468.41	3.086
468.75	3.081
469.10	3.089
469.44	3.086
469.79	3.081
470.13	3.077
470.48	3.083
470.82	3.081
471.17	3.064
471.51	3.058
471.86	3.056
472.20	3.047
472.55	3.023
472.89	3.032
473.23	3.014
473.58	2.997
473.92	2.981
474.27	2.966
474.61	2.944
474.96	2.932
475.30	2.928
475.65	2.926
475.99	2.941
476.34	2.930
476.68	2.906
477.02	2.901
477.37	2.899
477.71	2.900
478.06	2.904
478.40	2.913
478.75	2.936
479.09	2.965
479.43	2.995
479.78	3.023
480.12	3.067
480.47	3.102
480.81	3.137
481.15	3.177
481.50	3.226
481.84	3.274
482.19	3.322
482.53	3.358
482.87	3.370
483.22	3.355
483.56	3.321
483.90	3.276
484.25	3.242
484.59	3.220
484.94	3.189
485.28	3.152
485.62	3.113
485.97	3.062
486.31	3.011
486.65	2.987
487.00	2.994
487.34	3.022
487.68	3.056
488.03	3.086
488.37	3.089
488.71	3.093
489.06	3.088
489.40	3.074
489.74	3.071
490.09	3.081
490.43	3.085
490.77	3.069
491.11	3.069
491.46	3.071
491.80	3.055
492.14	3.053
492.49	3.040
492.83	3.033
493.17	3.038
493.51	3.034
493.86	3.028
494.20	3.020
494.54	3.021
494.88	3.037
495.23	3.046
495.57	3.059
495.91	3.068
496.25	3.081
496.60	3.100
496.94	3.102
497.28	3.123
497.62	3.141
497.97	3.170
498.31	3.206
498.65	3.205
498.99	3.224
499.33	3.254
499.68	3.266
500.02	3.307
500.36	3.324
500.70	3.356
501.04	3.371
501.39	3.413
501.73	3.426
502.07	3.455
502.41	3.495
502.75	3.514
503.09	3.545
503.44	3.580
503.78	3.600
504.12	3.661
504.46	3.705
504.80	3.760
505.14	3.778
505.49	3.831
505.83	3.871
506.17	3.911
506.51	3.952
506.85	3.970
507.19	4.006
507.53	4.052
507.87	4.073
508.22	4.112
508.56	4.142
508.90	4.183
509.24	4.206
509.58	4.241
509.92	4.268
510.26	4.296
510.60	4.334
510.94	4.369
511.28	4.394
511.63	4.421
511.97	4.436
512.31	4.469
512.65	4.499
512.99	4.551
513.33	4.588
513.67	4.627
514.01	4.669
514.35	4.717
514.69	4.767
515.03	4.807
515.37	4.830
515.71	4.873
516.05	4.893
516.39	4.911
516.73	4.915
517.07	4.926
517.41	4.937
517.75	4.951
518.09	4.959
518.43	4.961
518.77	4.960
519.11	4.965
519.45	4.953
519.79	4.963
520.13	4.970
520.47	4.982
520.81	4.995
521.15	5.010
521.49	5.015
521.83	5.017
522.17	5.024
522.51	5.028
522.85	5.061
523.19	5.098
523.53	5.122
523.87	5.156
524.21	5.182
524.55	5.214
524.89	5.239
525.23	5.274
525.57	5.317
525.91	5.339
526.25	5.363
526.58	5.377
526.92	5.391
527.26	5.414
527.60	5.415
527.94	5.410
528.28	5.403
528.62	5.389
528.96	5.367
529.30	5.344
529.64	5.326
529.97	5.312
530.31	5.291
530.65	5.257
530.99	5.211
531.33	5.189
531.67	5.180
532.01	5.170
532.35	5.167
532.68	5.163
533.02	5.137
533.36	5.121
533.70	5.095
534.04	5.084
534.38	5.068
534.71	5.054
535.05	5.027
535.39	4.996
535.73	4.970
536.07	4.951
536.41	4.939
536.74	4.926
537.08	4.920
537.42	4.939
537.76	4.933
538.10	4.935
538.43	4.933
538.77	4.944
539.11	4.945
539.45	4.941
539.79	4.936
540.12	4.927
540.46	4.928
540.80	4.912
541.14	4.897
541.47	4.892
541.81	4.883
542.15	4.869
542.49	4.837
542.82	4.833
543.16	4.804
543.50	4.790
543.84	4.757
544.17	4.729
544.51	4.716
544.85	4.686
545.18	4.653
545.52	4.627
545.86	4.621
546.20	4.618
546.53	4.582
546.87	4.579
547.21	4.551
547.54	4.560
547.88	4.547
548.22	4.543
548.55	4.515
548.89	4.488
549.23	4.483
549.56	4.462
549.90	4.456
550.24	4.452
550.57	4.429
550.91	4.436
551.25	4.413
551.58	4.413
551.92	4.400
552.26	4.411
552.59	4.397
552.93	4.400
553.27	4.405
553.60	4.394
553.94	4.390
554.27	4.405
554.61	4.391
554.95	4.401
555.28	4.399
555.62	4.403
555.95	4.403
556.29	4.429
556.63	4.427
556.96	4.413
557.30	4.434
557.63	4.436
557.97	4.453
558.31	4.445
558.64	4.442
558.98	4.431
559.31	4.428
559.65	4.428
559.98	4.411
560.32	4.394
560.65	4.390
560.99	4.379
561.33	4.392
561.66	4.388
562.00	4.396
562.33	4.403
562.67	4.405
563.00	4.412
563.34	4.443
563.67	4.471
564.01	4.478
564.34	4.508
564.68	4.517
565.01	4.519
565.35	4.537
565.68	4.568
566.02	4.597
566.35	4.624
566.69	4.627
567.02	4.622
567.36	4.647
567.69	4.635
568.03	4.609
568.36	4.627
568.69	4.655
569.03	4.658
569.36	4.639
569.70	4.626
570.03	4.633
570.37	4.642
570.70	4.659
571.04	4.647
571.37	4.663
571.70	4.681
572.04	4.672
572.37	4.654
572.71	4.656
573.04	4.661
573.37	4.674
573.71	4.662
574.04	4.685
574.38	4.661
574.71	4.663
575.04	4.683
575.38	4.697
575.71	4.714
576.05	4.711
576.38	4.711
576.71	4.718
577.05	4.729
577.38	4.754
577.71	4.748
578.05	4.738
578.38	4.741
578.71	4.738
579.05	4.725
579.38	4.687
579.71	4.699
580.05	4.710
580.38	4.721
580.71	4.716
581.05	4.728
581.38	4.709
581.71	4.740
582.05	4.740
582.38	4.752
582.71	4.780
583.04	4.828
583.38	4.852
583.71	4.855
584.04	4.871
584.38	4.863
584.71	4.860
585.04	4.900
585.37	4.909
585.71	4.924
586.04	4.956
586.37	4.974
586.70	5.004
587.04	5.027
587.37	5.034
587.70	5.040
588.03	5.047
588.37	5.054
588.70	5.053
589.03	5.084
589.36	5.105
589.69	5.115
590.03	5.126
590.36	5.148
590.69	5.137
591.02	5.171
591.35	5.185
591.69	5.227
592.02	5.262
592.35	5.308
592.68	5.309
593.01	5.346
593.35	5.381
593.68	5.408
594.01	5.402
594.34	5.447
594.67	5.474
595.00	5.497
595.34	5.511
595.67	5.521
596.00	5.528
596.33	5.554
596.66	5.569
596.99	5.587
597.32	5.595
597.65	5.602
597.99	5.596
598.32	5.615
598.65	5.650
598.98	5.672
599.31	5.726
599.64	5.789
599.97	5.827
600.30	5.887
600.63	5.901
600.96	5.968
601.30	6.037
601.63	6.078
601.96	6.097
602.29	6.128
602.62	6.164
602.95	6.187
603.28	6.190
603.61	6.192
603.94	6.184
604.27	6.220
604.60	6.225
604.93	6.236
605.26	6.261
605.59	6.299
605.92	6.317
606.25	6.367
606.58	6.395
606.91	6.376
607.24	6.405
607.57	6.419
607.90	6.403
608.23	6.417
608.56	6.399
608.89	6.399
609.22	6.358
609.55	6.353
609.88	6.317
610.21	6.300
610.54	6.331
610.87	6.313
611.20	6.308
611.53	6.317
611.86	6.315
612.19	6.335
612.52	6.336
612.85	6.384
613.18	6.373
613.51	6.355
613.84	6.331
614.17	6.325
614.49	6.331
614.82	6.357
615.15	6.356
615.48	6.312
615.81	6.305
616.14	6.276
616.47	6.248
616.80	6.264
617.13	6.269
617.46	6.275
617.78	6.240
618.11	6.252
618.44	6.244
618.77	6.234
619.10	6.252
619.43	6.266
619.76	6.294
620.09	6.284
620.41	6.278
620.74	6.295
621.07	6.314
621.40	6.363
621.73	6.397
622.06	6.403
622.38	6.438
622.71	6.444
623.04	6.440
623.37	6.485
623.70	6.520
624.02	6.564
624.35	6.594
624.68	6.617
625.01	6.627
625.34	6.600
625.66	6.590
625.99	6.546
626.32	6.534
626.65	6.574
626.98	6.536
627.30	6.537
627.63	6.484
627.96	6.454
628.29	6.424
628.61	6.375
628.94	6.360
629.27	6.327
629.60	6.344
629.92	6.341
630.25	6.293
630.58	6.294
630.91	6.257
631.23	6.247
631.56	6.251
631.89	6.243
632.21	6.299
632.54	6.302
632.87	6.324
633.19	6.318
633.52	6.294
633.85	6.270
634.18	6.223
634.50	6.202
634.83	6.173
635.16	6.116
635.48	6.068
635.81	5.992
636.14	5.953
636.46	5.943
636.79	5.948
637.11	5.964
637.44	5.946
637.77	5.980
638.09	5.982
638.42	6.008
638.75	6.013
639.07	6.013
639.40	6.018
639.73	6.032
640.05	5.962
640.38	5.889
640.70	5.831
641.03	5.827
641.36	5.815
641.68	5.781
642.01	5.779
642.33	5.828
642.66	5.808
642.98	5.819
643.31	5.751
643.64	5.830
643.96	5.859
644.29	5.925
644.61	5.916
644.94	5.891
645.26	5.944
645.59	5.968
645.91	5.926
646.24	5.975
646.56	5.965
646.89	6.042
647.22	6.023
647.54	6.011
647.87	5.964
648.19	5.962
648.52	5.950
648.84	5.912
649.17	5.894
649.49	5.875
649.82	5.803
650.14	5.807
650.47	5.820
650.79	5.829
651.11	5.821
651.44	5.811
651.76	5.844
652.09	5.839
652.41	5.878
652.74	5.842
653.06	5.850
653.39	5.895
653.71	5.902
654.04	5.921
654.36	5.867
654.68	5.905
655.01	5.938
655.33	5.961
655.66	6.029
655.98	6.042
656.30	6.068
656.63	6.074
656.95	6.078
657.28	6.052
657.60	6.076
657.92	6.078
658.25	6.054
658.57	6.015
658.90	5.952
659.22	5.900
659.54	5.810
659.87	5.742
660.19	5.693
660.51	5.653
660.84	5.621
661.16	5.466
661.48	5.462
661.81	5.401
662.13	5.388
662.45	5.374
662.78	5.294
663.10	5.261
663.42	5.218
663.75	5.234
664.07	5.249
664.39	5.202
664.72	5.218
665.04	5.210
665.36	5.218
665.69	5.203
666.01	5.214
666.33	5.245
666.65	5.269
666.98	5.331
667.30	5.316
667.62	5.294
667.94	5.330
668.27	5.353
668.59	5.300
668.91	5.369
669.23	5.393
669.56	5.394
669.88	5.419
670.20	5.398
670.52	5.356
670.85	5.337
671.17	5.302
671.49	5.298
671.81	5.282
672.13	5.279
672.46	5.194
672.78	5.213
673.10	5.120
673.42	5.090
673.74	5.089
674.07	5.120
674.39	5.172
674.71	5.210
675.03	5.265
675.35	5.273
675.67	5.288
676.00	5.326
676.32	5.362
676.64	5.484
676.96	5.505
677.28	5.623
677.60	5.662
677.92	5.623
678.25	5.654
678.57	5.646
678.89	5.676
679.21	5.716
679.53	5.668
679.85	5.649
680.17	5.618
680.49	5.575
680.81	5.542
681.13	5.560
681.46	5.536
681.78	5.510
682.10	5.549
682.42	5.519
682.74	5.502
683.06	5.544
683.38	5.541
683.70	5.563
684.02	5.637
684.34	5.611
684.66	5.630
684.98	5.703
685.30	5.734
685.62	5.674
685.94	5.743
686.26	5.785
686.58	5.828
686.90	5.836
687.22	5.807
687.54	5.798
687.86	5.825
688.18	5.829
688.50	5.813
688.82	5.835
689.14	5.840
689.46	5.808
689.78	5.796
690.10	5.762
690.42	5.728
690.74	5.751
691.06	5.763
691.38	5.719
691.70	5.593
692.02	5.543
692.34	5.504
692.66	5.475
692.98	5.463
693.30	5.483
693.62	5.546
693.94	5.599
694.26	5.581
694.57	5.595
694.89	5.586
695.21	5.640
695.53	5.698
695.85	5.720
696.17	5.817
696.49	5.789
696.81	5.824
697.13	5.801
697.44	5.803
697.76	5.843
698.08	5.808
698.40	5.827
698.72	5.779
699.04	5.734
699.36	5.645
699.67	5.463
699.99	5.427
700.31	5.228
700.63	5.099
700.95	4.967
701.27	4.824
701.58	4.707
701.90	4.576
702.22	4.547
702.54	4.508
702.86	4.463
703.17	4.462
703.49	4.392
703.81	4.376
704.13	4.349
704.45	4.365
704.76	4.307
705.08	4.339
705.40	4.415
705.72	4.429
706.03	4.440
706.35	4.482
706.67	4.523
706.99	4.620
707.30	4.608
707.62	4.671
707.94	4.710
708.26	4.735
708.57	4.755
708.89	4.690
709.21	4.649
709.53	4.639
709.84	4.693
710.16	4.702
710.48	4.676
710.79	4.766
711.11	4.766
711.43	4.798
711.74	4.891
712.06	4.883
712.38	4.982
712.69	5.096
713.01	5.105
713.33	5.137
713.64	5.225
713.96	5.317
714.28	5.466
714.59	5.618
714.91	5.733
715.23	5.787
715.54	5.847
715.86	5.849
716.17	5.937
716.49	5.898
716.81	5.883
717.12	5.830
717.44	5.763
717.76	5.608
718.07	5.470
718.39	5.298
718.70	5.203
719.02	5.166
719.33	5.121
719.65	4.945
719.97	5.072
720.28	4.995
720.60	4.985
720.91	5.011
721.23	5.040
721.54	5.056
721.86	5.060
722.17	5.159
722.49	5.264
722.81	5.338
723.12	5.407
723.44	5.441
723.75	5.530
724.07	5.574
724.38	5.605
724.70	5.547
725.01	5.578
725.33	5.614
725.64	5.593
725.96	5.465
726.27	5.549
726.59	5.614
726.90	5.529
727.22	5.534
727.53	5.516
727.84	5.437
728.16	5.416
728.47	5.461
728.79	5.433
729.10	5.352
729.42	5.396
729.73	5.267
730.05	5.083
730.36	5.020
730.67	4.987
730.99	4.876
731.30	4.783
731.62	4.815
731.93	4.675
732.24	4.510
732.56	4.489
732.87	4.368
733.19	4.323
733.50	4.280
733.81	4.256
734.13	4.113
734.44	4.069
734.76	4.045
735.07	3.843
735.38	3.756
735.70	3.751
736.01	3.649
736.32	3.766
736.64	3.692
736.95	3.590
737.26	3.633
737.58	3.635
737.89	3.646
738.20	3.531
738.52	3.446
738.83	3.504
739.14	3.502
739.45	3.521
739.77	3.216
740.08	3.103
740.39	3.016
740.71	2.855
741.02	2.612
741.33	2.451
741.64	2.421
741.96	2.463
742.27	2.209
742.58	2.046
742.90	1.995
743.21	2.073
743.52	2.110
743.83	2.045
744.14	1.920
744.46	1.895
744.77	1.934
745.08	1.906
745.39	1.861
745.71	1.951
746.02	2.036
746.33	2.015
746.64	2.068
746.95	1.979
747.27	2.200
747.58	2.260
747.89	2.507
748.20	2.477
748.51	2.588
748.82	2.668
749.14	2.607
749.45	2.497
749.76	2.316
750.07	2.401
750.38	2.468
750.69	2.528
751.01	2.577
751.32	2.353
751.63	2.272
751.94	2.307
752.25	2.283
752.56	2.224
752.87	2.435
753.18	2.466
753.49	2.314
753.81	2.214
754.12	2.181
754.43	2.175
754.74	2.300
755.05	2.683
755.36	2.710
755.67	2.983
755.98	3.394
756.29	3.426
756.60	3.677
756.91	3.998
757.22	4.370
757.53	4.527
757.84	4.939
758.15	5.393
758.46	5.476
758.77	5.722
759.09	5.850
759.40	6.036
759.71	6.270
760.02	6.497
760.33	6.471
760.64	6.501
760.95	6.604
761.26	6.574
761.57	6.424
761.88	6.406
762.18	6.364
762.49	6.294
762.80	6.139
763.11	5.994
763.42	5.740
763.73	5.603
764.04	5.342
764.35	5.127
764.66	4.961
764.97	4.824
765.28	4.530
765.59	4.176
765.90	3.854
766.21	3.461
766.52	2.988
766.83	2.810
767.14	2.565
767.44	2.382
767.75	2.129
768.06	1.672
768.37	1.468
768.68	1.391
768.99	1.315
769.30	1.275
769.61	1.064
769.91	1.142
770.22	0.858
770.53	0.782
770.84	0.703
771.15	0.587
771.46	0.699
771.77	0.656
772.07	0.446
772.38	0.389
772.69	0.268
773.00	0.218
773.31	0.092
773.61	0.290
773.92	0.539
774.23	0.629
774.54	0.483
774.85	0.562
775.15	0.332
775.46	0.588
775.77	0.593
776.08	0.591
776.39	0.803
776.69	1.055
777.00	1.145
777.31	0.849
777.62	0.888
777.92	1.347
778.23	1.168
778.54	1.095
778.85	1.135
779.15	1.093
779.46	0.944
779.77	0.936
780.07	0.955
780.38	1.017
780.69	0.973
781.00	1.087
781.30	0.740
781.61	0.820
781.92	1.040
782.22	0.892
782.53	0.926
782.84	1.146
783.14	1.157
783.45	1.250
783.76	1.272
784.06	1.408
784.37	1.529
784.68	1.676
784.98	1.781
785.29	2.033
785.60	2.077
785.90	2.353
786.21	2.508
786.51	2.859
786.82	2.800
787.13	2.800
787.43	2.996
787.74	3.048
788.04	3.333
788.35	3.453
788.66	3.210
788.96	3.225
789.27	3.172
789.57	3.037
789.88	2.696
790.19	2.687
790.49	2.606
790.80	2.660
791.10	2.702
791.41	2.554
791.71	2.356
792.02	2.512
792.32	2.480
792.63	2.565
792.93	2.796
793.24	2.995
793.54	3.128
793.85	3.214
794.15	3.055
794.46	2.769
794.76	2.793
795.07	2.834
795.37	2.853
795.68	3.081
795.98	3.006
796.29	3.028
796.59	2.913
796.90	2.880
797.20	2.856
797.51	2.914
797.81	3.167
798.12	3.149
798.42	3.584
798.72	3.690
799.03	3.888
799.33	4.076
799.64	4.030
799.94	4.402
800.25	4.448
800.55	4.516
800.85	4.495
801.16	4.465
801.46	4.296
801.77	4.007
802.07	3.822
802.37	3.327
802.68	3.498
802.98	3.870
803.28	3.740
803.59	3.744
803.89	3.599
804.20	3.615
804.50	3.780
804.80	3.811
805.11	3.612
805.41	3.470
805.71	3.534
806.02	3.199
806.32	2.729
806.62	2.701
806.93	2.598
807.23	3.175
807.53	3.314
807.83	3.126
808.14	3.255
808.44	3.193
808.74	3.904
809.05	4.189
809.35	4.314
809.65	4.455
809.95	4.332
810.26	4.459
810.56	4.307
810.86	4.606
811.16	4.835
811.47	4.863
811.77	5.366
812.07	5.015
812.37	4.944
812.68	5.759
812.98	5.915
813.28	6.064
813.58	6.554
813.88	6.189
814.19	6.628
814.49	6.885
814.79	7.164
815.09	7.085
815.39	7.449
815.70	7.621
816.00	7.201
816.30	7.295
816.60	7.389
816.90	7.182
817.20	7.576
817.50	7.253
817.81	7.185
818.11	7.333
818.41	7.590
818.71	7.791
819.01	7.821
819.31	7.888
819.61	8.019
819.92	8.062
820.22	8.178
820.52	8.172
820.82	8.191
821.12	8.176
821.42	8.142
821.72	8.116
822.02	8.060
822.32	8.094
822.62	8.058
822.92	7.982
823.22	7.934
823.52	7.922
823.83	7.927
824.13	7.952
824.43	7.931
824.73	7.962
825.03	7.907
825.33	7.849
825.63	7.750
825.93	7.710
826.23	7.692
826.53	7.794
826.83	7.676
827.13	7.581
827.43	7.427
827.73	7.387
828.03	7.338
828.33	7.445
828.63	7.409
828.93	7.633
829.23	7.604
829.53	7.669
829.83	7.556
830.13	7.554
830.42	7.613
830.72	7.703
831.02	7.777
831.32	7.651
831.62	7.395
831.92	7.419
832.22	7.271
832.52	7.303
832.82	7.354
833.12	7.340
833.42	7.285
833.72	7.284
834.01	7.089
834.31	7.103
834.61	7.216
834.91	7.187
835.21	6.952
835.51	6.738
835.81	6.377
836.11	6.020
836.40	5.825
836.70	5.594
837.00	5.188
837.30	5.254
837.60	5.119
837.90	5.036
838.19	5.042
838.49	5.386
838.79	5.821
839.09	6.202
839.39	6.042
839.68	6.199
839.98	5.704
840.28	6.054
840.58	6.160
840.88	5.809
841.17	5.279
841.47	5.111
841.77	5.054
842.07	5.108
842.36	5.351
842.66	5.698
842.96	4.289
843.26	4.992
843.55	3.839
843.85	3.054
844.15	2.919
844.45	3.183
844.74	3.641
845.04	3.646
845.34	2.445
845.63	2.322
845.93	1.850
846.23	4.942
846.53	4.220
846.82	4.237
847.12	3.583
847.42	3.341
847.71	3.796
848.01	3.374
848.31	3.733
848.60	5.679
848.90	5.658
849.19	6.435
849.49	3.451
849.79	4.230
850.08	5.996
850.38	7.247
850.68	7.566
850.97	8.098
851.27	7.586
851.56	6.693
851.86	2.839
852.16	3.395
852.45	3.959
852.75	5.245
853.04	3.625
853.34	3.798
853.64	3.522
853.93	3.374
854.23	2.453
854.52	3.585
854.82	2.591
855.11	4.448
855.41	2.565
855.70	1.748
856.00	1.477
856.30	3.083
856.59	0.016
856.89	-0.758
857.18	0.451
857.48	0.621
857.77	0.649
858.07	1.850
858.36	1.622
858.66	2.866
858.95	2.446
859.25	2.334
859.54	2.638
859.84	4.439
860.13	4.727
860.42	4.828
860.72	6.082
861.01	4.841
861.31	5.127
861.60	5.917
861.90	6.134
862.19	6.529
862.49	6.824
862.78	7.281
863.07	6.940
863.37	8.251
863.66	7.484
863.96	6.197
864.25	7.024
864.54	7.120
864.84	6.083
865.13	6.089
865.43	4.851
865.72	4.359
866.01	7.512
866.31	-2.316
866.60	7.738
866.89	-6.746
>>>>>End Spectral Data<<<<<
