OOIBase32 Version 2.0.0.6 Data File
++++++++++++++++++++++++++++++++++++
Date: 01-20-2012, 22:27:20
User: Valued Ocean Optics Customer
Spectrometer Serial Number: USB2E2917
Spectrometer Channel: Master
Integration Time (msec): 4
Spectra Averaged: 10
Boxcar Smoothing: 5
Correct for Electrical Dark: Enabled
Time Normalized: Disabled
Dual-beam Reference: Disabled
Reference Channel: Master
Temperature: Not acquired
Spectrometer Type: S2000
ADC Type: USB2000
Number of Pixels in File: 2048
Graph Title: 
>>>>>Begin Spectral Data<<<<<
180.30	0.000
180.67	0.000
181.03	199.300
181.40	64.804
181.77	33.486
182.14	121.828
182.51	123.751
182.88	-32.684
183.25	70.940
183.62	-21.474
183.99	130.577
184.36	90.385
184.73	358.330
185.10	313.293
185.46	153.860
185.83	14.030
186.20	-550.874
186.57	16.658
186.94	307.713
187.31	-43.375
187.68	1438.289
188.05	290.898
188.42	111.847
188.78	77.497
189.15	53.741
189.52	29.849
189.89	31.087
190.26	40.044
190.63	48.844
191.00	42.612
191.37	0.483
191.73	-27.936
192.10	-49.510
192.47	14.923
192.84	7.072
193.21	14.993
193.58	34.749
193.94	11.510
194.31	34.623
194.68	38.704
195.05	52.828
195.42	58.359
195.79	59.398
196.15	51.186
196.52	33.547
196.89	23.774
197.26	28.360
197.63	33.450
198.00	41.447
198.36	8.562
198.73	-0.522
199.10	3.317
199.47	3.834
199.84	-1.205
200.20	5.102
200.57	12.153
200.94	-1.671
201.31	-7.267
201.68	-23.489
202.04	-29.060
202.41	-23.571
202.78	-25.981
203.15	-43.831
203.51	-22.222
203.88	8.942
204.25	12.038
204.62	14.689
204.98	37.368
205.35	40.123
205.72	43.659
206.09	39.479
206.46	39.519
206.82	49.099
207.19	55.741
207.56	29.637
207.92	18.520
208.29	5.160
208.66	-7.189
209.03	-28.521
209.39	-24.312
209.76	-15.937
210.13	10.547
210.50	34.734
210.86	37.794
211.23	24.834
211.60	31.033
211.96	31.465
212.33	43.891
212.70	34.405
213.07	34.460
213.43	18.996
213.80	27.954
214.17	27.691
214.53	21.664
214.90	16.028
215.27	28.931
215.63	39.070
216.00	40.440
216.37	38.791
216.74	49.354
217.10	63.694
217.47	59.796
217.84	43.563
218.20	23.066
218.57	12.412
218.94	7.563
219.30	8.083
219.67	6.070
220.04	5.193
220.40	1.336
220.77	-0.202
221.13	-2.178
221.50	10.319
221.87	21.317
222.23	27.290
222.60	25.186
222.97	28.091
223.33	30.418
223.70	27.138
224.07	26.302
224.43	25.297
224.80	22.058
225.16	20.010
225.53	16.255
225.90	12.652
226.26	13.687
226.63	13.951
226.99	12.263
227.36	10.404
227.73	9.800
228.09	9.353
228.46	8.721
228.82	8.803
229.19	8.256
229.56	8.062
229.92	8.326
230.29	6.905
230.65	7.869
231.02	7.796
231.38	7.064
231.75	7.291
232.12	8.284
232.48	8.446
232.85	7.852
233.21	8.296
233.58	7.780
233.94	7.901
234.31	8.740
234.68	6.415
235.04	7.641
235.41	7.942
235.77	8.222
236.14	6.638
236.50	6.418
236.87	6.768
237.23	6.510
237.60	7.604
237.96	7.246
238.33	6.869
238.69	7.150
239.06	6.369
239.42	6.550
239.79	6.440
240.15	6.617
240.52	6.232
240.88	5.973
241.25	5.773
241.61	5.072
241.98	5.217
242.34	5.083
242.71	5.147
243.07	5.310
243.44	5.033
243.80	5.223
244.17	5.290
244.53	5.456
244.90	5.406
245.26	5.679
245.63	5.861
245.99	5.901
246.36	6.077
246.72	5.944
247.09	6.147
247.45	6.112
247.81	5.843
248.18	5.704
248.54	5.466
248.91	5.650
249.27	5.666
249.64	5.689
250.00	5.523
250.36	5.403
250.73	5.397
251.09	5.060
251.46	5.441
251.82	5.641
252.19	5.833
252.55	6.291
252.91	6.328
253.28	6.139
253.64	5.999
254.01	6.343
254.37	6.042
254.73	5.967
255.10	5.772
255.46	5.584
255.83	5.602
256.19	5.545
256.55	5.526
256.92	5.490
257.28	5.366
257.65	5.371
258.01	5.253
258.37	5.105
258.74	5.120
259.10	5.109
259.46	5.070
259.83	4.957
260.19	4.881
260.55	4.920
260.92	4.739
261.28	4.698
261.64	4.652
262.01	4.761
262.37	5.064
262.73	4.767
263.10	4.709
263.46	4.771
263.82	4.966
264.19	4.747
264.55	4.516
264.91	4.889
265.28	4.831
265.64	4.770
266.00	4.584
266.37	4.469
266.73	4.792
267.09	4.895
267.46	4.887
267.82	4.807
268.18	4.953
268.54	5.008
268.91	4.835
269.27	4.751
269.63	4.803
270.00	4.733
270.36	4.509
270.72	4.273
271.08	4.056
271.45	4.031
271.81	3.925
272.17	4.155
272.53	4.137
272.90	4.139
273.26	4.284
273.62	4.335
273.98	4.466
274.35	4.729
274.71	4.985
275.07	5.107
275.43	5.149
275.80	5.341
276.16	5.077
276.52	5.220
276.88	4.920
277.25	4.716
277.61	4.714
277.97	4.654
278.33	4.603
278.69	4.559
279.06	4.500
279.42	4.388
279.78	4.265
280.14	4.283
280.50	4.104
280.87	4.197
281.23	4.234
281.59	4.151
281.95	3.981
282.31	4.054
282.68	3.935
283.04	3.969
283.40	4.063
283.76	4.071
284.12	4.123
284.48	4.089
284.85	4.169
285.21	4.277
285.57	4.254
285.93	4.383
286.29	4.315
286.65	4.452
287.02	4.475
287.38	4.393
287.74	4.328
288.10	4.296
288.46	4.297
288.82	4.366
289.18	4.222
289.54	4.317
289.91	4.278
290.27	4.174
290.63	4.211
290.99	4.300
291.35	4.403
291.71	4.523
292.07	4.694
292.43	4.775
292.79	4.539
293.16	4.613
293.52	4.479
293.88	4.572
294.24	4.779
294.60	4.782
294.96	4.791
295.32	4.882
295.68	4.778
296.04	4.583
296.40	4.591
296.76	4.642
297.12	4.670
297.49	4.743
297.85	4.682
298.21	4.604
298.57	4.687
298.93	4.692
299.29	4.672
299.65	4.933
300.01	5.107
300.37	5.321
300.73	5.361
301.09	5.277
301.45	5.291
301.81	5.445
302.17	5.486
302.53	5.491
302.89	5.535
303.25	5.472
303.61	5.486
303.97	5.386
304.33	5.188
304.69	5.385
305.05	5.499
305.41	5.456
305.77	5.453
306.13	5.500
306.49	5.374
306.85	5.414
307.21	5.529
307.57	5.460
307.93	5.499
308.29	5.535
308.65	5.535
309.01	5.531
309.37	5.682
309.73	5.614
310.09	5.560
310.45	5.699
310.81	5.713
311.17	5.625
311.53	5.708
311.89	5.755
312.25	5.829
312.61	5.769
312.96	5.858
313.32	5.801
313.68	5.809
314.04	5.952
314.40	5.935
314.76	6.025
315.12	6.093
315.48	6.029
315.84	6.140
316.20	6.168
316.56	6.257
316.92	6.317
317.27	6.375
317.63	6.584
317.99	6.512
318.35	6.577
318.71	6.592
319.07	6.745
319.43	6.886
319.79	6.971
320.15	7.127
320.50	7.338
320.86	7.441
321.22	7.745
321.58	7.858
321.94	8.037
322.30	8.178
322.66	8.366
323.01	8.481
323.37	8.596
323.73	8.672
324.09	8.822
324.45	9.015
324.81	9.269
325.17	9.237
325.52	9.380
325.88	9.638
326.24	9.804
326.60	10.007
326.96	10.282
327.31	10.549
327.67	10.930
328.03	11.171
328.39	11.347
328.75	11.473
329.11	11.725
329.46	11.947
329.82	12.257
330.18	12.432
330.54	12.604
330.90	12.677
331.25	12.767
331.61	12.854
331.97	12.875
332.33	12.871
332.68	12.984
333.04	13.154
333.40	13.190
333.76	13.116
334.11	13.174
334.47	13.284
334.83	13.381
335.19	13.440
335.54	13.393
335.90	13.475
336.26	13.544
336.62	13.526
336.97	13.525
337.33	13.615
337.69	13.626
338.05	13.631
338.40	13.553
338.76	13.485
339.12	13.549
339.48	13.586
339.83	13.587
340.19	13.509
340.55	13.551
340.90	13.542
341.26	13.503
341.62	13.510
341.97	13.579
342.33	13.589
342.69	13.652
343.04	13.514
343.40	13.469
343.76	13.479
344.12	13.637
344.47	13.651
344.83	13.625
345.19	13.633
345.54	13.657
345.90	13.598
346.26	13.684
346.61	13.630
346.97	13.774
347.32	13.766
347.68	13.782
348.04	13.729
348.39	13.698
348.75	13.672
349.11	13.645
349.46	13.627
349.82	13.666
350.18	13.531
350.53	13.556
350.89	13.504
351.24	13.483
351.60	13.467
351.96	13.378
352.31	13.353
352.67	13.451
353.02	13.422
353.38	13.370
353.74	13.460
354.09	13.427
354.45	13.433
354.80	13.436
355.16	13.575
355.52	13.572
355.87	13.652
356.23	13.761
356.58	13.712
356.94	13.745
357.29	13.854
357.65	13.778
358.00	13.935
358.36	13.932
358.72	13.946
359.07	13.882
359.43	13.886
359.78	13.900
360.14	13.884
360.49	13.896
360.85	13.913
361.20	13.869
361.56	13.878
361.91	13.818
362.27	13.869
362.62	13.817
362.98	13.843
363.33	13.838
363.69	13.882
364.04	13.858
364.40	13.889
364.75	13.951
365.11	13.969
365.46	13.993
365.82	14.015
366.17	14.022
366.53	14.109
366.88	14.157
367.24	14.164
367.59	14.120
367.95	14.120
368.30	14.162
368.66	14.249
369.01	14.355
369.37	14.431
369.72	14.497
370.08	14.575
370.43	14.621
370.78	14.665
371.14	14.841
371.49	14.920
371.85	15.038
372.20	15.105
372.56	15.092
372.91	15.062
373.26	15.080
373.62	15.094
373.97	15.082
374.33	15.161
374.68	15.238
375.03	15.227
375.39	15.298
375.74	15.377
376.10	15.468
376.45	15.547
376.80	15.712
377.16	15.852
377.51	15.972
377.87	16.148
378.22	16.239
378.57	16.352
378.93	16.510
379.28	16.684
379.63	16.803
379.99	16.901
380.34	17.001
380.70	17.098
381.05	17.190
381.40	17.335
381.76	17.420
382.11	17.582
382.46	17.681
382.82	17.758
383.17	17.896
383.52	17.983
383.88	18.155
384.23	18.311
384.58	18.446
384.94	18.565
385.29	18.660
385.64	18.767
385.99	18.889
386.35	19.005
386.70	19.100
387.05	19.178
387.41	19.291
387.76	19.406
388.11	19.476
388.47	19.608
388.82	19.736
389.17	19.897
389.52	20.007
389.88	20.089
390.23	20.234
390.58	20.370
390.93	20.535
391.29	20.687
391.64	20.763
391.99	20.922
392.34	21.020
392.70	21.142
393.05	21.174
393.40	21.282
393.75	21.418
394.11	21.470
394.46	21.551
394.81	21.586
395.16	21.612
395.52	21.670
395.87	21.732
396.22	21.775
396.57	21.853
396.92	21.908
397.28	22.024
397.63	21.999
397.98	22.050
398.33	22.117
398.68	22.194
399.04	22.312
399.39	22.399
399.74	22.469
400.09	22.557
400.44	22.614
400.80	22.745
401.15	22.812
401.50	22.984
401.85	23.109
402.20	23.248
402.55	23.397
402.90	23.441
403.26	23.551
403.61	23.696
403.96	23.843
404.31	23.937
404.66	24.015
405.01	24.113
405.36	24.189
405.72	24.329
406.07	24.372
406.42	24.411
406.77	24.571
407.12	24.708
407.47	24.734
407.82	24.812
408.17	24.911
408.53	25.029
408.88	25.086
409.23	25.175
409.58	25.222
409.93	25.340
410.28	25.414
410.63	25.491
410.98	25.527
411.33	25.608
411.68	25.653
412.03	25.731
412.38	25.771
412.73	25.926
413.09	25.975
413.44	26.023
413.79	26.147
414.14	26.251
414.49	26.304
414.84	26.375
415.19	26.467
415.54	26.564
415.89	26.641
416.24	26.726
416.59	26.754
416.94	26.858
417.29	26.938
417.64	26.970
417.99	27.054
418.34	27.132
418.69	27.176
419.04	27.247
419.39	27.305
419.74	27.365
420.09	27.448
420.44	27.535
420.79	27.589
421.14	27.647
421.49	27.694
421.84	27.708
422.19	27.748
422.54	27.816
422.89	27.850
423.24	27.894
423.59	27.930
423.94	27.979
424.29	27.994
424.64	28.030
424.99	28.073
425.34	28.131
425.68	28.173
426.03	28.265
426.38	28.337
426.73	28.404
427.08	28.444
427.43	28.514
427.78	28.509
428.13	28.585
428.48	28.649
428.83	28.665
429.18	28.737
429.53	28.841
429.87	28.903
430.22	28.936
430.57	29.009
430.92	29.070
431.27	29.135
431.62	29.226
431.97	29.268
432.32	29.335
432.67	29.409
433.01	29.448
433.36	29.493
433.71	29.527
434.06	29.577
434.41	29.595
434.76	29.648
435.11	29.684
435.45	29.724
435.80	29.801
436.15	29.803
436.50	29.849
436.85	29.958
437.20	30.000
437.54	30.017
437.89	30.087
438.24	30.146
438.59	30.198
438.94	30.216
439.29	30.240
439.63	30.227
439.98	30.253
440.33	30.293
440.68	30.241
441.03	30.234
441.37	30.243
441.72	30.227
442.07	30.273
442.42	30.259
442.76	30.281
443.11	30.326
443.46	30.353
443.81	30.386
444.16	30.386
444.50	30.406
444.85	30.411
445.20	30.433
445.55	30.416
445.89	30.357
446.24	30.349
446.59	30.337
446.94	30.289
447.28	30.232
447.63	30.190
447.98	30.174
448.32	30.148
448.67	30.107
449.02	30.083
449.37	30.079
449.71	30.094
450.06	30.094
450.41	30.101
450.75	30.112
451.10	30.167
451.45	30.206
451.79	30.213
452.14	30.244
452.49	30.344
452.84	30.345
453.18	30.409
453.53	30.444
453.88	30.505
454.22	30.569
454.57	30.626
454.92	30.681
455.26	30.704
455.61	30.784
455.95	30.877
456.30	30.942
456.65	31.054
456.99	31.113
457.34	31.206
457.69	31.250
458.03	31.311
458.38	31.350
458.73	31.389
459.07	31.467
459.42	31.491
459.76	31.498
460.11	31.499
460.46	31.494
460.80	31.485
461.15	31.469
461.49	31.477
461.84	31.489
462.19	31.520
462.53	31.575
462.88	31.596
463.22	31.636
463.57	31.690
463.91	31.710
464.26	31.759
464.61	31.832
464.95	31.885
465.30	31.969
465.64	31.994
465.99	32.029
466.33	32.058
466.68	32.102
467.02	32.153
467.37	32.175
467.71	32.204
468.06	32.221
468.41	32.238
468.75	32.281
469.10	32.263
469.44	32.292
469.79	32.300
470.13	32.319
470.48	32.283
470.82	32.290
471.17	32.297
471.51	32.326
471.86	32.336
472.20	32.356
472.55	32.383
472.89	32.413
473.23	32.413
473.58	32.426
473.92	32.449
474.27	32.497
474.61	32.519
474.96	32.558
475.30	32.564
475.65	32.621
475.99	32.651
476.34	32.651
476.68	32.664
477.02	32.710
477.37	32.755
477.71	32.792
478.06	32.857
478.40	33.002
478.75	33.243
479.09	33.560
479.43	33.900
479.78	34.365
480.12	34.899
480.47	35.489
480.81	36.062
481.15	36.662
481.50	37.267
481.84	38.012
482.19	38.784
482.53	39.476
482.87	39.944
483.22	40.049
483.56	39.777
483.90	39.265
484.25	38.551
484.59	37.752
484.94	37.145
485.28	36.655
485.62	35.957
485.97	35.175
486.31	34.447
486.65	33.931
487.00	33.749
487.34	33.858
487.68	34.122
488.03	34.511
488.37	34.987
488.71	35.171
489.06	35.153
489.40	35.144
489.74	35.142
490.09	35.093
490.43	35.048
490.77	34.999
491.11	34.954
491.46	34.894
491.80	34.864
492.14	34.832
492.49	34.813
492.83	34.766
493.17	34.743
493.51	34.681
493.86	34.692
494.20	34.684
494.54	34.725
494.88	34.815
495.23	34.936
495.57	35.059
495.91	35.123
496.25	35.159
496.60	35.240
496.94	35.281
497.28	35.345
497.62	35.385
497.97	35.420
498.31	35.465
498.65	35.495
498.99	35.527
499.33	35.576
499.68	35.636
500.02	35.727
500.36	35.781
500.70	35.897
501.04	36.012
501.39	36.121
501.73	36.216
502.07	36.320
502.41	36.424
502.75	36.519
503.09	36.613
503.44	36.723
503.78	36.852
504.12	36.971
504.46	37.053
504.80	37.166
505.14	37.275
505.49	37.409
505.83	37.521
506.17	37.615
506.51	37.745
506.85	37.850
507.19	37.948
507.53	38.040
507.87	38.124
508.22	38.224
508.56	38.275
508.90	38.326
509.24	38.346
509.58	38.395
509.92	38.455
510.26	38.500
510.60	38.536
510.94	38.597
511.28	38.602
511.63	38.632
511.97	38.693
512.31	38.736
512.65	38.817
512.99	38.929
513.33	39.054
513.67	39.168
514.01	39.257
514.35	39.378
514.69	39.481
515.03	39.637
515.37	39.778
515.71	39.859
516.05	39.977
516.39	40.081
516.73	40.127
517.07	40.168
517.41	40.209
517.75	40.260
518.09	40.278
518.43	40.293
518.77	40.286
519.11	40.275
519.45	40.276
519.79	40.274
520.13	40.271
520.47	40.330
520.81	40.374
521.15	40.421
521.49	40.472
521.83	40.565
522.17	40.667
522.51	40.800
522.85	40.942
523.19	41.155
523.53	41.396
523.87	41.707
524.21	41.966
524.55	42.266
524.89	42.524
525.23	42.784
525.57	42.984
525.91	43.192
526.25	43.360
526.58	43.513
526.92	43.627
527.26	43.713
527.60	43.738
527.94	43.740
528.28	43.687
528.62	43.634
528.96	43.546
529.30	43.466
529.64	43.343
529.97	43.217
530.31	43.126
530.65	43.011
530.99	42.921
531.33	42.825
531.67	42.813
532.01	42.816
532.35	42.791
532.68	42.760
533.02	42.731
533.36	42.731
533.70	42.698
534.04	42.615
534.38	42.563
534.71	42.495
535.05	42.439
535.39	42.372
535.73	42.293
536.07	42.276
536.41	42.305
536.74	42.378
537.08	42.431
537.42	42.552
537.76	42.694
538.10	42.843
538.43	42.976
538.77	43.124
539.11	43.217
539.45	43.321
539.79	43.411
540.12	43.480
540.46	43.489
540.80	43.487
541.14	43.478
541.47	43.429
541.81	43.379
542.15	43.316
542.49	43.237
542.82	43.164
543.16	43.078
543.50	42.953
543.84	42.846
544.17	42.803
544.51	42.752
544.85	42.686
545.18	42.654
545.52	42.567
545.86	42.544
546.20	42.492
546.53	42.438
546.87	42.372
547.21	42.370
547.54	42.348
547.88	42.320
548.22	42.316
548.55	42.328
548.89	42.328
549.23	42.414
549.56	42.395
549.90	42.422
550.24	42.441
550.57	42.472
550.91	42.496
551.25	42.532
551.58	42.522
551.92	42.538
552.26	42.530
552.59	42.501
552.93	42.435
553.27	42.446
553.60	42.436
553.94	42.427
554.27	42.424
554.61	42.397
554.95	42.390
555.28	42.422
555.62	42.423
555.95	42.432
556.29	42.457
556.63	42.503
556.96	42.474
557.30	42.495
557.63	42.525
557.97	42.544
558.31	42.534
558.64	42.586
558.98	42.549
559.31	42.539
559.65	42.578
559.98	42.597
560.32	42.625
560.65	42.717
560.99	42.684
561.33	42.699
561.66	42.710
562.00	42.798
562.33	42.771
562.67	42.829
563.00	42.906
563.34	42.937
563.67	42.953
564.01	42.985
564.34	42.963
564.68	43.006
565.01	43.031
565.35	43.050
565.68	43.033
566.02	43.018
566.35	43.022
566.69	43.005
567.02	43.005
567.36	42.989
567.69	42.973
568.03	42.976
568.36	42.960
568.69	42.971
569.03	42.945
569.36	42.937
569.70	42.977
570.03	42.967
570.37	42.975
570.70	42.947
571.04	42.978
571.37	42.982
571.70	42.981
572.04	42.977
572.37	42.951
572.71	42.949
573.04	42.958
573.37	42.935
573.71	42.879
574.04	42.882
574.38	42.867
574.71	42.856
575.04	42.865
575.38	42.856
575.71	42.891
576.05	42.897
576.38	42.883
576.71	42.831
577.05	42.802
577.38	42.864
577.71	42.786
578.05	42.770
578.38	42.730
578.71	42.649
579.05	42.618
579.38	42.567
579.71	42.527
580.05	42.557
580.38	42.595
580.71	42.574
581.05	42.557
581.38	42.534
581.71	42.551
582.05	42.575
582.38	42.583
582.71	42.580
583.04	42.587
583.38	42.556
583.71	42.487
584.04	42.421
584.38	42.384
584.71	42.361
585.04	42.398
585.37	42.373
585.71	42.326
586.04	42.281
586.37	42.256
586.70	42.249
587.04	42.247
587.37	42.292
587.70	42.256
588.03	42.267
588.37	42.226
588.70	42.188
589.03	42.177
589.36	42.175
589.69	42.188
590.03	42.161
590.36	42.108
590.69	42.092
591.02	42.031
591.35	42.072
591.69	42.082
592.02	42.081
592.35	42.064
592.68	42.040
593.01	42.044
593.35	42.036
593.68	42.022
594.01	42.028
594.34	42.017
594.67	42.026
595.00	41.958
595.34	41.913
595.67	41.883
596.00	41.840
596.33	41.787
596.66	41.740
596.99	41.754
597.32	41.748
597.65	41.705
597.99	41.667
598.32	41.616
598.65	41.620
598.98	41.571
599.31	41.527
599.64	41.534
599.97	41.531
600.30	41.495
600.63	41.397
600.96	41.417
601.30	41.397
601.63	41.390
601.96	41.390
602.29	41.378
602.62	41.400
602.95	41.430
603.28	41.403
603.61	41.384
603.94	41.355
604.27	41.320
604.60	41.230
604.93	41.204
605.26	41.160
605.59	41.086
605.92	41.053
606.25	40.981
606.58	40.926
606.91	40.859
607.24	40.793
607.57	40.785
607.90	40.794
608.23	40.781
608.56	40.749
608.89	40.704
609.22	40.678
609.55	40.621
609.88	40.614
610.21	40.550
610.54	40.540
610.87	40.502
611.20	40.398
611.53	40.272
611.86	40.236
612.19	40.159
612.52	40.142
612.85	40.143
613.18	40.081
613.51	40.061
613.84	40.023
614.17	40.006
614.49	39.986
614.82	40.020
615.15	40.050
615.48	39.955
615.81	39.873
616.14	39.778
616.47	39.725
616.80	39.703
617.13	39.627
617.46	39.612
617.78	39.597
618.11	39.585
618.44	39.508
618.77	39.471
619.10	39.429
619.43	39.459
619.76	39.434
620.09	39.413
620.41	39.313
620.74	39.297
621.07	39.235
621.40	39.126
621.73	39.022
622.06	38.978
622.38	38.961
622.71	38.994
623.04	38.962
623.37	38.957
623.70	38.899
624.02	38.979
624.35	38.899
624.68	38.853
625.01	38.839
625.34	38.817
625.66	38.776
625.99	38.688
626.32	38.594
626.65	38.575
626.98	38.566
627.30	38.491
627.63	38.336
627.96	38.286
628.29	38.211
628.61	38.175
628.94	38.133
629.27	38.099
629.60	38.087
629.92	38.055
630.25	37.934
630.58	37.845
630.91	37.831
631.23	37.810
631.56	37.809
631.89	37.781
632.21	37.717
632.54	37.658
632.87	37.558
633.19	37.476
633.52	37.421
633.85	37.400
634.18	37.365
634.50	37.296
634.83	37.269
635.16	37.203
635.48	37.166
635.81	37.091
636.14	37.056
636.46	37.040
636.79	36.984
637.11	36.956
637.44	36.906
637.77	36.838
638.09	36.795
638.42	36.719
638.75	36.671
639.07	36.625
639.40	36.495
639.73	36.392
640.05	36.326
640.38	36.270
640.70	36.206
641.03	36.116
641.36	36.062
641.68	35.992
642.01	35.935
642.33	35.832
642.66	35.745
642.98	35.755
643.31	35.768
643.64	35.710
643.96	35.662
644.29	35.558
644.61	35.594
644.94	35.565
645.26	35.548
645.59	35.541
645.91	35.557
646.24	35.528
646.56	35.455
646.89	35.422
647.22	35.408
647.54	35.374
647.87	35.340
648.19	35.266
648.52	35.222
648.84	35.156
649.17	35.082
649.49	34.988
649.82	34.937
650.14	34.918
650.47	34.890
650.79	34.809
651.11	34.735
651.44	34.657
651.76	34.540
652.09	34.452
652.41	34.362
652.74	34.297
653.06	34.226
653.39	34.166
653.71	34.116
654.04	34.069
654.36	34.003
654.68	33.979
655.01	33.957
655.33	33.924
655.66	33.843
655.98	33.785
656.30	33.729
656.63	33.722
656.95	33.705
657.28	33.653
657.60	33.516
657.92	33.546
658.25	33.494
658.57	33.466
658.90	33.407
659.22	33.363
659.54	33.316
659.87	33.229
660.19	33.118
660.51	32.989
660.84	32.843
661.16	32.727
661.48	32.538
661.81	32.405
662.13	32.247
662.45	32.112
662.78	31.993
663.10	31.937
663.42	31.885
663.75	31.749
664.07	31.608
664.39	31.549
664.72	31.468
665.04	31.499
665.36	31.451
665.69	31.447
666.01	31.431
666.33	31.422
666.65	31.301
666.98	31.290
667.30	31.308
667.62	31.299
667.94	31.245
668.27	31.236
668.59	31.118
668.91	31.024
669.23	30.920
669.56	30.852
669.88	30.764
670.20	30.723
670.52	30.541
670.85	30.431
671.17	30.329
671.49	30.221
671.81	30.124
672.13	30.057
672.46	30.028
672.78	29.991
673.10	29.924
673.42	29.841
673.74	29.754
674.07	29.748
674.39	29.682
674.71	29.682
675.03	29.669
675.35	29.583
675.67	29.479
676.00	29.436
676.32	29.394
676.64	29.388
676.96	29.366
677.28	29.349
677.60	29.279
677.92	29.248
678.25	29.166
678.57	29.167
678.89	29.162
679.21	29.129
679.53	29.079
679.85	29.054
680.17	28.949
680.49	28.852
680.81	28.796
681.13	28.699
681.46	28.611
681.78	28.560
682.10	28.460
682.42	28.369
682.74	28.283
683.06	28.247
683.38	28.072
683.70	28.012
684.02	28.018
684.34	28.009
684.66	28.051
684.98	28.034
685.30	28.008
685.62	28.003
685.94	27.931
686.26	27.892
686.58	27.874
686.90	27.960
687.22	27.856
687.54	27.828
687.86	27.683
688.18	27.605
688.50	27.549
688.82	27.382
689.14	27.166
689.46	27.095
689.78	27.020
690.10	26.782
690.42	26.584
690.74	26.510
691.06	26.300
691.38	26.177
691.70	26.041
692.02	25.874
692.34	25.792
692.66	25.787
692.98	25.712
693.30	25.536
693.62	25.530
693.94	25.450
694.26	25.385
694.57	25.431
694.89	25.442
695.21	25.524
695.53	25.522
695.85	25.613
696.17	25.620
696.49	25.649
696.81	25.765
697.13	25.780
697.44	25.786
697.76	25.793
698.08	25.705
698.40	25.676
698.72	25.487
699.04	25.314
699.36	25.109
699.67	24.975
699.99	24.695
700.31	24.350
700.63	24.076
700.95	23.764
701.27	23.409
701.58	23.064
701.90	22.638
702.22	22.399
702.54	22.239
702.86	22.021
703.17	21.789
703.49	21.666
703.81	21.579
704.13	21.432
704.45	21.413
704.76	21.319
705.08	21.230
705.40	21.254
705.72	21.214
706.03	21.194
706.35	21.167
706.67	21.092
706.99	21.049
707.30	20.883
707.62	20.792
707.94	20.608
708.26	20.581
708.57	20.535
708.89	20.464
709.21	20.389
709.53	20.321
709.84	20.226
710.16	20.210
710.48	20.260
710.79	20.332
711.11	20.361
711.43	20.467
711.74	20.597
712.06	20.710
712.38	20.786
712.69	20.858
713.01	20.963
713.33	21.093
713.64	21.233
713.96	21.248
714.28	21.411
714.59	21.633
714.91	21.832
715.23	21.953
715.54	22.111
715.86	22.278
716.17	22.414
716.49	22.357
716.81	22.374
717.12	22.251
717.44	22.249
717.76	22.066
718.07	21.794
718.39	21.457
718.70	21.093
719.02	20.652
719.33	20.292
719.65	20.035
719.97	19.853
720.28	19.691
720.60	19.585
720.91	19.575
721.23	19.576
721.54	19.451
721.86	19.459
722.17	19.601
722.49	19.791
722.81	19.993
723.12	19.904
723.44	20.078
723.75	20.081
724.07	20.038
724.38	19.816
724.70	19.685
725.01	19.803
725.33	19.857
725.64	19.804
725.96	19.777
726.27	19.647
726.59	19.625
726.90	19.609
727.22	19.507
727.53	19.534
727.84	19.579
728.16	19.547
728.47	19.441
728.79	19.333
729.10	19.055
729.42	18.855
729.73	18.539
730.05	18.228
730.36	17.818
730.67	17.494
730.99	17.082
731.30	16.765
731.62	16.423
731.93	16.039
732.24	15.642
732.56	15.352
732.87	14.853
733.19	14.484
733.50	14.191
733.81	13.855
734.13	13.663
734.44	13.200
734.76	12.917
735.07	12.643
735.38	12.152
735.70	11.847
736.01	11.585
736.32	11.406
736.64	11.302
736.95	11.272
737.26	11.219
737.58	10.956
737.89	11.017
738.20	10.618
738.52	10.363
738.83	10.125
739.14	9.801
739.45	9.279
739.77	9.069
740.08	8.549
740.39	8.001
740.71	7.388
741.02	6.867
741.33	6.135
741.64	5.668
741.96	5.117
742.27	4.666
742.58	4.121
742.90	3.951
743.21	3.403
743.52	3.145
743.83	2.836
744.14	2.615
744.46	2.328
744.77	2.369
745.08	2.175
745.39	2.185
745.71	2.261
746.02	2.281
746.33	2.472
746.64	2.163
746.95	2.317
747.27	2.287
747.58	2.473
747.89	2.469
748.20	2.324
748.51	2.559
748.82	2.531
749.14	2.423
749.45	2.576
749.76	2.026
750.07	2.117
750.38	1.586
750.69	1.460
751.01	1.006
751.32	0.740
751.63	0.729
751.94	0.516
752.25	0.394
752.56	0.252
752.87	-0.296
753.18	0.005
753.49	0.222
753.81	0.347
754.12	0.667
754.43	1.221
754.74	1.942
755.05	2.797
755.36	3.682
755.67	4.461
755.98	5.740
756.29	7.081
756.60	8.298
756.91	9.607
757.22	11.191
757.53	12.588
757.84	14.006
758.15	15.269
758.46	16.343
758.77	17.399
759.09	18.596
759.40	19.365
759.71	20.109
760.02	20.536
760.33	20.803
760.64	20.811
760.95	20.785
761.26	20.735
761.57	20.655
761.88	20.347
762.18	19.981
762.49	19.579
762.80	19.090
763.11	18.455
763.42	17.764
763.73	16.942
764.04	16.282
764.35	15.296
764.66	14.086
764.97	12.713
765.28	11.324
765.59	9.858
765.90	7.884
766.21	5.964
766.52	4.228
766.83	2.685
767.14	1.060
767.44	-0.530
767.75	-1.916
768.06	-3.199
768.37	-4.071
768.68	-5.297
768.99	-6.585
769.30	-7.471
769.61	-8.411
769.91	-9.371
770.22	-9.948
770.53	-10.018
770.84	-10.966
771.15	-11.270
771.46	-12.089
771.77	-12.733
772.07	-12.340
772.38	-12.518
772.69	-12.943
773.00	-13.052
773.31	-12.927
773.61	-13.713
773.92	-14.436
774.23	-14.144
774.54	-14.977
774.85	-14.512
775.15	-14.504
775.46	-15.084
775.77	-14.863
776.08	-14.132
776.39	-13.984
776.69	-14.336
777.00	-13.889
777.31	-13.471
777.62	-12.997
777.92	-12.846
778.23	-13.682
778.54	-13.331
778.85	-13.521
779.15	-13.640
779.46	-14.187
779.77	-14.695
780.07	-14.939
780.38	-15.535
780.69	-16.407
781.00	-17.169
781.30	-16.420
781.61	-15.701
781.92	-16.467
782.22	-16.315
782.53	-16.479
782.84	-15.917
783.14	-15.259
783.45	-14.389
783.76	-13.168
784.06	-12.049
784.37	-10.945
784.68	-10.265
784.98	-9.447
785.29	-8.242
785.60	-7.369
785.90	-6.076
786.21	-5.325
786.51	-3.772
786.82	-2.714
787.13	-2.247
787.43	-1.654
787.74	-1.021
788.04	-1.164
788.35	-1.383
788.66	-1.633
788.96	-1.760
789.27	-1.988
789.57	-2.147
789.88	-3.234
790.19	-3.840
790.49	-4.256
790.80	-4.638
791.10	-5.191
791.41	-5.055
791.71	-4.659
792.02	-4.184
792.32	-3.841
792.63	-3.126
792.93	-2.842
793.24	-2.687
793.54	-2.449
793.85	-1.769
794.15	-0.770
794.46	-0.860
794.76	-0.953
795.07	-0.753
795.37	-0.986
795.68	-0.146
795.98	-0.616
796.29	-0.912
796.59	-0.857
796.90	-1.020
797.20	-1.285
797.51	-1.851
797.81	-1.524
798.12	-1.379
798.42	-1.507
798.72	-1.201
799.03	-2.056
799.33	-1.883
799.64	-1.806
799.94	-1.494
800.25	-1.372
800.55	-1.234
800.85	-1.341
801.16	-1.800
801.46	-1.333
801.77	-1.334
802.07	-1.415
802.37	-0.772
802.68	-1.359
802.98	-1.265
803.28	-1.527
803.59	-1.949
803.89	-2.421
804.20	-2.087
804.50	-1.465
804.80	-2.030
805.11	-2.096
805.41	-1.779
805.71	-1.673
806.02	-0.731
806.32	-0.583
806.62	-0.094
806.93	0.489
807.23	1.244
807.53	0.392
807.83	0.396
808.14	0.677
808.44	1.643
808.74	1.206
809.05	1.410
809.35	1.458
809.65	1.325
809.95	1.792
810.26	2.175
810.56	2.775
810.86	4.560
811.16	4.947
811.47	6.274
811.77	7.070
812.07	7.699
812.37	7.638
812.68	8.027
812.98	9.221
813.28	9.562
813.58	9.950
813.88	10.695
814.19	10.924
814.49	11.179
814.79	11.276
815.09	11.762
815.39	13.216
815.70	13.599
816.00	14.106
816.30	14.121
816.60	14.535
816.90	15.329
817.20	15.512
817.50	16.505
817.81	17.750
818.11	18.732
818.41	19.210
818.71	19.633
819.01	20.500
819.31	21.091
819.61	21.616
819.92	22.115
820.22	22.302
820.52	22.578
820.82	22.815
821.12	22.979
821.42	22.996
821.72	23.085
822.02	23.202
822.32	23.212
822.62	23.205
822.92	23.167
823.22	22.950
823.52	22.902
823.83	22.864
824.13	22.666
824.43	22.545
824.73	22.515
825.03	22.351
825.33	22.110
825.63	21.869
825.93	21.806
826.23	21.664
826.53	21.639
826.83	21.634
827.13	21.476
827.43	21.356
827.73	20.977
828.03	20.756
828.33	20.635
828.63	20.109
828.93	19.491
829.23	18.875
829.53	18.579
829.83	18.179
830.13	17.554
830.42	17.104
830.72	17.074
831.02	17.341
831.32	17.313
831.62	17.391
831.92	17.969
832.22	18.528
832.52	18.614
832.82	18.400
833.12	18.620
833.42	18.813
833.72	18.598
834.01	18.242
834.31	18.194
834.61	17.750
834.91	17.506
835.21	16.809
835.51	16.059
835.81	14.965
836.11	14.105
836.40	12.348
836.70	11.342
837.00	9.963
837.30	9.224
837.60	7.831
837.90	7.406
838.19	6.551
838.49	6.367
838.79	6.225
839.09	6.210
839.39	6.018
839.68	5.042
839.98	4.553
840.28	3.845
840.58	1.636
840.88	-0.178
841.17	-0.611
841.47	-3.819
841.77	-4.903
842.07	-8.721
842.36	-11.226
842.66	-13.340
842.96	-16.124
843.26	-20.087
843.55	-19.642
843.85	-18.743
844.15	-20.547
844.45	-22.366
844.74	-18.599
845.04	-20.500
845.34	-20.878
845.63	-20.111
845.93	-23.676
846.23	-22.128
846.53	-22.699
846.82	-27.347
847.12	-29.154
847.42	-24.195
847.71	-23.978
848.01	-29.198
848.31	-27.629
848.60	-24.043
848.90	-28.047
849.19	-22.617
849.49	-26.869
849.79	-26.969
850.08	-31.797
850.38	-29.608
850.68	-30.096
850.97	-28.695
851.27	-22.169
851.56	-27.220
851.86	-28.063
852.16	-25.464
852.45	-30.934
852.75	-24.704
853.04	-26.512
853.34	-17.928
853.64	-18.936
853.93	-18.604
854.23	-24.409
854.52	-27.130
854.82	-22.562
855.11	-21.385
855.41	-20.268
855.70	-16.555
856.00	-20.420
856.30	-21.667
856.59	-22.218
856.89	-23.574
857.18	-28.858
857.48	-25.598
857.77	-26.865
858.07	-27.232
858.36	-31.139
858.66	-33.898
858.95	-36.000
859.25	-31.118
859.54	-29.961
859.84	-31.111
860.13	-30.481
860.42	-27.842
860.72	-26.816
861.01	-28.337
861.31	-29.265
861.60	-26.690
861.90	-24.308
862.19	-22.155
862.49	-23.385
862.78	-20.144
863.07	-17.838
863.37	-13.830
863.66	-16.737
863.96	-16.885
864.25	-13.839
864.54	-13.597
864.84	-15.465
865.13	-14.436
865.43	-14.731
865.72	-18.648
866.01	-26.027
866.31	-40.112
866.60	-3.646
866.89	1.317
>>>>>End Spectral Data<<<<<
