OOIBase32 Version 2.0.0.6 Data File
++++++++++++++++++++++++++++++++++++
Date: 01-23-2012, 21:45:03
User: Valued Ocean Optics Customer
Spectrometer Serial Number: USB2E2917
Spectrometer Channel: Master
Integration Time (msec): 5
Spectra Averaged: 10
Boxcar Smoothing: 5
Correct for Electrical Dark: Enabled
Time Normalized: Disabled
Dual-beam Reference: Disabled
Reference Channel: Master
Temperature: Not acquired
Spectrometer Type: S2000
ADC Type: USB2000
Number of Pixels in File: 2048
Graph Title: 
>>>>>Begin Spectral Data<<<<<
180.30	0.000
180.67	0.000
181.03	197.580
181.40	14.401
181.77	11705.000
182.14	-20.497
182.51	97.420
182.88	2596.928
183.25	194.231
183.62	9.096
183.99	44.497
184.36	-282.966
184.73	197.170
185.10	-64.824
185.46	56.391
185.83	21.374
186.20	5.555
186.57	-58.725
186.94	-128.243
187.31	105.882
187.68	-233.244
188.05	73.374
188.42	60.125
188.78	55.962
189.15	42.681
189.52	58.708
189.89	44.975
190.26	36.793
190.63	43.028
191.00	32.863
191.37	41.399
191.73	54.902
192.10	57.320
192.47	61.828
192.84	53.558
193.21	44.881
193.58	31.068
193.94	25.696
194.31	14.559
194.68	10.222
195.05	8.060
195.42	-4.445
195.79	-12.584
196.15	-7.753
196.52	-8.656
196.89	-10.608
197.26	1.566
197.63	9.054
198.00	21.246
198.36	24.022
198.73	21.930
199.10	34.674
199.47	38.108
199.84	41.865
200.20	51.578
200.57	56.656
200.94	51.255
201.31	40.215
201.68	39.127
202.04	30.509
202.41	40.406
202.78	42.140
203.15	27.256
203.51	7.540
203.88	1.228
204.25	-4.520
204.62	12.385
204.98	14.819
205.35	22.549
205.72	23.239
206.09	29.804
206.46	26.882
206.82	34.599
207.19	38.636
207.56	43.094
207.92	32.612
208.29	29.012
208.66	21.661
209.03	22.025
209.39	25.302
209.76	14.983
210.13	15.313
210.50	9.443
210.86	0.477
211.23	21.526
211.60	22.981
211.96	31.469
212.33	18.976
212.70	17.189
213.07	12.718
213.43	8.128
213.80	12.291
214.17	2.576
214.53	7.124
214.90	14.588
215.27	1.683
215.63	2.281
216.00	0.847
216.37	8.849
216.74	0.892
217.10	3.011
217.47	3.923
217.84	6.795
218.20	22.678
218.57	29.700
218.94	23.069
219.30	28.218
219.67	32.984
220.04	42.008
220.40	44.570
220.77	49.574
221.13	44.062
221.50	30.058
221.87	23.655
222.23	19.995
222.60	12.418
222.97	8.323
223.33	1.546
223.70	-6.025
224.07	-8.254
224.43	-3.657
224.80	-0.919
225.16	1.917
225.53	7.322
225.90	5.855
226.26	3.713
226.63	2.318
226.99	3.402
227.36	4.984
227.73	6.174
228.09	5.991
228.46	4.791
228.82	4.869
229.19	3.991
229.56	2.023
229.92	3.742
230.29	5.140
230.65	5.080
231.02	5.921
231.38	4.447
231.75	4.153
232.12	4.234
232.48	4.613
232.85	3.435
233.21	4.703
233.58	5.152
233.94	5.938
234.31	3.268
234.68	3.476
235.04	2.735
235.41	4.783
235.77	5.984
236.14	6.776
236.50	6.609
236.87	7.466
237.23	5.204
237.60	5.336
237.96	4.789
238.33	6.409
238.69	6.960
239.06	6.410
239.42	6.543
239.79	6.320
240.15	5.998
240.52	5.577
240.88	5.206
241.25	5.531
241.61	5.317
241.98	5.568
242.34	5.146
242.71	5.406
243.07	5.584
243.44	5.145
243.80	4.970
244.17	4.724
244.53	4.644
244.90	4.482
245.26	4.487
245.63	4.575
245.99	4.446
246.36	4.473
246.72	3.960
247.09	4.036
247.45	3.880
247.81	3.684
248.18	3.796
248.54	4.036
248.91	3.941
249.27	4.246
249.64	4.320
250.00	4.321
250.36	4.611
250.73	5.056
251.09	5.217
251.46	5.448
251.82	5.705
252.19	5.743
252.55	5.237
252.91	5.560
253.28	4.838
253.64	4.672
254.01	4.447
254.37	3.857
254.73	3.667
255.10	3.958
255.46	3.904
255.83	3.559
256.19	3.933
256.55	3.993
256.92	4.061
257.28	4.228
257.65	4.261
258.01	4.531
258.37	4.529
258.74	4.680
259.10	4.378
259.46	4.488
259.83	4.772
260.19	4.593
260.55	4.755
260.92	4.427
261.28	4.252
261.64	4.076
262.01	3.820
262.37	3.871
262.73	3.355
263.10	3.503
263.46	3.746
263.82	3.480
264.19	3.104
264.55	3.056
264.91	3.302
265.28	3.995
265.64	3.942
266.00	3.515
266.37	3.383
266.73	3.809
267.09	3.577
267.46	3.313
267.82	3.147
268.18	3.509
268.54	3.568
268.91	3.857
269.27	3.483
269.63	3.552
270.00	4.022
270.36	4.165
270.72	4.036
271.08	3.920
271.45	3.808
271.81	4.281
272.17	4.158
272.53	3.977
272.90	3.695
273.26	3.805
273.62	3.454
273.98	3.024
274.35	2.984
274.71	3.126
275.07	3.427
275.43	3.794
275.80	3.548
276.16	3.813
276.52	4.020
276.88	4.058
277.25	3.974
277.61	4.447
277.97	4.458
278.33	4.090
278.69	3.818
279.06	3.986
279.42	3.607
279.78	3.575
280.14	3.318
280.50	3.123
280.87	3.460
281.23	3.718
281.59	3.743
281.95	3.718
282.31	4.068
282.68	4.396
283.04	4.167
283.40	4.348
283.76	4.260
284.12	4.358
284.48	4.489
284.85	4.203
285.21	3.891
285.57	3.848
285.93	4.111
286.29	4.011
286.65	3.675
287.02	3.703
287.38	3.738
287.74	3.974
288.10	3.887
288.46	3.844
288.82	3.948
289.18	3.969
289.54	4.003
289.91	4.128
290.27	4.374
290.63	4.674
290.99	4.764
291.35	4.761
291.71	4.822
292.07	4.749
292.43	4.905
292.79	5.015
293.16	5.084
293.52	4.981
293.88	4.731
294.24	4.675
294.60	4.521
294.96	4.466
295.32	4.448
295.68	4.020
296.04	4.107
296.40	3.891
296.76	3.795
297.12	3.887
297.49	3.916
297.85	4.089
298.21	4.041
298.57	4.053
298.93	4.169
299.29	4.205
299.65	4.321
300.01	4.383
300.37	4.467
300.73	4.554
301.09	4.534
301.45	4.748
301.81	4.625
302.17	4.518
302.53	4.652
302.89	4.585
303.25	4.479
303.61	4.815
303.97	4.818
304.33	4.886
304.69	4.731
305.05	4.646
305.41	4.447
305.77	4.541
306.13	4.692
306.49	4.674
306.85	4.581
307.21	4.543
307.57	4.408
307.93	4.344
308.29	4.283
308.65	4.384
309.01	4.353
309.37	4.506
309.73	4.465
310.09	4.421
310.45	4.451
310.81	4.502
311.17	4.408
311.53	4.391
311.89	4.560
312.25	4.606
312.61	4.598
312.96	4.742
313.32	4.728
313.68	4.735
314.04	4.841
314.40	4.858
314.76	4.877
315.12	5.169
315.48	5.337
315.84	5.280
316.20	5.404
316.56	5.497
316.92	5.517
317.27	5.433
317.63	5.400
317.99	5.292
318.35	5.238
318.71	5.349
319.07	5.246
319.43	5.205
319.79	5.186
320.15	5.133
320.50	5.010
320.86	5.140
321.22	5.303
321.58	5.504
321.94	5.534
322.30	5.679
322.66	5.886
323.01	6.043
323.37	6.083
323.73	6.189
324.09	6.353
324.45	6.601
324.81	6.567
325.17	6.663
325.52	6.694
325.88	6.790
326.24	6.907
326.60	6.889
326.96	7.031
327.31	7.154
327.67	7.270
328.03	7.412
328.39	7.388
328.75	7.563
329.11	7.613
329.46	7.710
329.82	7.872
330.18	7.937
330.54	8.078
330.90	8.103
331.25	8.145
331.61	8.150
331.97	8.101
332.33	8.227
332.68	8.088
333.04	7.963
333.40	7.899
333.76	7.905
334.11	7.777
334.47	7.717
334.83	7.627
335.19	7.606
335.54	7.716
335.90	7.759
336.26	7.730
336.62	7.828
336.97	7.926
337.33	7.940
337.69	7.941
338.05	7.995
338.40	7.968
338.76	8.038
339.12	8.059
339.48	7.969
339.83	7.929
340.19	7.958
340.55	7.940
340.90	7.903
341.26	7.853
341.62	7.790
341.97	7.827
342.33	7.811
342.69	7.769
343.04	7.756
343.40	7.684
343.76	7.680
344.12	7.689
344.47	7.710
344.83	7.651
345.19	7.608
345.54	7.630
345.90	7.658
346.26	7.673
346.61	7.732
346.97	7.736
347.32	7.829
347.68	7.759
348.04	7.670
348.39	7.638
348.75	7.749
349.11	7.707
349.46	7.708
349.82	7.618
350.18	7.588
350.53	7.447
350.89	7.533
351.24	7.474
351.60	7.511
351.96	7.494
352.31	7.558
352.67	7.528
353.02	7.636
353.38	7.596
353.74	7.578
354.09	7.563
354.45	7.692
354.80	7.574
355.16	7.575
355.52	7.578
355.87	7.570
356.23	7.482
356.58	7.516
356.94	7.485
357.29	7.498
357.65	7.504
358.00	7.490
358.36	7.423
358.72	7.510
359.07	7.547
359.43	7.576
359.78	7.630
360.14	7.625
360.49	7.590
360.85	7.624
361.20	7.657
361.56	7.695
361.91	7.678
362.27	7.676
362.62	7.544
362.98	7.483
363.33	7.467
363.69	7.380
364.04	7.412
364.40	7.415
364.75	7.382
365.11	7.384
365.46	7.401
365.82	7.380
366.17	7.359
366.53	7.473
366.88	7.500
367.24	7.533
367.59	7.672
367.95	7.710
368.30	7.746
368.66	7.728
369.01	7.731
369.37	7.774
369.72	7.854
370.08	7.947
370.43	7.914
370.78	7.918
371.14	7.908
371.49	7.894
371.85	7.956
372.20	8.000
372.56	8.080
372.91	8.092
373.26	8.081
373.62	8.116
373.97	8.120
374.33	8.150
374.68	8.155
375.03	8.210
375.39	8.225
375.74	8.230
376.10	8.208
376.45	8.284
376.80	8.379
377.16	8.450
377.51	8.496
377.87	8.551
378.22	8.633
378.57	8.743
378.93	8.824
379.28	8.912
379.63	8.966
379.99	9.085
380.34	9.123
380.70	9.181
381.05	9.288
381.40	9.345
381.76	9.362
382.11	9.464
382.46	9.508
382.82	9.524
383.17	9.573
383.52	9.663
383.88	9.664
384.23	9.737
384.58	9.745
384.94	9.702
385.29	9.764
385.64	9.860
385.99	9.899
386.35	10.013
386.70	10.106
387.05	10.139
387.41	10.131
387.76	10.206
388.11	10.235
388.47	10.329
388.82	10.395
389.17	10.462
389.52	10.532
389.88	10.577
390.23	10.607
390.58	10.649
390.93	10.741
391.29	10.840
391.64	10.923
391.99	11.001
392.34	11.054
392.70	11.147
393.05	11.167
393.40	11.189
393.75	11.255
394.11	11.294
394.46	11.355
394.81	11.332
395.16	11.352
395.52	11.344
395.87	11.374
396.22	11.385
396.57	11.382
396.92	11.430
397.28	11.514
397.63	11.508
397.98	11.548
398.33	11.577
398.68	11.696
399.04	11.758
399.39	11.816
399.74	11.876
400.09	11.944
400.44	12.013
400.80	12.061
401.15	12.078
401.50	12.149
401.85	12.220
402.20	12.263
402.55	12.311
402.90	12.370
403.26	12.454
403.61	12.522
403.96	12.595
404.31	12.625
404.66	12.702
405.01	12.756
405.36	12.825
405.72	12.871
406.07	12.949
406.42	12.993
406.77	13.007
407.12	13.038
407.47	13.074
407.82	13.083
408.17	13.135
408.53	13.160
408.88	13.228
409.23	13.283
409.58	13.300
409.93	13.333
410.28	13.381
410.63	13.461
410.98	13.541
411.33	13.551
411.68	13.592
412.03	13.695
412.38	13.750
412.73	13.746
413.09	13.782
413.44	13.819
413.79	13.858
414.14	13.898
414.49	13.912
414.84	13.907
415.19	13.952
415.54	13.994
415.89	13.972
416.24	13.982
416.59	14.063
416.94	14.096
417.29	14.125
417.64	14.136
417.99	14.183
418.34	14.231
418.69	14.269
419.04	14.285
419.39	14.319
419.74	14.354
420.09	14.396
420.44	14.406
420.79	14.426
421.14	14.446
421.49	14.495
421.84	14.496
422.19	14.521
422.54	14.577
422.89	14.632
423.24	14.657
423.59	14.711
423.94	14.727
424.29	14.762
424.64	14.795
424.99	14.850
425.34	14.901
425.68	14.974
426.03	15.046
426.38	15.068
426.73	15.110
427.08	15.149
427.43	15.193
427.78	15.264
428.13	15.311
428.48	15.382
428.83	15.407
429.18	15.406
429.53	15.428
429.87	15.422
430.22	15.425
430.57	15.442
430.92	15.479
431.27	15.488
431.62	15.522
431.97	15.544
432.32	15.563
432.67	15.595
433.01	15.620
433.36	15.644
433.71	15.677
434.06	15.711
434.41	15.761
434.76	15.791
435.11	15.819
435.45	15.826
435.80	15.822
436.15	15.816
436.50	15.842
436.85	15.866
437.20	15.891
437.54	15.921
437.89	15.932
438.24	15.953
438.59	15.966
438.94	15.982
439.29	16.010
439.63	16.033
439.98	16.070
440.33	16.081
440.68	16.090
441.03	16.088
441.37	16.082
441.72	16.082
442.07	16.088
442.42	16.097
442.76	16.110
443.11	16.096
443.46	16.087
443.81	16.080
444.16	16.080
444.50	16.077
444.85	16.100
445.20	16.119
445.55	16.147
445.89	16.150
446.24	16.148
446.59	16.149
446.94	16.184
447.28	16.225
447.63	16.239
447.98	16.281
448.32	16.333
448.67	16.332
449.02	16.338
449.37	16.343
449.71	16.345
450.06	16.379
450.41	16.396
450.75	16.416
451.10	16.420
451.45	16.461
451.79	16.447
452.14	16.444
452.49	16.456
452.84	16.493
453.18	16.489
453.53	16.496
453.88	16.504
454.22	16.526
454.57	16.530
454.92	16.548
455.26	16.560
455.61	16.591
455.95	16.621
456.30	16.648
456.65	16.640
456.99	16.676
457.34	16.696
457.69	16.730
458.03	16.735
458.38	16.760
458.73	16.781
459.07	16.808
459.42	16.831
459.76	16.820
460.11	16.841
460.46	16.865
460.80	16.898
461.15	16.917
461.49	16.932
461.84	16.974
462.19	16.993
462.53	17.043
462.88	17.038
463.22	17.060
463.57	17.120
463.91	17.133
464.26	17.177
464.61	17.202
464.95	17.236
465.30	17.244
465.64	17.270
465.99	17.304
466.33	17.304
466.68	17.347
467.02	17.374
467.37	17.394
467.71	17.421
468.06	17.431
468.41	17.448
468.75	17.467
469.10	17.486
469.44	17.487
469.79	17.485
470.13	17.518
470.48	17.510
470.82	17.517
471.17	17.520
471.51	17.523
471.86	17.545
472.20	17.545
472.55	17.563
472.89	17.571
473.23	17.576
473.58	17.586
473.92	17.554
474.27	17.559
474.61	17.560
474.96	17.561
475.30	17.559
475.65	17.536
475.99	17.552
476.34	17.546
476.68	17.578
477.02	17.599
477.37	17.574
477.71	17.616
478.06	17.648
478.40	17.696
478.75	17.797
479.09	17.940
479.43	18.109
479.78	18.309
480.12	18.549
480.47	18.806
480.81	19.092
481.15	19.386
481.50	19.681
481.84	20.029
482.19	20.403
482.53	20.715
482.87	20.873
483.22	20.861
483.56	20.668
483.90	20.363
484.25	19.982
484.59	19.615
484.94	19.348
485.28	19.073
485.62	18.722
485.97	18.336
486.31	17.990
486.65	17.790
487.00	17.749
487.34	17.850
487.68	18.047
488.03	18.285
488.37	18.472
488.71	18.533
489.06	18.546
489.40	18.558
489.74	18.544
490.09	18.538
490.43	18.505
490.77	18.498
491.11	18.488
491.46	18.481
491.80	18.462
492.14	18.442
492.49	18.417
492.83	18.396
493.17	18.370
493.51	18.371
493.86	18.357
494.20	18.387
494.54	18.379
494.88	18.405
495.23	18.409
495.57	18.436
495.91	18.460
496.25	18.465
496.60	18.478
496.94	18.513
497.28	18.557
497.62	18.603
497.97	18.608
498.31	18.643
498.65	18.647
498.99	18.688
499.33	18.702
499.68	18.737
500.02	18.785
500.36	18.820
500.70	18.834
501.04	18.847
501.39	18.858
501.73	18.915
502.07	18.945
502.41	19.015
502.75	19.038
503.09	19.093
503.44	19.137
503.78	19.158
504.12	19.200
504.46	19.233
504.80	19.265
505.14	19.315
505.49	19.324
505.83	19.367
506.17	19.393
506.51	19.435
506.85	19.458
507.19	19.463
507.53	19.509
507.87	19.543
508.22	19.561
508.56	19.586
508.90	19.616
509.24	19.665
509.58	19.699
509.92	19.719
510.26	19.739
510.60	19.777
510.94	19.816
511.28	19.849
511.63	19.881
511.97	19.921
512.31	19.958
512.65	19.969
512.99	19.984
513.33	19.999
513.67	20.053
514.01	20.100
514.35	20.137
514.69	20.182
515.03	20.209
515.37	20.245
515.71	20.290
516.05	20.327
516.39	20.365
516.73	20.412
517.07	20.450
517.41	20.462
517.75	20.455
518.09	20.466
518.43	20.485
518.77	20.495
519.11	20.518
519.45	20.524
519.79	20.518
520.13	20.523
520.47	20.525
520.81	20.546
521.15	20.571
521.49	20.626
521.83	20.643
522.17	20.698
522.51	20.742
522.85	20.771
523.19	20.849
523.53	21.004
523.87	21.155
524.21	21.308
524.55	21.419
524.89	21.532
525.23	21.632
525.57	21.728
525.91	21.827
526.25	21.910
526.58	21.977
526.92	22.036
527.26	22.032
527.60	22.024
527.94	21.988
528.28	21.958
528.62	21.919
528.96	21.865
529.30	21.833
529.64	21.750
529.97	21.696
530.31	21.646
530.65	21.575
530.99	21.523
531.33	21.502
531.67	21.502
532.01	21.508
532.35	21.499
532.68	21.502
533.02	21.479
533.36	21.460
533.70	21.431
534.04	21.414
534.38	21.422
534.71	21.441
535.05	21.441
535.39	21.420
535.73	21.417
536.07	21.425
536.41	21.478
536.74	21.515
537.08	21.570
537.42	21.632
537.76	21.694
538.10	21.750
538.43	21.811
538.77	21.846
539.11	21.896
539.45	21.920
539.79	21.946
540.12	21.940
540.46	21.942
540.80	21.930
541.14	21.902
541.47	21.885
541.81	21.845
542.15	21.822
542.49	21.790
542.82	21.758
543.16	21.747
543.50	21.717
543.84	21.686
544.17	21.651
544.51	21.681
544.85	21.694
545.18	21.678
545.52	21.706
545.86	21.693
546.20	21.690
546.53	21.686
546.87	21.673
547.21	21.691
547.54	21.722
547.88	21.773
548.22	21.766
548.55	21.793
548.89	21.807
549.23	21.809
549.56	21.795
549.90	21.838
550.24	21.835
550.57	21.840
550.91	21.829
551.25	21.829
551.58	21.838
551.92	21.854
552.26	21.852
552.59	21.858
552.93	21.859
553.27	21.888
553.60	21.876
553.94	21.921
554.27	21.926
554.61	21.980
554.95	21.999
555.28	22.036
555.62	22.064
555.95	22.096
556.29	22.135
556.63	22.172
556.96	22.173
557.30	22.204
557.63	22.232
557.97	22.277
558.31	22.268
558.64	22.317
558.98	22.309
559.31	22.314
559.65	22.334
559.98	22.338
560.32	22.352
560.65	22.399
560.99	22.417
561.33	22.458
561.66	22.481
562.00	22.518
562.33	22.517
562.67	22.529
563.00	22.568
563.34	22.590
563.67	22.620
564.01	22.617
564.34	22.633
564.68	22.650
565.01	22.608
565.35	22.612
565.68	22.620
566.02	22.628
566.35	22.670
566.69	22.676
567.02	22.664
567.36	22.677
567.69	22.700
568.03	22.720
568.36	22.740
568.69	22.772
569.03	22.789
569.36	22.824
569.70	22.830
570.03	22.840
570.37	22.853
570.70	22.908
571.04	22.957
571.37	22.979
571.70	22.975
572.04	23.007
572.37	23.047
572.71	23.062
573.04	23.066
573.37	23.106
573.71	23.122
574.04	23.162
574.38	23.196
574.71	23.204
575.04	23.247
575.38	23.278
575.71	23.301
576.05	23.319
576.38	23.357
576.71	23.372
577.05	23.379
577.38	23.418
577.71	23.443
578.05	23.439
578.38	23.466
578.71	23.499
579.05	23.511
579.38	23.522
579.71	23.548
580.05	23.533
580.38	23.586
580.71	23.624
581.05	23.615
581.38	23.596
581.71	23.596
582.05	23.599
582.38	23.617
582.71	23.692
583.04	23.697
583.38	23.740
583.71	23.808
584.04	23.797
584.38	23.833
584.71	23.854
585.04	23.874
585.37	23.916
585.71	23.936
586.04	23.950
586.37	23.943
586.70	24.006
587.04	23.984
587.37	23.992
587.70	24.016
588.03	24.024
588.37	24.063
588.70	24.094
589.03	24.108
589.36	24.144
589.69	24.123
590.03	24.158
590.36	24.109
590.69	24.141
591.02	24.165
591.35	24.200
591.69	24.201
592.02	24.205
592.35	24.197
592.68	24.210
593.01	24.220
593.35	24.276
593.68	24.270
594.01	24.306
594.34	24.300
594.67	24.292
595.00	24.288
595.34	24.296
595.67	24.300
596.00	24.332
596.33	24.315
596.66	24.276
596.99	24.270
597.32	24.276
597.65	24.285
597.99	24.303
598.32	24.312
598.65	24.331
598.98	24.361
599.31	24.392
599.64	24.403
599.97	24.434
600.30	24.454
600.63	24.482
600.96	24.489
601.30	24.499
601.63	24.511
601.96	24.520
602.29	24.536
602.62	24.572
602.95	24.564
603.28	24.574
603.61	24.566
603.94	24.589
604.27	24.583
604.60	24.596
604.93	24.604
605.26	24.611
605.59	24.650
605.92	24.668
606.25	24.656
606.58	24.688
606.91	24.729
607.24	24.795
607.57	24.800
607.90	24.817
608.23	24.820
608.56	24.818
608.89	24.846
609.22	24.876
609.55	24.880
609.88	24.901
610.21	24.961
610.54	25.003
610.87	25.014
611.20	25.089
611.53	25.116
611.86	25.135
612.19	25.207
612.52	25.261
612.85	25.248
613.18	25.275
613.51	25.241
613.84	25.204
614.17	25.169
614.49	25.169
614.82	25.164
615.15	25.167
615.48	25.197
615.81	25.188
616.14	25.163
616.47	25.154
616.80	25.186
617.13	25.197
617.46	25.172
617.78	25.186
618.11	25.197
618.44	25.185
618.77	25.208
619.10	25.216
619.43	25.204
619.76	25.231
620.09	25.261
620.41	25.271
620.74	25.346
621.07	25.401
621.40	25.419
621.73	25.422
622.06	25.453
622.38	25.488
622.71	25.509
623.04	25.527
623.37	25.530
623.70	25.538
624.02	25.527
624.35	25.543
624.68	25.534
625.01	25.539
625.34	25.565
625.66	25.566
625.99	25.557
626.32	25.568
626.65	25.601
626.98	25.610
627.30	25.663
627.63	25.673
627.96	25.671
628.29	25.691
628.61	25.704
628.94	25.710
629.27	25.731
629.60	25.778
629.92	25.780
630.25	25.844
630.58	25.857
630.91	25.848
631.23	25.878
631.56	25.881
631.89	25.905
632.21	25.943
632.54	25.947
632.87	25.994
633.19	25.948
633.52	25.976
633.85	25.935
634.18	25.948
634.50	25.957
634.83	25.972
635.16	25.977
635.48	25.977
635.81	25.972
636.14	26.003
636.46	25.972
636.79	26.001
637.11	26.016
637.44	26.053
637.77	26.035
638.09	26.014
638.42	26.006
638.75	26.005
639.07	26.008
639.40	25.989
639.73	26.025
640.05	26.082
640.38	26.073
640.70	26.080
641.03	26.069
641.36	26.121
641.68	26.090
642.01	26.073
642.33	26.129
642.66	26.157
642.98	26.159
643.31	26.095
643.64	26.040
643.96	26.063
644.29	26.037
644.61	26.048
644.94	26.022
645.26	26.050
645.59	26.079
645.91	26.079
646.24	26.124
646.56	26.148
646.89	26.183
647.22	26.257
647.54	26.262
647.87	26.289
648.19	26.304
648.52	26.352
648.84	26.373
649.17	26.370
649.49	26.388
649.82	26.339
650.14	26.373
650.47	26.360
650.79	26.276
651.11	26.280
651.44	26.300
651.76	26.266
652.09	26.248
652.41	26.300
652.74	26.277
653.06	26.241
653.39	26.285
653.71	26.269
654.04	26.324
654.36	26.366
654.68	26.339
655.01	26.307
655.33	26.323
655.66	26.301
655.98	26.264
656.30	26.299
656.63	26.317
656.95	26.281
657.28	26.296
657.60	26.208
657.92	26.131
658.25	26.166
658.57	26.165
658.90	26.207
659.22	26.167
659.54	26.205
659.87	26.176
660.19	26.146
660.51	26.171
660.84	26.106
661.16	26.174
661.48	26.288
661.81	26.282
662.13	26.307
662.45	26.195
662.78	26.255
663.10	26.220
663.42	26.305
663.75	26.323
664.07	26.336
664.39	26.395
664.72	26.380
665.04	26.327
665.36	26.252
665.69	26.249
666.01	26.280
666.33	26.309
666.65	26.330
666.98	26.267
667.30	26.240
667.62	26.140
667.94	26.109
668.27	26.135
668.59	26.182
668.91	26.242
669.23	26.251
669.56	26.248
669.88	26.205
670.20	26.139
670.52	26.120
670.85	26.134
671.17	26.202
671.49	26.219
671.81	26.253
672.13	26.174
672.46	26.183
672.78	26.150
673.10	26.124
673.42	26.126
673.74	26.229
674.07	26.177
674.39	26.123
674.71	26.118
675.03	26.114
675.35	26.060
675.67	26.087
676.00	26.105
676.32	26.095
676.64	26.107
676.96	26.144
677.28	26.085
677.60	26.166
677.92	26.191
678.25	26.192
678.57	26.173
678.89	26.158
679.21	26.158
679.53	26.173
679.85	26.160
680.17	26.226
680.49	26.138
680.81	26.142
681.13	26.139
681.46	26.215
681.78	26.234
682.10	26.228
682.42	26.252
682.74	26.246
683.06	26.175
683.38	26.207
683.70	26.165
684.02	26.150
684.34	26.096
684.66	26.071
684.98	25.953
685.30	25.960
685.62	26.002
685.94	25.960
686.26	25.996
686.58	26.045
686.90	26.067
687.22	26.083
687.54	26.145
687.86	26.167
688.18	26.144
688.50	26.212
688.82	26.170
689.14	26.105
689.46	26.109
689.78	26.036
690.10	25.986
690.42	25.891
690.74	25.845
691.06	25.820
691.38	25.780
691.70	25.738
692.02	25.677
692.34	25.696
692.66	25.677
692.98	25.638
693.30	25.669
693.62	25.652
693.94	25.628
694.26	25.634
694.57	25.561
694.89	25.603
695.21	25.639
695.53	25.637
695.85	25.602
696.17	25.633
696.49	25.620
696.81	25.633
697.13	25.659
697.44	25.716
697.76	25.683
698.08	25.728
698.40	25.694
698.72	25.637
699.04	25.603
699.36	25.570
699.67	25.507
699.99	25.482
700.31	25.359
700.63	25.264
700.95	25.242
701.27	25.157
701.58	25.075
701.90	24.979
702.22	25.011
702.54	24.950
702.86	24.924
703.17	24.878
703.49	24.874
703.81	24.891
704.13	24.865
704.45	24.737
704.76	24.737
705.08	24.694
705.40	24.715
705.72	24.583
706.03	24.574
706.35	24.596
706.67	24.577
706.99	24.483
707.30	24.430
707.62	24.402
707.94	24.448
708.26	24.431
708.57	24.451
708.89	24.472
709.21	24.535
709.53	24.480
709.84	24.353
710.16	24.359
710.48	24.461
710.79	24.447
711.11	24.536
711.43	24.448
711.74	24.449
712.06	24.410
712.38	24.366
712.69	24.370
713.01	24.511
713.33	24.570
713.64	24.521
713.96	24.501
714.28	24.712
714.59	24.688
714.91	24.787
715.23	24.846
715.54	24.996
715.86	25.027
716.17	25.097
716.49	25.043
716.81	25.091
717.12	25.099
717.44	25.067
717.76	24.843
718.07	24.802
718.39	24.681
718.70	24.541
719.02	24.392
719.33	24.350
719.65	24.145
719.97	24.124
720.28	24.024
720.60	24.042
720.91	24.152
721.23	24.154
721.54	24.155
721.86	24.289
722.17	24.354
722.49	24.345
722.81	24.317
723.12	24.337
723.44	24.365
723.75	24.400
724.07	24.395
724.38	24.255
724.70	24.297
725.01	24.296
725.33	24.247
725.64	24.365
725.96	24.346
726.27	24.392
726.59	24.412
726.90	24.386
727.22	24.350
727.53	24.321
727.84	24.305
728.16	24.187
728.47	24.095
728.79	24.075
729.10	23.900
729.42	23.947
729.73	23.876
730.05	23.875
730.36	23.727
730.67	23.668
730.99	23.609
731.30	23.468
731.62	23.311
731.93	23.272
732.24	23.199
732.56	23.077
732.87	22.828
733.19	22.722
733.50	22.645
733.81	22.536
734.13	22.429
734.44	22.459
734.76	22.367
735.07	22.361
735.38	22.202
735.70	22.043
736.01	22.096
736.32	22.063
736.64	22.073
736.95	21.950
737.26	21.968
737.58	21.989
737.89	21.873
738.20	21.951
738.52	21.957
738.83	21.882
739.14	21.835
739.45	21.729
739.77	21.798
740.08	21.670
740.39	21.623
740.71	21.632
741.02	21.579
741.33	21.506
741.64	21.266
741.96	21.140
742.27	21.153
742.58	21.066
742.90	21.161
743.21	20.953
743.52	20.916
743.83	21.123
744.14	20.902
744.46	20.658
744.77	20.551
745.08	20.613
745.39	20.627
745.71	20.499
746.02	20.563
746.33	20.315
746.64	20.326
746.95	20.277
747.27	20.060
747.58	20.157
747.89	20.253
748.20	20.216
748.51	20.175
748.82	20.317
749.14	20.397
749.45	20.338
749.76	20.401
750.07	20.362
750.38	20.158
750.69	20.096
751.01	20.067
751.32	20.127
751.63	20.143
751.94	20.249
752.25	20.143
752.56	20.091
752.87	20.137
753.18	20.096
753.49	20.169
753.81	20.259
754.12	20.204
754.43	20.232
754.74	20.283
755.05	20.326
755.36	20.476
755.67	20.655
755.98	20.758
756.29	20.985
756.60	21.229
756.91	21.587
757.22	21.952
757.53	22.234
757.84	22.586
758.15	22.751
758.46	23.032
758.77	23.194
759.09	23.365
759.40	23.577
759.71	23.661
760.02	23.693
760.33	23.666
760.64	23.747
760.95	23.807
761.26	23.632
761.57	23.719
761.88	23.651
762.18	23.592
762.49	23.458
762.80	23.387
763.11	23.209
763.42	23.107
763.73	22.958
764.04	22.519
764.35	22.237
764.66	21.990
764.97	21.670
765.28	21.438
765.59	21.036
765.90	20.742
766.21	20.517
766.52	20.118
766.83	19.798
767.14	19.495
767.44	19.591
767.75	19.355
768.06	19.316
768.37	19.027
768.68	18.775
768.99	18.538
769.30	18.349
769.61	17.832
769.91	17.783
770.22	17.643
770.53	17.452
770.84	17.384
771.15	17.404
771.46	17.250
771.77	17.127
772.07	17.127
772.38	17.175
772.69	17.158
773.00	17.196
773.31	17.419
773.61	17.183
773.92	17.290
774.23	17.001
774.54	16.866
774.85	16.669
775.15	16.696
775.46	16.728
775.77	16.798
776.08	16.661
776.39	16.738
776.69	16.659
777.00	17.165
777.31	17.088
777.62	17.531
777.92	17.589
778.23	17.859
778.54	17.696
778.85	17.483
779.15	17.571
779.46	17.399
779.77	17.408
780.07	17.351
780.38	16.953
780.69	17.105
781.00	16.695
781.30	16.801
781.61	16.577
781.92	16.737
782.22	16.776
782.53	16.515
782.84	16.783
783.14	16.839
783.45	16.936
783.76	17.134
784.06	16.889
784.37	17.213
784.68	16.930
784.98	17.196
785.29	17.458
785.60	17.793
785.90	18.067
786.21	18.283
786.51	18.469
786.82	18.492
787.13	18.550
787.43	18.795
787.74	18.593
788.04	18.953
788.35	18.699
788.66	18.652
788.96	18.406
789.27	18.505
789.57	18.277
789.88	18.256
790.19	18.118
790.49	18.038
790.80	17.928
791.10	18.240
791.41	18.082
791.71	18.436
792.02	18.589
792.32	18.656
792.63	18.717
792.93	18.881
793.24	18.689
793.54	18.634
793.85	18.770
794.15	18.779
794.46	18.518
794.76	18.342
795.07	18.311
795.37	18.175
795.68	18.262
795.98	18.015
796.29	17.976
796.59	18.178
796.90	18.114
797.20	17.973
797.51	18.135
797.81	18.030
798.12	18.393
798.42	18.425
798.72	18.132
799.03	18.120
799.33	18.433
799.64	18.644
799.94	18.442
800.25	18.669
800.55	18.866
800.85	18.660
801.16	18.874
801.46	18.714
801.77	18.495
802.07	18.674
802.37	18.336
802.68	18.075
802.98	17.660
803.28	17.774
803.59	17.587
803.89	17.620
804.20	17.631
804.50	17.785
804.80	17.434
805.11	17.637
805.41	17.657
805.71	18.050
806.02	18.215
806.32	18.783
806.62	18.465
806.93	18.529
807.23	18.066
807.53	18.253
807.83	18.281
808.14	18.670
808.44	18.781
808.74	19.095
809.05	19.404
809.35	19.284
809.65	18.917
809.95	19.276
810.26	19.495
810.56	19.843
810.86	19.551
811.16	19.519
811.47	19.312
811.77	19.244
812.07	18.917
812.37	18.530
812.68	18.864
812.98	19.371
813.28	19.747
813.58	19.333
813.88	19.357
814.19	19.562
814.49	19.283
814.79	19.458
815.09	19.426
815.39	19.530
815.70	19.684
816.00	19.499
816.30	19.473
816.60	19.741
816.90	20.071
817.20	20.211
817.50	20.341
817.81	20.672
818.11	20.921
818.41	21.018
818.71	20.953
819.01	21.098
819.31	21.108
819.61	21.145
819.92	21.165
820.22	21.199
820.52	21.276
820.82	21.379
821.12	21.376
821.42	21.432
821.72	21.483
822.02	21.486
822.32	21.371
822.62	21.399
822.92	21.417
823.22	21.339
823.52	21.330
823.83	21.235
824.13	21.101
824.43	21.015
824.73	20.730
825.03	20.702
825.33	20.781
825.63	20.921
825.93	20.844
826.23	20.717
826.53	20.566
826.83	20.623
827.13	20.528
827.43	20.619
827.73	20.656
828.03	20.725
828.33	20.501
828.63	20.272
828.93	19.964
829.23	19.911
829.53	19.838
829.83	20.009
830.13	19.903
830.42	20.195
830.72	20.031
831.02	19.912
831.32	20.174
831.62	20.160
831.92	20.247
832.22	20.345
832.52	20.326
832.82	20.453
833.12	20.579
833.42	20.272
833.72	20.412
834.01	20.266
834.31	20.273
834.61	20.263
834.91	20.336
835.21	20.355
835.51	20.371
835.81	20.493
836.11	20.011
836.40	19.708
836.70	20.001
837.00	19.344
837.30	19.133
837.60	19.312
837.90	19.058
838.19	18.821
838.49	18.531
838.79	18.307
839.09	18.040
839.39	18.178
839.68	17.903
839.98	17.891
840.28	17.768
840.58	17.417
840.88	17.167
841.17	16.916
841.47	16.672
841.77	16.933
842.07	17.201
842.36	16.597
842.66	15.733
842.96	15.677
843.26	14.675
843.55	14.221
843.85	15.085
844.15	14.488
844.45	13.953
844.74	14.278
845.04	13.381
845.34	12.669
845.63	12.135
845.93	13.638
846.23	13.751
846.53	14.753
846.82	14.283
847.12	13.213
847.42	11.732
847.71	10.957
848.01	10.198
848.31	12.167
848.60	10.671
848.90	9.876
849.19	9.327
849.49	8.888
849.79	8.265
850.08	9.309
850.38	11.553
850.68	12.659
850.97	14.684
851.27	15.508
851.56	12.880
851.86	14.829
852.16	15.888
852.45	17.423
852.75	17.323
853.04	17.294
853.34	17.416
853.64	15.607
853.93	14.843
854.23	14.506
854.52	12.270
854.82	13.321
855.11	11.434
855.41	11.698
855.70	11.046
856.00	11.861
856.30	11.517
856.59	11.689
856.89	12.191
857.18	12.948
857.48	12.228
857.77	13.108
858.07	13.601
858.36	15.663
858.66	16.231
858.95	16.660
859.25	17.153
859.54	16.159
859.84	15.413
860.13	15.211
860.42	15.516
860.72	16.828
861.01	16.270
861.31	15.616
861.60	14.641
861.90	14.927
862.19	12.926
862.49	11.032
862.78	13.629
863.07	13.944
863.37	12.900
863.66	13.094
863.96	11.570
864.25	11.917
864.54	12.158
864.84	10.315
865.13	8.793
865.43	9.213
865.72	7.598
866.01	15.491
866.31	-8.887
866.60	0.356
866.89	14.693
>>>>>End Spectral Data<<<<<
