OOIBase32 Version 2.0.0.6 Data File
++++++++++++++++++++++++++++++++++++
Date: 01-18-2012, 22:49:46
User: Valued Ocean Optics Customer
Spectrometer Serial Number: USB2E2917
Spectrometer Channel: Master
Integration Time (msec): 5
Spectra Averaged: 10
Boxcar Smoothing: 5
Correct for Electrical Dark: Enabled
Time Normalized: Disabled
Dual-beam Reference: Disabled
Reference Channel: Master
Temperature: Not acquired
Spectrometer Type: S2000
ADC Type: USB2000
Number of Pixels in File: 2048
Graph Title: 
>>>>>Begin Spectral Data<<<<<
180.30	0.000
180.67	0.000
181.03	18.304
181.40	100.673
181.77	245.050
182.14	122.256
182.51	62.881
182.88	82.806
183.25	159.421
183.62	-11.747
183.99	-59.203
184.36	13.703
184.73	80.184
185.10	241.944
185.46	183.564
185.83	167.178
186.20	49.956
186.57	337.840
186.94	58.803
187.31	14.947
187.68	1984.307
188.05	53.041
188.42	55.253
188.78	42.672
189.15	46.383
189.52	26.167
189.89	8.746
190.26	22.606
190.63	11.511
191.00	8.949
191.37	20.857
191.73	8.939
192.10	11.159
192.47	11.838
192.84	7.729
193.21	5.197
193.58	15.905
193.94	16.909
194.31	6.258
194.68	10.628
195.05	15.172
195.42	0.647
195.79	5.456
196.15	4.427
196.52	-11.616
196.89	-16.269
197.26	-15.955
197.63	-10.797
198.00	-13.230
198.36	-14.538
198.73	-25.688
199.10	-32.279
199.47	-9.299
199.84	-0.814
200.20	14.028
200.57	20.340
200.94	33.260
201.31	30.453
201.68	24.090
202.04	36.708
202.41	19.599
202.78	27.500
203.15	32.685
203.51	42.280
203.88	40.131
204.25	26.038
204.62	30.078
204.98	14.315
205.35	12.481
205.72	16.366
206.09	7.417
206.46	10.749
206.82	3.763
207.19	0.856
207.56	-14.637
207.92	2.571
208.29	3.346
208.66	-0.900
209.03	16.305
209.39	18.320
209.76	14.280
210.13	26.538
210.50	53.007
210.86	37.002
211.23	21.144
211.60	0.078
211.96	-14.235
212.33	1.105
212.70	2.678
213.07	5.004
213.43	4.408
213.80	3.665
214.17	-18.171
214.53	-10.273
214.90	12.152
215.27	15.666
215.63	25.070
216.00	27.240
216.37	19.508
216.74	17.464
217.10	26.765
217.47	32.364
217.84	29.183
218.20	40.820
218.57	31.914
218.94	18.614
219.30	11.777
219.67	10.837
220.04	1.470
220.40	-0.454
220.77	12.132
221.13	2.684
221.50	5.645
221.87	9.764
222.23	9.288
222.60	9.845
222.97	9.095
223.33	11.638
223.70	12.937
224.07	14.547
224.43	14.919
224.80	11.440
225.16	11.332
225.53	8.280
225.90	6.850
226.26	7.069
226.63	6.768
226.99	7.246
227.36	6.984
227.73	8.136
228.09	8.311
228.46	10.328
228.82	10.643
229.19	10.864
229.56	10.912
229.92	10.953
230.29	11.448
230.65	13.952
231.02	12.802
231.38	12.215
231.75	10.157
232.12	10.228
232.48	8.023
232.85	6.322
233.21	7.760
233.58	7.906
233.94	8.516
234.31	5.959
234.68	3.655
235.04	6.987
235.41	7.225
235.77	7.118
236.14	7.181
236.50	6.977
236.87	7.277
237.23	6.648
237.60	6.916
237.96	8.075
238.33	8.594
238.69	7.904
239.06	6.665
239.42	6.836
239.79	7.246
240.15	7.275
240.52	7.464
240.88	7.639
241.25	7.537
241.61	7.738
241.98	8.034
242.34	7.897
242.71	8.331
243.07	8.715
243.44	8.776
243.80	9.055
244.17	8.896
244.53	9.241
244.90	9.493
245.26	9.496
245.63	9.698
245.99	9.278
246.36	9.280
246.72	9.413
247.09	9.537
247.45	9.503
247.81	9.066
248.18	9.059
248.54	8.709
248.91	8.589
249.27	9.115
249.64	8.126
250.00	8.191
250.36	8.741
250.73	8.893
251.09	8.439
251.46	8.532
251.82	9.065
252.19	9.139
252.55	9.159
252.91	8.423
253.28	7.453
253.64	8.231
254.01	7.811
254.37	7.223
254.73	6.762
255.10	7.308
255.46	7.455
255.83	7.151
256.19	7.144
256.55	7.104
256.92	7.498
257.28	7.876
257.65	7.971
258.01	8.227
258.37	8.116
258.74	8.023
259.10	7.860
259.46	7.980
259.83	8.019
260.19	7.923
260.55	7.932
260.92	8.034
261.28	7.807
261.64	7.628
262.01	7.257
262.37	7.532
262.73	7.397
263.10	7.593
263.46	7.723
263.82	7.961
264.19	8.426
264.55	8.418
264.91	8.409
265.28	8.435
265.64	8.078
266.00	7.936
266.37	7.647
266.73	7.843
267.09	7.703
267.46	7.658
267.82	7.749
268.18	7.718
268.54	7.903
268.91	8.016
269.27	7.784
269.63	7.904
270.00	7.976
270.36	8.194
270.72	8.328
271.08	8.292
271.45	7.980
271.81	7.816
272.17	7.521
272.53	7.334
272.90	7.274
273.26	7.450
273.62	7.332
273.98	7.211
274.35	6.999
274.71	7.140
275.07	6.953
275.43	7.219
275.80	7.062
276.16	7.189
276.52	7.188
276.88	7.067
277.25	7.214
277.61	7.648
277.97	7.954
278.33	7.945
278.69	7.741
279.06	8.093
279.42	7.802
279.78	8.135
280.14	7.939
280.50	7.988
280.87	8.012
281.23	7.843
281.59	7.504
281.95	7.644
282.31	7.613
282.68	7.664
283.04	7.489
283.40	7.458
283.76	7.192
284.12	7.171
284.48	7.061
284.85	6.819
285.21	6.868
285.57	7.140
285.93	7.117
286.29	7.075
286.65	6.811
287.02	6.751
287.38	6.581
287.74	6.668
288.10	6.868
288.46	6.997
288.82	7.080
289.18	7.102
289.54	7.065
289.91	7.086
290.27	7.174
290.63	7.253
290.99	7.349
291.35	7.372
291.71	7.308
292.07	7.321
292.43	7.411
292.79	7.452
293.16	7.217
293.52	7.322
293.88	7.341
294.24	7.516
294.60	7.613
294.96	7.638
295.32	7.827
295.68	7.768
296.04	7.673
296.40	7.813
296.76	7.852
297.12	7.863
297.49	7.804
297.85	7.798
298.21	7.658
298.57	7.821
298.93	7.743
299.29	7.925
299.65	8.149
300.01	8.253
300.37	8.057
300.73	8.186
301.09	8.380
301.45	8.673
301.81	8.645
302.17	8.818
302.53	8.804
302.89	9.058
303.25	9.100
303.61	9.247
303.97	9.610
304.33	9.790
304.69	10.027
305.05	10.361
305.41	10.426
305.77	10.757
306.13	10.925
306.49	10.988
306.85	11.110
307.21	11.313
307.57	11.396
307.93	11.317
308.29	11.417
308.65	11.526
309.01	11.491
309.37	11.400
309.73	11.337
310.09	11.325
310.45	11.524
310.81	11.452
311.17	11.394
311.53	11.455
311.89	11.565
312.25	11.688
312.61	11.633
312.96	11.561
313.32	11.555
313.68	11.623
314.04	11.605
314.40	11.460
314.76	11.657
315.12	11.635
315.48	11.671
315.84	11.691
316.20	11.555
316.56	11.583
316.92	11.777
317.27	11.889
317.63	11.759
317.99	11.872
318.35	11.985
318.71	11.911
319.07	11.857
319.43	11.610
319.79	11.421
320.15	11.404
320.50	11.438
320.86	11.428
321.22	11.414
321.58	11.569
321.94	11.555
322.30	11.494
322.66	11.386
323.01	11.540
323.37	11.617
323.73	11.699
324.09	11.746
324.45	11.781
324.81	11.638
325.17	11.653
325.52	11.746
325.88	11.632
326.24	11.671
326.60	11.895
326.96	11.841
327.31	11.743
327.67	11.753
328.03	11.633
328.39	11.525
328.75	11.578
329.11	11.460
329.46	11.211
329.82	11.220
330.18	11.082
330.54	10.789
330.90	10.697
331.25	10.831
331.61	10.716
331.97	10.754
332.33	10.563
332.68	10.475
333.04	10.557
333.40	10.669
333.76	10.715
334.11	10.613
334.47	10.688
334.83	10.717
335.19	10.665
335.54	10.573
335.90	10.629
336.26	10.733
336.62	10.624
336.97	10.536
337.33	10.403
337.69	10.325
338.05	10.503
338.40	10.464
338.76	10.413
339.12	10.332
339.48	10.407
339.83	10.363
340.19	10.264
340.55	10.414
340.90	10.386
341.26	10.383
341.62	10.375
341.97	10.361
342.33	10.321
342.69	10.272
343.04	10.281
343.40	10.354
343.76	10.272
344.12	10.417
344.47	10.394
344.83	10.470
345.19	10.392
345.54	10.349
345.90	10.317
346.26	10.284
346.61	10.292
346.97	10.283
347.32	10.146
347.68	10.204
348.04	10.145
348.39	10.094
348.75	10.007
349.11	10.045
349.46	10.036
349.82	9.948
350.18	9.939
350.53	9.979
350.89	9.979
351.24	10.025
351.60	9.946
351.96	9.815
352.31	9.826
352.67	9.748
353.02	9.715
353.38	9.794
353.74	9.787
354.09	9.872
354.45	9.829
354.80	9.734
355.16	9.722
355.52	9.721
355.87	9.760
356.23	9.674
356.58	9.688
356.94	9.680
357.29	9.593
357.65	9.579
358.00	9.446
358.36	9.364
358.72	9.403
359.07	9.308
359.43	9.212
359.78	9.215
360.14	9.206
360.49	9.193
360.85	9.188
361.20	9.149
361.56	9.073
361.91	8.987
362.27	8.974
362.62	8.909
362.98	8.938
363.33	8.955
363.69	8.858
364.04	8.796
364.40	8.732
364.75	8.655
365.11	8.634
365.46	8.646
365.82	8.659
366.17	8.622
366.53	8.569
366.88	8.526
367.24	8.515
367.59	8.502
367.95	8.475
368.30	8.483
368.66	8.474
369.01	8.402
369.37	8.348
369.72	8.318
370.08	8.325
370.43	8.328
370.78	8.307
371.14	8.288
371.49	8.291
371.85	8.329
372.20	8.271
372.56	8.288
372.91	8.333
373.26	8.322
373.62	8.332
373.97	8.317
374.33	8.318
374.68	8.258
375.03	8.223
375.39	8.151
375.74	8.163
376.10	8.107
376.45	8.058
376.80	8.012
377.16	7.981
377.51	7.968
377.87	7.928
378.22	7.850
378.57	7.835
378.93	7.812
379.28	7.846
379.63	7.751
379.99	7.766
380.34	7.733
380.70	7.695
381.05	7.692
381.40	7.644
381.76	7.661
382.11	7.686
382.46	7.660
382.82	7.560
383.17	7.540
383.52	7.527
383.88	7.575
384.23	7.555
384.58	7.568
384.94	7.577
385.29	7.584
385.64	7.530
385.99	7.494
386.35	7.496
386.70	7.552
387.05	7.498
387.41	7.525
387.76	7.449
388.11	7.441
388.47	7.377
388.82	7.311
389.17	7.296
389.52	7.280
389.88	7.287
390.23	7.285
390.58	7.283
390.93	7.301
391.29	7.218
391.64	7.218
391.99	7.176
392.34	7.254
392.70	7.277
393.05	7.241
393.40	7.244
393.75	7.163
394.11	7.150
394.46	7.112
394.81	7.053
395.16	7.085
395.52	7.058
395.87	7.017
396.22	6.906
396.57	6.878
396.92	6.880
397.28	6.842
397.63	6.859
397.98	6.837
398.33	6.788
398.68	6.779
399.04	6.730
399.39	6.696
399.74	6.689
400.09	6.692
400.44	6.666
400.80	6.635
401.15	6.620
401.50	6.616
401.85	6.589
402.20	6.625
402.55	6.626
402.90	6.632
403.26	6.613
403.61	6.624
403.96	6.621
404.31	6.605
404.66	6.607
405.01	6.568
405.36	6.552
405.72	6.533
406.07	6.448
406.42	6.431
406.77	6.417
407.12	6.396
407.47	6.408
407.82	6.398
408.17	6.392
408.53	6.390
408.88	6.358
409.23	6.366
409.58	6.382
409.93	6.396
410.28	6.342
410.63	6.325
410.98	6.377
411.33	6.356
411.68	6.323
412.03	6.334
412.38	6.297
412.73	6.308
413.09	6.285
413.44	6.243
413.79	6.252
414.14	6.278
414.49	6.271
414.84	6.240
415.19	6.201
415.54	6.193
415.89	6.170
416.24	6.203
416.59	6.205
416.94	6.197
417.29	6.218
417.64	6.205
417.99	6.181
418.34	6.163
418.69	6.145
419.04	6.148
419.39	6.176
419.74	6.171
420.09	6.145
420.44	6.137
420.79	6.131
421.14	6.115
421.49	6.103
421.84	6.102
422.19	6.106
422.54	6.121
422.89	6.110
423.24	6.082
423.59	6.102
423.94	6.094
424.29	6.096
424.64	6.093
424.99	6.060
425.34	6.061
425.68	6.046
426.03	6.046
426.38	6.038
426.73	6.026
427.08	6.032
427.43	6.001
427.78	6.007
428.13	6.027
428.48	6.046
428.83	6.088
429.18	6.083
429.53	6.128
429.87	6.116
430.22	6.116
430.57	6.135
430.92	6.126
431.27	6.122
431.62	6.126
431.97	6.107
432.32	6.107
432.67	6.114
433.01	6.124
433.36	6.117
433.71	6.101
434.06	6.079
434.41	6.081
434.76	6.079
435.11	6.076
435.45	6.061
435.80	6.079
436.15	6.056
436.50	6.050
436.85	6.046
437.20	6.024
437.54	6.046
437.89	6.046
438.24	6.046
438.59	6.061
438.94	6.056
439.29	6.068
439.63	6.043
439.98	6.064
440.33	6.055
440.68	6.053
441.03	6.072
441.37	6.080
441.72	6.094
442.07	6.113
442.42	6.098
442.76	6.107
443.11	6.107
443.46	6.122
443.81	6.117
444.16	6.107
444.50	6.107
444.85	6.108
445.20	6.097
445.55	6.071
445.89	6.047
446.24	6.048
446.59	6.040
446.94	6.028
447.28	6.016
447.63	5.987
447.98	5.995
448.32	5.988
448.67	5.963
449.02	5.967
449.37	5.990
449.71	5.999
450.06	5.997
450.41	6.002
450.75	6.001
451.10	6.004
451.45	6.014
451.79	6.006
452.14	6.022
452.49	6.028
452.84	6.033
453.18	6.039
453.53	6.018
453.88	6.022
454.22	6.040
454.57	6.060
454.92	6.073
455.26	6.095
455.61	6.100
455.95	6.096
456.30	6.100
456.65	6.110
456.99	6.108
457.34	6.131
457.69	6.139
458.03	6.131
458.38	6.102
458.73	6.103
459.07	6.074
459.42	6.054
459.76	6.053
460.11	6.051
460.46	6.027
460.80	6.015
461.15	5.992
461.49	5.969
461.84	5.950
462.19	5.987
462.53	5.978
462.88	6.006
463.22	6.039
463.57	6.060
463.91	6.068
464.26	6.071
464.61	6.087
464.95	6.118
465.30	6.106
465.64	6.109
465.99	6.104
466.33	6.092
466.68	6.089
467.02	6.079
467.37	6.063
467.71	6.057
468.06	6.064
468.41	6.063
468.75	6.056
469.10	6.093
469.44	6.100
469.79	6.090
470.13	6.099
470.48	6.078
470.82	6.076
471.17	6.072
471.51	6.074
471.86	6.059
472.20	6.053
472.55	6.035
472.89	6.008
473.23	6.005
473.58	6.000
473.92	5.980
474.27	5.979
474.61	5.987
474.96	5.985
475.30	5.977
475.65	5.972
475.99	5.947
476.34	5.940
476.68	5.946
477.02	5.937
477.37	5.911
477.71	5.928
478.06	5.944
478.40	5.968
478.75	6.004
479.09	6.051
479.43	6.103
479.78	6.153
480.12	6.214
480.47	6.250
480.81	6.279
481.15	6.321
481.50	6.347
481.84	6.376
482.19	6.402
482.53	6.417
482.87	6.416
483.22	6.399
483.56	6.387
483.90	6.356
484.25	6.331
484.59	6.321
484.94	6.301
485.28	6.272
485.62	6.240
485.97	6.201
486.31	6.169
486.65	6.149
487.00	6.150
487.34	6.149
487.68	6.136
488.03	6.136
488.37	6.118
488.71	6.116
489.06	6.119
489.40	6.117
489.74	6.098
490.09	6.088
490.43	6.070
490.77	6.049
491.11	6.026
491.46	6.022
491.80	6.007
492.14	5.985
492.49	5.960
492.83	5.934
493.17	5.907
493.51	5.893
493.86	5.885
494.20	5.905
494.54	5.902
494.88	5.910
495.23	5.911
495.57	5.903
495.91	5.931
496.25	5.935
496.60	5.935
496.94	5.941
497.28	5.961
497.62	5.967
497.97	5.950
498.31	5.955
498.65	5.981
498.99	5.993
499.33	6.012
499.68	6.027
500.02	6.042
500.36	6.084
500.70	6.112
501.04	6.125
501.39	6.123
501.73	6.146
502.07	6.148
502.41	6.156
502.75	6.150
503.09	6.183
503.44	6.190
503.78	6.188
504.12	6.202
504.46	6.216
504.80	6.234
505.14	6.269
505.49	6.302
505.83	6.349
506.17	6.362
506.51	6.413
506.85	6.445
507.19	6.478
507.53	6.497
507.87	6.511
508.22	6.534
508.56	6.576
508.90	6.616
509.24	6.637
509.58	6.674
509.92	6.697
510.26	6.708
510.60	6.696
510.94	6.719
511.28	6.769
511.63	6.780
511.97	6.808
512.31	6.813
512.65	6.835
512.99	6.862
513.33	6.877
513.67	6.924
514.01	6.991
514.35	7.057
514.69	7.107
515.03	7.162
515.37	7.221
515.71	7.260
516.05	7.296
516.39	7.330
516.73	7.356
517.07	7.380
517.41	7.388
517.75	7.388
518.09	7.405
518.43	7.403
518.77	7.412
519.11	7.415
519.45	7.410
519.79	7.432
520.13	7.434
520.47	7.460
520.81	7.487
521.15	7.510
521.49	7.549
521.83	7.565
522.17	7.600
522.51	7.618
522.85	7.663
523.19	7.747
523.53	7.805
523.87	7.876
524.21	7.927
524.55	7.974
524.89	8.025
525.23	8.077
525.57	8.127
525.91	8.172
526.25	8.219
526.58	8.235
526.92	8.232
527.26	8.243
527.60	8.238
527.94	8.227
528.28	8.213
528.62	8.196
528.96	8.168
529.30	8.137
529.64	8.110
529.97	8.075
530.31	8.058
530.65	8.049
530.99	8.018
531.33	8.006
531.67	8.008
532.01	8.010
532.35	8.009
532.68	8.008
533.02	8.003
533.36	7.981
533.70	7.952
534.04	7.935
534.38	7.910
534.71	7.897
535.05	7.860
535.39	7.835
535.73	7.830
536.07	7.819
536.41	7.820
536.74	7.823
537.08	7.845
537.42	7.882
537.76	7.915
538.10	7.941
538.43	7.966
538.77	8.007
539.11	8.015
539.45	8.027
539.79	8.044
540.12	8.041
540.46	8.047
540.80	8.031
541.14	7.999
541.47	7.972
541.81	7.944
542.15	7.911
542.49	7.873
542.82	7.857
543.16	7.813
543.50	7.771
543.84	7.738
544.17	7.718
544.51	7.690
544.85	7.685
545.18	7.671
545.52	7.668
545.86	7.676
546.20	7.643
546.53	7.633
546.87	7.604
547.21	7.583
547.54	7.588
547.88	7.552
548.22	7.569
548.55	7.572
548.89	7.587
549.23	7.597
549.56	7.585
549.90	7.610
550.24	7.592
550.57	7.615
550.91	7.624
551.25	7.610
551.58	7.627
551.92	7.624
552.26	7.626
552.59	7.610
552.93	7.591
553.27	7.585
553.60	7.579
553.94	7.590
554.27	7.607
554.61	7.612
554.95	7.607
555.28	7.605
555.62	7.608
555.95	7.614
556.29	7.623
556.63	7.635
556.96	7.631
557.30	7.639
557.63	7.660
557.97	7.659
558.31	7.670
558.64	7.680
558.98	7.695
559.31	7.683
559.65	7.694
559.98	7.699
560.32	7.690
560.65	7.709
560.99	7.723
561.33	7.689
561.66	7.711
562.00	7.715
562.33	7.737
562.67	7.728
563.00	7.733
563.34	7.733
563.67	7.737
564.01	7.735
564.34	7.733
564.68	7.731
565.01	7.757
565.35	7.746
565.68	7.749
566.02	7.763
566.35	7.768
566.69	7.797
567.02	7.822
567.36	7.839
567.69	7.864
568.03	7.892
568.36	7.900
568.69	7.915
569.03	7.917
569.36	7.915
569.70	7.904
570.03	7.928
570.37	7.932
570.70	7.926
571.04	7.924
571.37	7.928
571.70	7.907
572.04	7.937
572.37	7.927
572.71	7.936
573.04	7.965
573.37	7.971
573.71	7.968
574.04	7.957
574.38	7.945
574.71	7.923
575.04	7.943
575.38	7.947
575.71	7.917
576.05	7.937
576.38	7.910
576.71	7.900
577.05	7.899
577.38	7.883
577.71	7.929
578.05	7.928
578.38	7.953
578.71	7.941
579.05	7.957
579.38	7.966
579.71	7.980
580.05	8.019
580.38	8.018
580.71	8.027
581.05	8.058
581.38	8.036
581.71	8.064
582.05	8.118
582.38	8.130
582.71	8.159
583.04	8.189
583.38	8.191
583.71	8.238
584.04	8.298
584.38	8.332
584.71	8.368
585.04	8.408
585.37	8.425
585.71	8.405
586.04	8.425
586.37	8.430
586.70	8.470
587.04	8.505
587.37	8.540
587.70	8.537
588.03	8.565
588.37	8.593
588.70	8.595
589.03	8.635
589.36	8.669
589.69	8.709
590.03	8.750
590.36	8.771
590.69	8.778
591.02	8.777
591.35	8.844
591.69	8.857
592.02	8.851
592.35	8.893
592.68	8.936
593.01	8.982
593.35	9.016
593.68	9.046
594.01	9.068
594.34	9.102
594.67	9.144
595.00	9.169
595.34	9.196
595.67	9.245
596.00	9.266
596.33	9.294
596.66	9.300
596.99	9.331
597.32	9.380
597.65	9.408
597.99	9.444
598.32	9.474
598.65	9.497
598.98	9.546
599.31	9.595
599.64	9.663
599.97	9.710
600.30	9.788
600.63	9.809
600.96	9.839
601.30	9.898
601.63	9.950
601.96	9.994
602.29	10.022
602.62	10.032
602.95	10.050
603.28	10.071
603.61	10.075
603.94	10.076
604.27	10.120
604.60	10.153
604.93	10.156
605.26	10.201
605.59	10.203
605.92	10.248
606.25	10.309
606.58	10.314
606.91	10.322
607.24	10.370
607.57	10.421
607.90	10.420
608.23	10.422
608.56	10.491
608.89	10.486
609.22	10.538
609.55	10.540
609.88	10.517
610.21	10.551
610.54	10.588
610.87	10.620
611.20	10.589
611.53	10.641
611.86	10.667
612.19	10.666
612.52	10.690
612.85	10.678
613.18	10.676
613.51	10.721
613.84	10.799
614.17	10.826
614.49	10.819
614.82	10.846
615.15	10.839
615.48	10.862
615.81	10.860
616.14	10.869
616.47	10.897
616.80	10.933
617.13	10.947
617.46	10.923
617.78	10.941
618.11	10.952
618.44	10.987
618.77	10.998
619.10	11.022
619.43	11.040
619.76	11.026
620.09	11.023
620.41	11.013
620.74	11.051
621.07	11.046
621.40	11.058
621.73	11.062
622.06	11.087
622.38	11.090
622.71	11.100
623.04	11.112
623.37	11.155
623.70	11.158
624.02	11.175
624.35	11.161
624.68	11.143
625.01	11.111
625.34	11.104
625.66	11.070
625.99	11.074
626.32	11.057
626.65	11.063
626.98	11.000
627.30	10.977
627.63	10.986
627.96	10.990
628.29	11.031
628.61	11.032
628.94	11.036
629.27	11.024
629.60	11.076
629.92	11.058
630.25	11.045
630.58	11.092
630.91	11.143
631.23	11.155
631.56	11.140
631.89	11.118
632.21	11.141
632.54	11.137
632.87	11.136
633.19	11.079
633.52	11.080
633.85	11.086
634.18	11.088
634.50	11.077
634.83	11.063
635.16	11.055
635.48	11.052
635.81	11.051
636.14	11.058
636.46	11.097
636.79	11.118
637.11	11.179
637.44	11.162
637.77	11.169
638.09	11.160
638.42	11.108
638.75	11.127
639.07	11.140
639.40	11.122
639.73	11.143
640.05	11.124
640.38	11.095
640.70	11.016
641.03	11.032
641.36	11.021
641.68	11.046
642.01	11.108
642.33	11.078
642.66	11.057
642.98	11.012
643.31	10.954
643.64	10.938
643.96	10.976
644.29	10.999
644.61	10.989
644.94	10.962
645.26	10.913
645.59	10.878
645.91	10.930
646.24	10.954
646.56	10.995
646.89	11.065
647.22	11.082
647.54	11.053
647.87	11.040
648.19	11.003
648.52	11.032
648.84	11.054
649.17	11.064
649.49	10.986
649.82	10.955
650.14	10.944
650.47	10.887
650.79	10.865
651.11	10.879
651.44	10.867
651.76	10.867
652.09	10.835
652.41	10.828
652.74	10.798
653.06	10.796
653.39	10.759
653.71	10.742
654.04	10.741
654.36	10.761
654.68	10.688
655.01	10.651
655.33	10.694
655.66	10.755
655.98	10.696
656.30	10.710
656.63	10.712
656.95	10.754
657.28	10.719
657.60	10.705
657.92	10.637
658.25	10.626
658.57	10.606
658.90	10.526
659.22	10.412
659.54	10.417
659.87	10.396
660.19	10.376
660.51	10.323
660.84	10.373
661.16	10.329
661.48	10.304
661.81	10.318
662.13	10.354
662.45	10.316
662.78	10.351
663.10	10.407
663.42	10.431
663.75	10.434
664.07	10.510
664.39	10.486
664.72	10.544
665.04	10.583
665.36	10.588
665.69	10.573
666.01	10.634
666.33	10.630
666.65	10.516
666.98	10.505
667.30	10.542
667.62	10.443
667.94	10.450
668.27	10.358
668.59	10.375
668.91	10.374
669.23	10.384
669.56	10.331
669.88	10.297
670.20	10.295
670.52	10.283
670.85	10.175
671.17	10.114
671.49	10.020
671.81	10.051
672.13	9.985
672.46	9.921
672.78	9.864
673.10	9.811
673.42	9.774
673.74	9.802
674.07	9.680
674.39	9.737
674.71	9.793
675.03	9.843
675.35	9.782
675.67	9.815
676.00	9.872
676.32	9.848
676.64	9.907
676.96	9.979
677.28	9.975
677.60	10.035
677.92	9.983
678.25	10.013
678.57	10.000
678.89	10.064
679.21	10.033
679.53	10.016
679.85	10.051
680.17	10.095
680.49	10.091
680.81	10.114
681.13	10.120
681.46	10.158
681.78	10.178
682.10	10.168
682.42	10.172
682.74	10.212
683.06	10.226
683.38	10.276
683.70	10.282
684.02	10.239
684.34	10.249
684.66	10.337
684.98	10.349
685.30	10.321
685.62	10.326
685.94	10.344
686.26	10.405
686.58	10.447
686.90	10.358
687.22	10.318
687.54	10.310
687.86	10.276
688.18	10.196
688.50	10.156
688.82	10.135
689.14	10.171
689.46	10.099
689.78	10.020
690.10	10.015
690.42	10.094
690.74	10.068
691.06	10.087
691.38	10.056
691.70	10.085
692.02	10.086
692.34	10.080
692.66	10.030
692.98	10.059
693.30	10.089
693.62	10.047
693.94	9.970
694.26	9.983
694.57	9.998
694.89	10.015
695.21	9.963
695.53	10.082
695.85	10.144
696.17	10.158
696.49	10.177
696.81	10.118
697.13	10.099
697.44	10.184
697.76	10.187
698.08	10.145
698.40	10.074
698.72	10.043
699.04	9.880
699.36	9.764
699.67	9.673
699.99	9.623
700.31	9.561
700.63	9.451
700.95	9.300
701.27	9.192
701.58	9.164
701.90	9.209
702.22	9.166
702.54	9.226
702.86	9.248
703.17	9.258
703.49	9.097
703.81	9.070
704.13	9.176
704.45	9.151
704.76	9.162
705.08	9.204
705.40	9.120
705.72	9.115
706.03	9.087
706.35	9.066
706.67	9.043
706.99	9.134
707.30	9.208
707.62	9.128
707.94	9.185
708.26	9.167
708.57	9.111
708.89	9.168
709.21	9.162
709.53	9.147
709.84	9.148
710.16	9.154
710.48	9.158
710.79	9.148
711.11	9.153
711.43	9.148
711.74	9.205
712.06	9.222
712.38	9.209
712.69	9.351
713.01	9.400
713.33	9.383
713.64	9.462
713.96	9.533
714.28	9.630
714.59	9.681
714.91	9.724
715.23	9.714
715.54	9.749
715.86	9.828
716.17	9.825
716.49	9.735
716.81	9.748
717.12	9.780
717.44	9.771
717.76	9.628
718.07	9.570
718.39	9.583
718.70	9.596
719.02	9.491
719.33	9.311
719.65	9.136
719.97	9.129
720.28	9.137
720.60	9.145
720.91	9.046
721.23	9.192
721.54	9.173
721.86	9.054
722.17	9.044
722.49	9.105
722.81	9.207
723.12	9.213
723.44	9.318
723.75	9.408
724.07	9.335
724.38	9.406
724.70	9.211
725.01	9.199
725.33	9.320
725.64	9.319
725.96	9.372
726.27	9.469
726.59	9.472
726.90	9.507
727.22	9.397
727.53	9.373
727.84	9.355
728.16	9.508
728.47	9.462
728.79	9.357
729.10	9.332
729.42	9.255
729.73	9.168
730.05	9.250
730.36	9.196
730.67	9.075
730.99	8.973
731.30	8.841
731.62	8.657
731.93	8.654
732.24	8.551
732.56	8.478
732.87	8.323
733.19	8.255
733.50	8.111
733.81	7.954
734.13	8.013
734.44	7.910
734.76	7.989
735.07	7.857
735.38	7.806
735.70	7.930
736.01	7.781
736.32	7.907
736.64	7.760
736.95	7.671
737.26	7.645
737.58	7.548
737.89	7.557
738.20	7.439
738.52	7.639
738.83	7.462
739.14	7.187
739.45	7.068
739.77	6.965
740.08	7.042
740.39	6.990
740.71	6.847
741.02	6.799
741.33	6.828
741.64	6.972
741.96	6.813
742.27	6.911
742.58	6.973
742.90	7.210
743.21	7.333
743.52	7.222
743.83	7.132
744.14	7.138
744.46	7.107
744.77	7.048
745.08	6.672
745.39	6.595
745.71	6.571
746.02	6.575
746.33	6.422
746.64	6.187
746.95	6.135
747.27	6.126
747.58	6.135
747.89	6.099
748.20	6.009
748.51	6.103
748.82	6.114
749.14	6.197
749.45	6.134
749.76	6.017
750.07	5.947
750.38	6.019
750.69	5.971
751.01	5.957
751.32	6.018
751.63	6.012
751.94	5.929
752.25	5.777
752.56	5.651
752.87	5.585
753.18	5.466
753.49	5.692
753.81	5.716
754.12	5.743
754.43	5.741
754.74	5.874
755.05	6.117
755.36	6.511
755.67	6.817
755.98	7.181
756.29	7.591
756.60	8.056
756.91	8.104
757.22	8.248
757.53	8.565
757.84	8.970
758.15	9.184
758.46	9.430
758.77	9.620
759.09	9.780
759.40	9.853
759.71	9.840
760.02	9.906
760.33	10.062
760.64	10.198
760.95	10.216
761.26	10.211
761.57	10.146
761.88	10.078
762.18	10.066
762.49	10.082
762.80	10.025
763.11	9.936
763.42	9.833
763.73	9.568
764.04	9.317
764.35	9.126
764.66	8.890
764.97	8.658
765.28	8.333
765.59	7.747
765.90	7.227
766.21	6.835
766.52	6.455
766.83	5.999
767.14	5.939
767.44	5.787
767.75	5.523
768.06	5.060
768.37	4.936
768.68	4.475
768.99	4.445
769.30	4.371
769.61	4.144
769.91	3.925
770.22	3.943
770.53	3.740
770.84	3.522
771.15	3.634
771.46	3.710
771.77	3.628
772.07	3.741
772.38	3.445
772.69	3.691
773.00	3.542
773.31	3.646
773.61	3.606
773.92	3.399
774.23	3.403
774.54	3.210
774.85	3.322
775.15	3.415
775.46	3.471
775.77	3.768
776.08	3.490
776.39	3.739
776.69	3.866
777.00	3.918
777.31	4.457
777.62	4.594
777.92	4.685
778.23	4.784
778.54	4.572
778.85	4.801
779.15	4.631
779.46	4.514
779.77	4.236
780.07	3.964
780.38	3.831
780.69	3.422
781.00	3.074
781.30	3.191
781.61	3.005
781.92	2.989
782.22	2.852
782.53	2.977
782.84	3.427
783.14	3.550
783.45	3.854
783.76	4.231
784.06	4.498
784.37	4.724
784.68	4.714
784.98	5.022
785.29	5.214
785.60	5.721
785.90	5.856
786.21	5.771
786.51	6.079
786.82	6.253
787.13	6.508
787.43	6.387
787.74	6.564
788.04	6.603
788.35	6.667
788.66	6.834
788.96	6.560
789.27	6.607
789.57	6.596
789.88	6.731
790.19	6.677
790.49	6.199
790.80	6.535
791.10	6.736
791.41	6.318
791.71	5.989
792.02	6.267
792.32	5.957
792.63	6.011
792.93	6.152
793.24	6.364
793.54	5.958
793.85	6.394
794.15	6.080
794.46	6.412
794.76	6.784
795.07	6.977
795.37	6.727
795.68	7.376
795.98	7.436
796.29	7.335
796.59	6.977
796.90	7.196
797.20	7.088
797.51	7.109
797.81	6.820
798.12	6.715
798.42	6.779
798.72	6.447
799.03	6.038
799.33	6.019
799.64	6.054
799.94	5.530
800.25	5.917
800.55	5.768
800.85	5.866
801.16	5.730
801.46	5.958
801.77	5.659
802.07	6.252
802.37	6.639
802.68	6.959
802.98	6.803
803.28	7.344
803.59	7.542
803.89	7.433
804.20	7.250
804.50	6.695
804.80	6.485
805.11	6.333
805.41	5.989
805.71	5.713
806.02	5.281
806.32	5.301
806.62	5.083
806.93	4.640
807.23	4.605
807.53	4.545
807.83	4.907
808.14	4.943
808.44	5.487
808.74	5.963
809.05	5.425
809.35	5.206
809.65	5.293
809.95	5.763
810.26	5.674
810.56	6.116
810.86	6.709
811.16	6.759
811.47	6.703
811.77	6.975
812.07	6.609
812.37	7.007
812.68	7.562
812.98	7.196
813.28	7.133
813.58	7.587
813.88	7.221
814.19	6.654
814.49	7.041
814.79	7.615
815.09	7.581
815.39	7.718
815.70	8.059
816.00	7.998
816.30	8.566
816.60	8.876
816.90	8.662
817.20	9.293
817.50	10.064
817.81	10.386
818.11	10.509
818.41	10.536
818.71	10.573
819.01	10.638
819.31	10.839
819.61	10.767
819.92	10.755
820.22	10.867
820.52	10.792
820.82	10.697
821.12	10.633
821.42	10.589
821.72	10.649
822.02	10.672
822.32	10.672
822.62	10.607
822.92	10.658
823.22	10.665
823.52	10.577
823.83	10.613
824.13	10.641
824.43	10.623
824.73	10.612
825.03	10.556
825.33	10.451
825.63	10.413
825.93	10.327
826.23	10.241
826.53	10.173
826.83	10.366
827.13	10.086
827.43	10.027
827.73	10.056
828.03	10.102
828.33	9.797
828.63	9.968
828.93	9.839
829.23	9.857
829.53	9.894
829.83	9.744
830.13	9.620
830.42	9.896
830.72	9.824
831.02	9.720
831.32	9.581
831.62	9.910
831.92	9.590
832.22	9.501
832.52	9.446
832.82	9.454
833.12	9.276
833.42	9.040
833.72	8.959
834.01	9.068
834.31	8.981
834.61	8.994
834.91	8.537
835.21	8.304
835.51	8.448
835.81	8.273
836.11	8.042
836.40	8.150
836.70	7.612
837.00	7.404
837.30	6.724
837.60	6.102
837.90	6.029
838.19	6.138
838.49	6.159
838.79	5.879
839.09	5.877
839.39	5.757
839.68	5.594
839.98	6.189
840.28	6.139
840.58	6.643
840.88	7.340
841.17	6.504
841.47	6.987
841.77	7.368
842.07	6.825
842.36	6.393
842.66	6.522
842.96	6.898
843.26	6.931
843.55	6.706
843.85	5.669
844.15	4.690
844.45	6.234
844.74	6.005
845.04	4.577
845.34	5.095
845.63	4.424
845.93	4.627
846.23	3.158
846.53	2.023
846.82	1.754
847.12	0.593
847.42	0.623
847.71	-1.494
848.01	-3.645
848.31	-3.240
848.60	-2.768
848.90	-2.160
849.19	-3.782
849.49	-2.107
849.79	-1.913
850.08	-1.191
850.38	-0.247
850.68	-0.186
850.97	-0.686
851.27	0.236
851.56	2.428
851.86	1.991
852.16	2.104
852.45	2.097
852.75	0.263
853.04	0.420
853.34	-0.785
853.64	-0.463
853.93	-2.149
854.23	1.742
854.52	1.989
854.82	0.618
855.11	1.013
855.41	0.808
855.70	-0.085
856.00	0.708
856.30	0.987
856.59	0.879
856.89	0.181
857.18	1.482
857.48	-1.698
857.77	-2.774
858.07	-3.526
858.36	-3.597
858.66	-4.975
858.95	-3.917
859.25	-4.031
859.54	-5.184
859.84	-3.047
860.13	-2.853
860.42	-1.814
860.72	-2.374
861.01	0.921
861.31	1.067
861.60	-0.265
861.90	0.072
862.19	1.160
862.49	2.260
862.78	3.709
863.07	3.486
863.37	5.511
863.66	4.444
863.96	5.073
864.25	3.346
864.54	3.280
864.84	4.721
865.13	6.282
865.43	5.119
865.72	2.544
866.01	-3.612
866.31	9.202
866.60	9.646
866.89	-4.849
>>>>>End Spectral Data<<<<<
