OOIBase32 Version 2.0.0.6 Data File
++++++++++++++++++++++++++++++++++++
Date: 01-19-2012, 17:38:23
User: Valued Ocean Optics Customer
Spectrometer Serial Number: USB2E2917
Spectrometer Channel: Master
Integration Time (msec): 6
Spectra Averaged: 10
Boxcar Smoothing: 5
Correct for Electrical Dark: Enabled
Time Normalized: Disabled
Dual-beam Reference: Disabled
Reference Channel: Master
Temperature: Not acquired
Spectrometer Type: S2000
ADC Type: USB2000
Number of Pixels in File: 2048
Graph Title: 
>>>>>Begin Spectral Data<<<<<
180.30	0.000
180.67	0.000
181.03	133.411
181.40	-36.275
181.77	128.956
182.14	-25.829
182.51	46.476
182.88	61.602
183.25	-190.961
183.62	9.148
183.99	408.814
184.36	17.874
184.73	198.842
185.10	142.745
185.46	127.905
185.83	19.852
186.20	158.651
186.57	186.306
186.94	271.980
187.31	-104.122
187.68	71.637
188.05	60.116
188.42	50.961
188.78	39.087
189.15	25.676
189.52	41.485
189.89	32.764
190.26	31.598
190.63	27.994
191.00	23.338
191.37	30.564
191.73	26.696
192.10	19.262
192.47	18.366
192.84	24.999
193.21	23.471
193.58	12.074
193.94	7.031
194.31	-0.559
194.68	-0.666
195.05	-5.645
195.42	-27.781
195.79	-20.655
196.15	12.181
196.52	16.645
196.89	16.482
197.26	12.169
197.63	8.139
198.00	16.647
198.36	23.888
198.73	17.649
199.10	19.689
199.47	30.707
199.84	24.582
200.20	16.548
200.57	8.080
200.94	15.750
201.31	27.413
201.68	27.953
202.04	23.076
202.41	24.727
202.78	30.404
203.15	38.608
203.51	43.194
203.88	56.123
204.25	68.528
204.62	70.875
204.98	58.212
205.35	42.371
205.72	49.516
206.09	49.140
206.46	46.740
206.82	45.082
207.19	25.804
207.56	-3.592
207.92	-4.944
208.29	-39.226
208.66	-33.624
209.03	-19.195
209.39	-13.215
209.76	-12.114
210.13	-12.314
210.50	-6.864
210.86	-11.833
211.23	-1.006
211.60	14.689
211.96	8.084
212.33	19.048
212.70	12.830
213.07	7.049
213.43	11.414
213.80	15.007
214.17	17.730
214.53	7.819
214.90	13.150
215.27	23.354
215.63	19.847
216.00	19.861
216.37	16.582
216.74	19.531
217.10	20.845
217.47	15.701
217.84	15.637
218.20	18.398
218.57	10.745
218.94	4.419
219.30	-5.553
219.67	-2.360
220.04	-4.056
220.40	-8.369
220.77	-14.353
221.13	-11.778
221.50	-11.689
221.87	-9.127
222.23	-8.614
222.60	-0.208
222.97	1.062
223.33	4.993
223.70	3.917
224.07	3.088
224.43	4.749
224.80	5.825
225.16	6.885
225.53	8.198
225.90	6.225
226.26	5.390
226.63	3.804
226.99	4.721
227.36	4.469
227.73	3.972
228.09	3.959
228.46	4.628
228.82	5.078
229.19	4.142
229.56	2.707
229.92	2.622
230.29	2.935
230.65	3.775
231.02	3.275
231.38	3.236
231.75	3.495
232.12	5.116
232.48	4.655
232.85	5.264
233.21	5.880
233.58	4.836
233.94	4.799
234.31	5.186
234.68	4.308
235.04	4.863
235.41	4.049
235.77	3.800
236.14	2.680
236.50	3.223
236.87	2.040
237.23	2.578
237.60	3.307
237.96	3.356
238.33	3.226
238.69	3.407
239.06	3.433
239.42	2.882
239.79	3.018
240.15	3.358
240.52	3.212
240.88	3.151
241.25	2.899
241.61	3.056
241.98	2.958
242.34	2.937
242.71	2.967
243.07	2.680
243.44	3.315
243.80	3.492
244.17	3.304
244.53	3.219
244.90	2.851
245.26	2.797
245.63	2.721
245.99	2.860
246.36	2.973
246.72	2.836
247.09	3.136
247.45	3.076
247.81	2.872
248.18	2.796
248.54	2.817
248.91	3.409
249.27	3.357
249.64	3.348
250.00	3.331
250.36	3.216
250.73	3.130
251.09	2.700
251.46	2.457
251.82	2.502
252.19	2.474
252.55	2.354
252.91	2.047
253.28	2.325
253.64	2.564
254.01	2.824
254.37	2.561
254.73	2.895
255.10	2.949
255.46	3.069
255.83	2.873
256.19	2.991
256.55	2.944
256.92	3.095
257.28	3.006
257.65	2.837
258.01	2.825
258.37	2.881
258.74	2.826
259.10	2.737
259.46	2.691
259.83	2.806
260.19	2.751
260.55	2.675
260.92	2.556
261.28	2.548
261.64	2.610
262.01	2.490
262.37	2.458
262.73	2.425
263.10	2.281
263.46	2.258
263.82	1.911
264.19	1.853
264.55	1.905
264.91	2.015
265.28	2.274
265.64	2.173
266.00	2.123
266.37	2.132
266.73	2.309
267.09	2.500
267.46	2.154
267.82	2.292
268.18	2.235
268.54	2.102
268.91	2.185
269.27	2.040
269.63	2.017
270.00	2.079
270.36	1.942
270.72	2.076
271.08	2.245
271.45	2.567
271.81	2.793
272.17	3.255
272.53	3.479
272.90	3.158
273.26	3.175
273.62	3.084
273.98	3.097
274.35	3.171
274.71	3.136
275.07	2.897
275.43	2.767
275.80	2.675
276.16	2.358
276.52	2.497
276.88	2.553
277.25	2.303
277.61	2.529
277.97	2.412
278.33	2.533
278.69	2.393
279.06	2.429
279.42	2.491
279.78	2.411
280.14	2.270
280.50	1.945
280.87	2.297
281.23	2.195
281.59	2.044
281.95	2.133
282.31	2.117
282.68	2.143
283.04	2.049
283.40	1.963
283.76	2.045
284.12	2.111
284.48	2.175
284.85	1.971
285.21	2.075
285.57	2.288
285.93	2.074
286.29	1.843
286.65	1.963
287.02	2.138
287.38	2.371
287.74	2.314
288.10	2.502
288.46	2.665
288.82	2.864
289.18	2.925
289.54	2.695
289.91	3.011
290.27	3.212
290.63	3.007
290.99	2.943
291.35	2.892
291.71	2.923
292.07	2.547
292.43	2.432
292.79	2.305
293.16	2.377
293.52	2.338
293.88	2.357
294.24	2.487
294.60	2.479
294.96	2.549
295.32	2.529
295.68	2.475
296.04	2.681
296.40	2.642
296.76	2.586
297.12	2.541
297.49	2.795
297.85	2.799
298.21	2.814
298.57	2.959
298.93	2.776
299.29	2.815
299.65	2.753
300.01	2.779
300.37	3.022
300.73	3.072
301.09	3.043
301.45	2.840
301.81	2.603
302.17	2.621
302.53	2.428
302.89	2.493
303.25	2.380
303.61	2.488
303.97	2.399
304.33	2.177
304.69	2.158
305.05	2.295
305.41	2.469
305.77	2.721
306.13	2.757
306.49	2.921
306.85	2.885
307.21	2.926
307.57	2.898
307.93	2.946
308.29	3.059
308.65	3.013
309.01	3.056
309.37	2.938
309.73	2.816
310.09	2.647
310.45	2.603
310.81	2.649
311.17	2.662
311.53	2.637
311.89	2.593
312.25	2.512
312.61	2.697
312.96	2.637
313.32	2.865
313.68	2.857
314.04	2.927
314.40	2.995
314.76	3.174
315.12	3.200
315.48	3.293
315.84	3.212
316.20	3.187
316.56	3.089
316.92	3.148
317.27	2.859
317.63	2.889
317.99	2.940
318.35	2.905
318.71	2.715
319.07	2.612
319.43	2.655
319.79	2.726
320.15	2.858
320.50	2.991
320.86	2.800
321.22	2.995
321.58	2.988
321.94	2.951
322.30	2.871
322.66	2.924
323.01	3.102
323.37	3.120
323.73	3.101
324.09	3.049
324.45	2.850
324.81	2.866
325.17	2.747
325.52	2.791
325.88	2.802
326.24	2.882
326.60	2.854
326.96	2.773
327.31	2.715
327.67	2.756
328.03	2.686
328.39	2.781
328.75	2.860
329.11	2.933
329.46	2.990
329.82	3.014
330.18	2.973
330.54	3.016
330.90	3.013
331.25	3.044
331.61	3.108
331.97	3.122
332.33	3.134
332.68	3.093
333.04	3.118
333.40	3.068
333.76	3.170
334.11	3.199
334.47	3.225
334.83	3.213
335.19	3.173
335.54	3.128
335.90	3.159
336.26	3.124
336.62	3.180
336.97	3.175
337.33	3.169
337.69	3.072
338.05	3.046
338.40	3.033
338.76	3.037
339.12	3.012
339.48	2.931
339.83	3.113
340.19	3.163
340.55	3.109
340.90	3.105
341.26	3.170
341.62	3.199
341.97	3.200
342.33	3.179
342.69	3.187
343.04	3.272
343.40	3.429
343.76	3.315
344.12	3.299
344.47	3.205
344.83	3.261
345.19	3.287
345.54	3.394
345.90	3.439
346.26	3.467
346.61	3.556
346.97	3.496
347.32	3.414
347.68	3.458
348.04	3.466
348.39	3.652
348.75	3.549
349.11	3.552
349.46	3.495
349.82	3.507
350.18	3.479
350.53	3.412
350.89	3.427
351.24	3.506
351.60	3.491
351.96	3.453
352.31	3.426
352.67	3.510
353.02	3.493
353.38	3.474
353.74	3.435
354.09	3.534
354.45	3.558
354.80	3.594
355.16	3.599
355.52	3.627
355.87	3.608
356.23	3.624
356.58	3.631
356.94	3.601
357.29	3.560
357.65	3.642
358.00	3.600
358.36	3.644
358.72	3.666
359.07	3.584
359.43	3.508
359.78	3.529
360.14	3.518
360.49	3.551
360.85	3.568
361.20	3.648
361.56	3.649
361.91	3.670
362.27	3.589
362.62	3.587
362.98	3.625
363.33	3.714
363.69	3.801
364.04	3.814
364.40	3.809
364.75	3.803
365.11	3.810
365.46	3.772
365.82	3.839
366.17	3.905
366.53	3.920
366.88	3.916
367.24	3.899
367.59	3.839
367.95	3.900
368.30	3.922
368.66	3.980
369.01	3.979
369.37	4.021
369.72	4.003
370.08	4.018
370.43	4.027
370.78	4.048
371.14	4.066
371.49	4.091
371.85	4.071
372.20	4.073
372.56	4.055
372.91	3.971
373.26	3.971
373.62	3.955
373.97	3.958
374.33	3.950
374.68	3.953
375.03	3.920
375.39	3.943
375.74	3.986
376.10	3.956
376.45	3.921
376.80	4.000
377.16	4.002
377.51	3.993
377.87	3.983
378.22	4.002
378.57	3.988
378.93	3.980
379.28	4.020
379.63	3.979
379.99	3.980
380.34	4.057
380.70	4.040
381.05	4.080
381.40	4.107
381.76	4.146
382.11	4.141
382.46	4.209
382.82	4.285
383.17	4.220
383.52	4.207
383.88	4.211
384.23	4.185
384.58	4.252
384.94	4.248
385.29	4.255
385.64	4.198
385.99	4.215
386.35	4.204
386.70	4.158
387.05	4.174
387.41	4.196
387.76	4.213
388.11	4.241
388.47	4.185
388.82	4.184
389.17	4.174
389.52	4.184
389.88	4.159
390.23	4.155
390.58	4.157
390.93	4.187
391.29	4.174
391.64	4.168
391.99	4.153
392.34	4.148
392.70	4.127
393.05	4.143
393.40	4.165
393.75	4.210
394.11	4.241
394.46	4.254
394.81	4.252
395.16	4.244
395.52	4.257
395.87	4.282
396.22	4.299
396.57	4.339
396.92	4.341
397.28	4.372
397.63	4.359
397.98	4.329
398.33	4.352
398.68	4.350
399.04	4.389
399.39	4.392
399.74	4.357
400.09	4.361
400.44	4.335
400.80	4.327
401.15	4.309
401.50	4.314
401.85	4.332
402.20	4.311
402.55	4.335
402.90	4.341
403.26	4.321
403.61	4.363
403.96	4.364
404.31	4.411
404.66	4.414
405.01	4.411
405.36	4.420
405.72	4.423
406.07	4.446
406.42	4.440
406.77	4.456
407.12	4.487
407.47	4.465
407.82	4.495
408.17	4.436
408.53	4.473
408.88	4.498
409.23	4.478
409.58	4.459
409.93	4.446
410.28	4.453
410.63	4.446
410.98	4.426
411.33	4.461
411.68	4.462
412.03	4.503
412.38	4.489
412.73	4.495
413.09	4.511
413.44	4.507
413.79	4.505
414.14	4.475
414.49	4.470
414.84	4.480
415.19	4.462
415.54	4.451
415.89	4.426
416.24	4.405
416.59	4.387
416.94	4.375
417.29	4.378
417.64	4.378
417.99	4.388
418.34	4.389
418.69	4.396
419.04	4.392
419.39	4.388
419.74	4.400
420.09	4.401
420.44	4.414
420.79	4.428
421.14	4.451
421.49	4.462
421.84	4.479
422.19	4.482
422.54	4.483
422.89	4.495
423.24	4.515
423.59	4.517
423.94	4.552
424.29	4.559
424.64	4.580
424.99	4.567
425.34	4.586
425.68	4.600
426.03	4.617
426.38	4.640
426.73	4.662
427.08	4.667
427.43	4.691
427.78	4.692
428.13	4.713
428.48	4.706
428.83	4.713
429.18	4.694
429.53	4.672
429.87	4.672
430.22	4.676
430.57	4.682
430.92	4.677
431.27	4.691
431.62	4.684
431.97	4.679
432.32	4.687
432.67	4.705
433.01	4.732
433.36	4.737
433.71	4.756
434.06	4.760
434.41	4.769
434.76	4.798
435.11	4.819
435.45	4.808
435.80	4.803
436.15	4.814
436.50	4.821
436.85	4.814
437.20	4.831
437.54	4.816
437.89	4.830
438.24	4.829
438.59	4.826
438.94	4.792
439.29	4.814
439.63	4.820
439.98	4.816
440.33	4.818
440.68	4.822
441.03	4.813
441.37	4.835
441.72	4.836
442.07	4.842
442.42	4.840
442.76	4.853
443.11	4.847
443.46	4.850
443.81	4.856
444.16	4.850
444.50	4.861
444.85	4.876
445.20	4.870
445.55	4.868
445.89	4.870
446.24	4.876
446.59	4.911
446.94	4.936
447.28	4.958
447.63	4.997
447.98	5.041
448.32	5.074
448.67	5.086
449.02	5.099
449.37	5.109
449.71	5.126
450.06	5.160
450.41	5.144
450.75	5.150
451.10	5.172
451.45	5.160
451.79	5.172
452.14	5.166
452.49	5.169
452.84	5.196
453.18	5.210
453.53	5.203
453.88	5.199
454.22	5.213
454.57	5.224
454.92	5.219
455.26	5.202
455.61	5.190
455.95	5.192
456.30	5.200
456.65	5.189
456.99	5.190
457.34	5.209
457.69	5.207
458.03	5.215
458.38	5.223
458.73	5.232
459.07	5.254
459.42	5.265
459.76	5.281
460.11	5.307
460.46	5.324
460.80	5.347
461.15	5.360
461.49	5.386
461.84	5.410
462.19	5.431
462.53	5.451
462.88	5.475
463.22	5.484
463.57	5.497
463.91	5.508
464.26	5.536
464.61	5.541
464.95	5.561
465.30	5.571
465.64	5.561
465.99	5.569
466.33	5.565
466.68	5.584
467.02	5.604
467.37	5.600
467.71	5.592
468.06	5.600
468.41	5.619
468.75	5.622
469.10	5.621
469.44	5.642
469.79	5.648
470.13	5.669
470.48	5.669
470.82	5.677
471.17	5.700
471.51	5.720
471.86	5.720
472.20	5.738
472.55	5.742
472.89	5.768
473.23	5.781
473.58	5.792
473.92	5.785
474.27	5.781
474.61	5.792
474.96	5.787
475.30	5.797
475.65	5.795
475.99	5.792
476.34	5.795
476.68	5.773
477.02	5.769
477.37	5.757
477.71	5.774
478.06	5.769
478.40	5.765
478.75	5.790
479.09	5.811
479.43	5.915
479.78	6.044
480.12	6.178
480.47	6.329
480.81	6.468
481.15	6.615
481.50	6.754
481.84	6.920
482.19	7.097
482.53	7.269
482.87	7.411
483.22	7.445
483.56	7.410
483.90	7.323
484.25	7.191
484.59	7.050
484.94	6.883
485.28	6.701
485.62	6.501
485.97	6.293
486.31	6.092
486.65	5.942
487.00	5.840
487.34	5.782
487.68	5.761
488.03	5.779
488.37	5.794
488.71	5.832
489.06	5.869
489.40	5.904
489.74	5.937
490.09	5.967
490.43	5.983
490.77	6.002
491.11	6.023
491.46	6.051
491.80	6.059
492.14	6.080
492.49	6.086
492.83	6.095
493.17	6.100
493.51	6.105
493.86	6.122
494.20	6.132
494.54	6.158
494.88	6.165
495.23	6.169
495.57	6.186
495.91	6.194
496.25	6.201
496.60	6.219
496.94	6.244
497.28	6.273
497.62	6.293
497.97	6.306
498.31	6.322
498.65	6.348
498.99	6.376
499.33	6.387
499.68	6.399
500.02	6.421
500.36	6.447
500.70	6.465
501.04	6.483
501.39	6.500
501.73	6.537
502.07	6.557
502.41	6.569
502.75	6.551
503.09	6.557
503.44	6.558
503.78	6.575
504.12	6.569
504.46	6.583
504.80	6.579
505.14	6.583
505.49	6.572
505.83	6.573
506.17	6.571
506.51	6.595
506.85	6.610
507.19	6.627
507.53	6.618
507.87	6.637
508.22	6.636
508.56	6.648
508.90	6.653
509.24	6.666
509.58	6.676
509.92	6.698
510.26	6.713
510.60	6.723
510.94	6.752
511.28	6.767
511.63	6.786
511.97	6.800
512.31	6.820
512.65	6.849
512.99	6.878
513.33	6.898
513.67	6.902
514.01	6.918
514.35	6.920
514.69	6.913
515.03	6.925
515.37	6.922
515.71	6.938
516.05	6.942
516.39	6.941
516.73	6.946
517.07	6.955
517.41	6.967
517.75	6.976
518.09	6.995
518.43	7.012
518.77	7.031
519.11	7.046
519.45	7.069
519.79	7.096
520.13	7.123
520.47	7.135
520.81	7.155
521.15	7.176
521.49	7.187
521.83	7.201
522.17	7.209
522.51	7.208
522.85	7.214
523.19	7.211
523.53	7.209
523.87	7.232
524.21	7.273
524.55	7.348
524.89	7.436
525.23	7.527
525.57	7.609
525.91	7.694
526.25	7.778
526.58	7.866
526.92	7.955
527.26	8.017
527.60	8.016
527.94	7.966
528.28	7.857
528.62	7.717
528.96	7.573
529.30	7.505
529.64	7.423
529.97	7.350
530.31	7.268
530.65	7.185
530.99	7.126
531.33	7.127
531.67	7.186
532.01	7.281
532.35	7.397
532.68	7.501
533.02	7.522
533.36	7.545
533.70	7.548
534.04	7.548
534.38	7.551
534.71	7.560
535.05	7.567
535.39	7.575
535.73	7.571
536.07	7.570
536.41	7.593
536.74	7.606
537.08	7.624
537.42	7.647
537.76	7.672
538.10	7.697
538.43	7.709
538.77	7.731
539.11	7.745
539.45	7.763
539.79	7.777
540.12	7.779
540.46	7.791
540.80	7.798
541.14	7.804
541.47	7.803
541.81	7.802
542.15	7.812
542.49	7.812
542.82	7.814
543.16	7.816
543.50	7.833
543.84	7.846
544.17	7.851
544.51	7.859
544.85	7.876
545.18	7.912
545.52	7.928
545.86	7.950
546.20	7.975
546.53	8.001
546.87	8.028
547.21	8.059
547.54	8.092
547.88	8.124
548.22	8.148
548.55	8.175
548.89	8.202
549.23	8.218
549.56	8.245
549.90	8.272
550.24	8.285
550.57	8.312
550.91	8.309
551.25	8.310
551.58	8.321
551.92	8.344
552.26	8.369
552.59	8.366
552.93	8.388
553.27	8.406
553.60	8.413
553.94	8.438
554.27	8.436
554.61	8.452
554.95	8.486
555.28	8.498
555.62	8.511
555.95	8.511
556.29	8.537
556.63	8.561
556.96	8.588
557.30	8.598
557.63	8.602
557.97	8.623
558.31	8.637
558.64	8.642
558.98	8.652
559.31	8.666
559.65	8.691
559.98	8.687
560.32	8.712
560.65	8.691
560.99	8.692
561.33	8.700
561.66	8.690
562.00	8.698
562.33	8.719
562.67	8.733
563.00	8.732
563.34	8.710
563.67	8.724
564.01	8.697
564.34	8.723
564.68	8.747
565.01	8.741
565.35	8.750
565.68	8.750
566.02	8.756
566.35	8.763
566.69	8.771
567.02	8.792
567.36	8.802
567.69	8.835
568.03	8.825
568.36	8.813
568.69	8.818
569.03	8.811
569.36	8.816
569.70	8.809
570.03	8.798
570.37	8.793
570.70	8.803
571.04	8.803
571.37	8.783
571.70	8.800
572.04	8.791
572.37	8.804
572.71	8.837
573.04	8.850
573.37	8.853
573.71	8.875
574.04	8.898
574.38	8.922
574.71	8.943
575.04	8.973
575.38	8.968
575.71	9.014
576.05	9.039
576.38	9.053
576.71	9.073
577.05	9.113
577.38	9.135
577.71	9.171
578.05	9.178
578.38	9.197
578.71	9.223
579.05	9.274
579.38	9.276
579.71	9.293
580.05	9.324
580.38	9.353
580.71	9.374
581.05	9.395
581.38	9.414
581.71	9.440
582.05	9.473
582.38	9.479
582.71	9.475
583.04	9.492
583.38	9.512
583.71	9.506
584.04	9.510
584.38	9.507
584.71	9.522
585.04	9.524
585.37	9.516
585.71	9.512
586.04	9.515
586.37	9.527
586.70	9.537
587.04	9.549
587.37	9.570
587.70	9.570
588.03	9.587
588.37	9.582
588.70	9.602
589.03	9.619
589.36	9.625
589.69	9.629
590.03	9.631
590.36	9.674
590.69	9.693
591.02	9.705
591.35	9.709
591.69	9.714
592.02	9.740
592.35	9.732
592.68	9.724
593.01	9.706
593.35	9.717
593.68	9.732
594.01	9.698
594.34	9.674
594.67	9.684
595.00	9.695
595.34	9.712
595.67	9.715
596.00	9.729
596.33	9.757
596.66	9.795
596.99	9.816
597.32	9.812
597.65	9.835
597.99	9.872
598.32	9.902
598.65	9.924
598.98	9.929
599.31	9.944
599.64	9.940
599.97	9.952
600.30	9.938
600.63	9.928
600.96	9.951
601.30	9.942
601.63	9.943
601.96	9.920
602.29	9.926
602.62	9.946
602.95	9.956
603.28	9.972
603.61	9.983
603.94	10.022
604.27	10.046
604.60	10.065
604.93	10.110
605.26	10.107
605.59	10.126
605.92	10.150
606.25	10.150
606.58	10.162
606.91	10.159
607.24	10.169
607.57	10.183
607.90	10.222
608.23	10.235
608.56	10.237
608.89	10.283
609.22	10.303
609.55	10.320
609.88	10.346
610.21	10.392
610.54	10.443
610.87	10.483
611.20	10.529
611.53	10.536
611.86	10.579
612.19	10.626
612.52	10.657
612.85	10.676
613.18	10.706
613.51	10.735
613.84	10.757
614.17	10.793
614.49	10.825
614.82	10.822
615.15	10.871
615.48	10.852
615.81	10.877
616.14	10.910
616.47	10.933
616.80	10.967
617.13	10.998
617.46	11.013
617.78	11.024
618.11	11.037
618.44	11.052
618.77	11.083
619.10	11.126
619.43	11.152
619.76	11.137
620.09	11.174
620.41	11.156
620.74	11.170
621.07	11.178
621.40	11.203
621.73	11.217
622.06	11.227
622.38	11.228
622.71	11.233
623.04	11.237
623.37	11.242
623.70	11.241
624.02	11.243
624.35	11.232
624.68	11.228
625.01	11.234
625.34	11.226
625.66	11.222
625.99	11.203
626.32	11.226
626.65	11.224
626.98	11.238
627.30	11.262
627.63	11.303
627.96	11.326
628.29	11.369
628.61	11.380
628.94	11.422
629.27	11.469
629.60	11.509
629.92	11.524
630.25	11.578
630.58	11.618
630.91	11.619
631.23	11.632
631.56	11.653
631.89	11.675
632.21	11.715
632.54	11.722
632.87	11.704
633.19	11.731
633.52	11.746
633.85	11.768
634.18	11.813
634.50	11.842
634.83	11.857
635.16	11.867
635.48	11.873
635.81	11.867
636.14	11.917
636.46	11.955
636.79	11.961
637.11	12.005
637.44	12.010
637.77	11.990
638.09	12.009
638.42	12.049
638.75	12.093
639.07	12.093
639.40	12.125
639.73	12.109
640.05	12.100
640.38	12.141
640.70	12.145
641.03	12.161
641.36	12.211
641.68	12.277
642.01	12.275
642.33	12.286
642.66	12.308
642.98	12.315
643.31	12.369
643.64	12.428
643.96	12.424
644.29	12.439
644.61	12.446
644.94	12.436
645.26	12.428
645.59	12.429
645.91	12.450
646.24	12.508
646.56	12.494
646.89	12.487
647.22	12.488
647.54	12.486
647.87	12.525
648.19	12.555
648.52	12.566
648.84	12.572
649.17	12.585
649.49	12.562
649.82	12.542
650.14	12.609
650.47	12.614
650.79	12.646
651.11	12.682
651.44	12.706
651.76	12.741
652.09	12.776
652.41	12.805
652.74	12.832
653.06	12.924
653.39	12.957
653.71	12.978
654.04	12.966
654.36	12.942
654.68	12.902
655.01	12.835
655.33	12.803
655.66	12.813
655.98	12.788
656.30	12.809
656.63	12.751
656.95	12.718
657.28	12.695
657.60	12.729
657.92	12.758
658.25	12.784
658.57	12.825
658.90	12.844
659.22	12.853
659.54	12.906
659.87	12.929
660.19	12.961
660.51	12.997
660.84	13.011
661.16	13.028
661.48	13.076
661.81	13.108
662.13	13.161
662.45	13.214
662.78	13.235
663.10	13.205
663.42	13.243
663.75	13.263
664.07	13.275
664.39	13.327
664.72	13.328
665.04	13.260
665.36	13.289
665.69	13.264
666.01	13.227
666.33	13.287
666.65	13.303
666.98	13.287
667.30	13.314
667.62	13.346
667.94	13.321
668.27	13.359
668.59	13.459
668.91	13.493
669.23	13.532
669.56	13.575
669.88	13.584
670.20	13.634
670.52	13.676
670.85	13.715
671.17	13.791
671.49	13.816
671.81	13.862
672.13	13.906
672.46	13.919
672.78	13.964
673.10	14.045
673.42	14.068
673.74	14.103
674.07	14.161
674.39	14.148
674.71	14.141
675.03	14.231
675.35	14.207
675.67	14.198
676.00	14.210
676.32	14.195
676.64	14.169
676.96	14.165
677.28	14.192
677.60	14.154
677.92	14.220
678.25	14.193
678.57	14.171
678.89	14.188
679.21	14.207
679.53	14.212
679.85	14.240
680.17	14.292
680.49	14.321
680.81	14.321
681.13	14.351
681.46	14.340
681.78	14.465
682.10	14.556
682.42	14.628
682.74	14.731
683.06	14.843
683.38	14.896
683.70	14.929
684.02	14.955
684.34	15.034
684.66	15.166
684.98	15.236
685.30	15.266
685.62	15.348
685.94	15.398
686.26	15.376
686.58	15.396
686.90	15.475
687.22	15.541
687.54	15.615
687.86	15.636
688.18	15.663
688.50	15.764
688.82	15.795
689.14	15.785
689.46	15.871
689.78	15.954
690.10	16.141
690.42	16.209
690.74	16.243
691.06	16.261
691.38	16.341
691.70	16.410
692.02	16.416
692.34	16.474
692.66	16.552
692.98	16.607
693.30	16.647
693.62	16.614
693.94	16.659
694.26	16.686
694.57	16.699
694.89	16.792
695.21	16.812
695.53	16.845
695.85	16.823
696.17	16.868
696.49	16.866
696.81	16.908
697.13	16.871
697.44	16.885
697.76	16.914
698.08	17.023
698.40	17.041
698.72	17.034
699.04	17.151
699.36	17.267
699.67	17.290
699.99	17.348
700.31	17.458
700.63	17.576
700.95	17.677
701.27	17.829
701.58	17.943
701.90	17.993
702.22	18.239
702.54	18.203
702.86	18.331
703.17	18.422
703.49	18.551
703.81	18.517
704.13	18.615
704.45	18.650
704.76	18.740
705.08	18.763
705.40	18.810
705.72	18.681
706.03	18.749
706.35	18.730
706.67	18.777
706.99	18.750
707.30	18.816
707.62	18.863
707.94	18.905
708.26	18.874
708.57	18.860
708.89	18.831
709.21	18.862
709.53	18.941
709.84	19.000
710.16	18.991
710.48	18.994
710.79	19.094
711.11	19.130
711.43	19.177
711.74	19.174
712.06	19.184
712.38	19.299
712.69	19.365
713.01	19.344
713.33	19.293
713.64	19.300
713.96	19.423
714.28	19.423
714.59	19.378
714.91	19.440
715.23	19.597
715.54	19.725
715.86	19.761
716.17	19.840
716.49	19.920
716.81	20.046
717.12	20.203
717.44	20.256
717.76	20.233
718.07	20.332
718.39	20.262
718.70	20.172
719.02	20.242
719.33	20.267
719.65	20.268
719.97	20.293
720.28	20.340
720.60	20.315
720.91	20.349
721.23	20.367
721.54	20.351
721.86	20.532
722.17	20.599
722.49	20.612
722.81	20.684
723.12	20.827
723.44	20.833
723.75	20.762
724.07	20.874
724.38	20.976
724.70	21.146
725.01	21.361
725.33	21.396
725.64	21.532
725.96	21.530
726.27	21.577
726.59	21.540
726.90	21.585
727.22	21.830
727.53	21.888
727.84	21.892
728.16	21.871
728.47	21.849
728.79	21.901
729.10	21.896
729.42	21.897
729.73	21.908
730.05	21.960
730.36	22.022
730.67	22.004
730.99	22.003
731.30	22.036
731.62	22.123
731.93	22.182
732.24	22.188
732.56	22.169
732.87	22.303
733.19	22.413
733.50	22.496
733.81	22.649
734.13	22.695
734.44	22.764
734.76	22.894
735.07	22.981
735.38	22.909
735.70	22.919
736.01	22.920
736.32	22.878
736.64	22.944
736.95	23.024
737.26	22.964
737.58	23.018
737.89	22.964
738.20	22.986
738.52	22.881
738.83	23.057
739.14	23.136
739.45	23.250
739.77	23.282
740.08	23.261
740.39	23.141
740.71	23.232
741.02	23.122
741.33	23.191
741.64	23.261
741.96	23.399
742.27	23.443
742.58	23.551
742.90	23.573
743.21	23.735
743.52	23.845
743.83	23.974
744.14	23.919
744.46	24.083
744.77	24.149
745.08	24.035
745.39	24.037
745.71	24.023
746.02	23.953
746.33	24.006
746.64	24.013
746.95	23.970
747.27	24.024
747.58	24.175
747.89	24.115
748.20	24.207
748.51	24.287
748.82	24.396
749.14	24.492
749.45	24.502
749.76	24.532
750.07	24.550
750.38	24.385
750.69	24.499
751.01	24.574
751.32	24.692
751.63	24.732
751.94	24.687
752.25	24.688
752.56	24.582
752.87	24.654
753.18	24.698
753.49	24.860
753.81	25.008
754.12	24.955
754.43	24.807
754.74	24.848
755.05	25.081
755.36	25.149
755.67	25.198
755.98	25.322
756.29	25.409
756.60	25.411
756.91	25.225
757.22	25.390
757.53	25.457
757.84	25.629
758.15	25.782
758.46	25.566
758.77	25.542
759.09	25.629
759.40	25.657
759.71	25.664
760.02	25.840
760.33	25.913
760.64	25.859
760.95	25.872
761.26	25.900
761.57	25.843
761.88	25.855
762.18	25.963
762.49	25.923
762.80	25.974
763.11	26.049
763.42	25.920
763.73	25.996
764.04	26.031
764.35	25.996
764.66	26.008
764.97	26.022
765.28	26.154
765.59	26.158
765.90	26.290
766.21	26.204
766.52	26.255
766.83	26.456
767.14	26.356
767.44	26.482
767.75	26.619
768.06	26.453
768.37	26.368
768.68	26.366
768.99	26.471
769.30	26.546
769.61	26.804
769.91	26.780
770.22	26.838
770.53	27.019
770.84	26.959
771.15	27.175
771.46	27.374
771.77	27.657
772.07	27.625
772.38	27.629
772.69	27.649
773.00	27.538
773.31	27.419
773.61	27.329
773.92	27.391
774.23	27.417
774.54	27.334
774.85	27.577
775.15	27.403
775.46	27.276
775.77	27.247
776.08	27.263
776.39	27.352
776.69	27.546
777.00	27.670
777.31	27.779
777.62	27.919
777.92	27.928
778.23	27.940
778.54	28.263
778.85	28.521
779.15	28.617
779.46	28.495
779.77	28.616
780.07	28.592
780.38	28.591
780.69	28.665
781.00	28.908
781.30	28.941
781.61	28.997
781.92	28.888
782.22	28.925
782.53	28.818
782.84	29.083
783.14	29.088
783.45	29.234
783.76	29.209
784.06	29.059
784.37	28.968
784.68	28.940
784.98	28.954
785.29	28.746
785.60	28.830
785.90	29.044
786.21	28.772
786.51	28.775
786.82	28.773
787.13	29.086
787.43	29.348
787.74	29.187
788.04	29.288
788.35	29.348
788.66	29.467
788.96	29.453
789.27	29.359
789.57	29.453
789.88	29.470
790.19	29.410
790.49	29.039
790.80	28.851
791.10	28.987
791.41	29.043
791.71	28.856
792.02	29.105
792.32	29.263
792.63	29.355
792.93	29.560
793.24	29.603
793.54	29.562
793.85	29.676
794.15	29.704
794.46	29.620
794.76	29.754
795.07	29.825
795.37	29.738
795.68	29.816
795.98	29.681
796.29	29.854
796.59	29.899
796.90	30.158
797.20	30.097
797.51	30.335
797.81	30.277
798.12	30.377
798.42	30.362
798.72	30.510
799.03	30.509
799.33	30.703
799.64	30.593
799.94	30.403
800.25	30.480
800.55	30.653
800.85	30.491
801.16	30.988
801.46	30.975
801.77	31.174
802.07	31.434
802.37	31.495
802.68	31.654
802.98	31.397
803.28	31.772
803.59	31.654
803.89	31.734
804.20	31.839
804.50	31.724
804.80	31.348
805.11	31.253
805.41	31.376
805.71	31.084
806.02	31.070
806.32	31.567
806.62	31.363
806.93	31.335
807.23	31.432
807.53	31.479
807.83	31.445
808.14	31.986
808.44	32.338
808.74	32.148
809.05	32.271
809.35	32.507
809.65	32.506
809.95	32.709
810.26	33.190
810.56	33.707
810.86	33.873
811.16	33.996
811.47	33.812
811.77	33.314
812.07	33.150
812.37	33.553
812.68	33.652
812.98	33.550
813.28	33.683
813.58	33.624
813.88	32.935
814.19	32.836
814.49	33.014
814.79	32.909
815.09	33.274
815.39	33.063
815.70	32.627
816.00	32.638
816.30	32.946
816.60	33.030
816.90	32.887
817.20	33.239
817.50	33.662
817.81	33.608
818.11	33.739
818.41	33.636
818.71	33.623
819.01	33.627
819.31	33.355
819.61	33.142
819.92	32.946
820.22	32.836
820.52	32.696
820.82	32.502
821.12	32.460
821.42	32.437
821.72	32.356
822.02	32.312
822.32	32.244
822.62	32.238
822.92	32.284
823.22	32.369
823.52	32.402
823.83	32.474
824.13	32.557
824.43	32.545
824.73	32.558
825.03	32.645
825.33	32.711
825.63	32.805
825.93	32.942
826.23	33.018
826.53	32.910
826.83	32.888
827.13	33.073
827.43	33.216
827.73	33.294
828.03	33.167
828.33	33.307
828.63	33.511
828.93	33.780
829.23	33.903
829.53	33.850
829.83	34.103
830.13	34.382
830.42	33.905
830.72	33.871
831.02	33.960
831.32	34.080
831.62	33.841
831.92	33.657
832.22	33.432
832.52	33.487
832.82	33.544
833.12	33.513
833.42	33.557
833.72	33.778
834.01	33.642
834.31	33.577
834.61	33.644
834.91	33.782
835.21	33.786
835.51	34.014
835.81	33.873
836.11	33.902
836.40	34.059
836.70	34.359
837.00	34.228
837.30	34.477
837.60	34.781
837.90	34.627
838.19	34.941
838.49	35.752
838.79	35.911
839.09	35.710
839.39	35.915
839.68	36.366
839.98	36.322
840.28	36.763
840.58	36.558
840.88	36.829
841.17	37.121
841.47	37.493
841.77	37.613
842.07	37.682
842.36	38.718
842.66	39.078
842.96	38.739
843.26	38.667
843.55	37.888
843.85	38.461
844.15	38.312
844.45	39.037
844.74	39.046
845.04	38.006
845.34	38.531
845.63	38.778
845.93	38.973
846.23	39.316
846.53	40.038
846.82	42.277
847.12	43.318
847.42	43.823
847.71	43.408
848.01	43.109
848.31	44.469
848.60	44.060
848.90	43.712
849.19	43.139
849.49	43.377
849.79	43.580
850.08	43.178
850.38	42.291
850.68	43.431
850.97	45.154
851.27	44.363
851.56	43.003
851.86	43.973
852.16	44.449
852.45	44.060
852.75	44.570
853.04	44.451
853.34	45.248
853.64	46.307
853.93	44.804
854.23	42.873
854.52	43.588
854.82	43.659
855.11	42.089
855.41	41.803
855.70	43.529
856.00	43.259
856.30	44.102
856.59	42.545
856.89	41.475
857.18	40.525
857.48	41.432
857.77	42.160
858.07	42.797
858.36	42.570
858.66	43.140
858.95	42.772
859.25	42.505
859.54	41.120
859.84	42.335
860.13	41.764
860.42	43.531
860.72	43.968
861.01	44.119
861.31	43.588
861.60	44.764
861.90	44.936
862.19	43.461
862.49	43.137
862.78	44.172
863.07	45.208
863.37	46.953
863.66	45.525
863.96	43.867
864.25	43.136
864.54	45.154
864.84	43.772
865.13	42.729
865.43	43.275
865.72	39.934
866.01	58.334
866.31	33.293
866.60	39.464
866.89	39.247
>>>>>End Spectral Data<<<<<
