OOIBase32 Version 2.0.0.6 Data File
++++++++++++++++++++++++++++++++++++
Date: 01-23-2012, 22:20:26
User: Valued Ocean Optics Customer
Spectrometer Serial Number: USB2E2917
Spectrometer Channel: Master
Integration Time (msec): 5
Spectra Averaged: 10
Boxcar Smoothing: 5
Correct for Electrical Dark: Enabled
Time Normalized: Disabled
Dual-beam Reference: Disabled
Reference Channel: Master
Temperature: Not acquired
Spectrometer Type: S2000
ADC Type: USB2000
Number of Pixels in File: 2048
Graph Title: 
>>>>>Begin Spectral Data<<<<<
180.30	0.000
180.67	0.000
181.03	169.702
181.40	-142.188
181.77	7265.733
182.14	-200.430
182.51	52.226
182.88	5335.699
183.25	23.743
183.62	-188.041
183.99	77.270
184.36	-34.714
184.73	62.611
185.10	-19.036
185.46	116.780
185.83	155.766
186.20	116.530
186.57	824.836
186.94	131.506
187.31	203.920
187.68	-313.474
188.05	-26.998
188.42	-5.297
188.78	-0.620
189.15	9.199
189.52	19.203
189.89	9.924
190.26	-13.400
190.63	-4.891
191.00	-5.425
191.37	0.908
191.73	10.458
192.10	16.018
192.47	22.448
192.84	29.546
193.21	29.379
193.58	27.664
193.94	26.571
194.31	15.956
194.68	25.221
195.05	16.844
195.42	0.886
195.79	-16.508
196.15	-19.503
196.52	-20.447
196.89	-47.114
197.26	-51.661
197.63	-66.597
198.00	-71.353
198.36	-59.975
198.73	-56.082
199.10	-53.462
199.47	-43.440
199.84	-44.634
200.20	-29.192
200.57	-63.058
200.94	-37.051
201.31	-27.137
201.68	-2.288
202.04	-12.120
202.41	-3.469
202.78	-31.632
203.15	-31.969
203.51	-63.966
203.88	-64.583
204.25	-103.029
204.62	-70.726
204.98	-66.380
205.35	-64.919
205.72	-70.881
206.09	-51.532
206.46	-53.145
206.82	-35.383
207.19	-43.297
207.56	-39.271
207.92	-56.612
208.29	-49.775
208.66	-50.771
209.03	-55.204
209.39	-73.450
209.76	-88.750
210.13	-113.021
210.50	-120.219
210.86	-116.128
211.23	-76.921
211.60	-60.203
211.96	-39.022
212.33	-36.464
212.70	-20.096
213.07	-19.354
213.43	-6.277
213.80	-2.092
214.17	-5.841
214.53	-0.231
214.90	7.799
215.27	1.129
215.63	-8.827
216.00	-12.966
216.37	-10.666
216.74	-31.310
217.10	-38.398
217.47	-55.034
217.84	-53.940
218.20	-20.582
218.57	-20.929
218.94	-28.055
219.30	-29.277
219.67	-18.474
220.04	-19.582
220.40	-29.236
220.77	-23.113
221.13	-24.898
221.50	-26.643
221.87	-31.691
222.23	-45.035
222.60	-42.734
222.97	-38.248
223.33	-34.620
223.70	-34.600
224.07	-23.930
224.43	-18.744
224.80	-14.577
225.16	-12.473
225.53	-8.942
225.90	-11.128
226.26	-12.490
226.63	-11.577
226.99	-10.262
227.36	-9.812
227.73	-10.201
228.09	-15.552
228.46	-15.633
228.82	-15.706
229.19	-15.347
229.56	-18.592
229.92	-15.974
230.29	-13.234
230.65	-13.522
231.02	-13.569
231.38	-15.853
231.75	-14.610
232.12	-8.382
232.48	-5.250
232.85	-5.373
233.21	-4.487
233.58	-1.508
233.94	-0.359
234.31	-4.081
234.68	-5.964
235.04	-7.953
235.41	-6.360
235.77	-5.408
236.14	-6.508
236.50	-9.616
236.87	-8.984
237.23	-9.097
237.60	-7.783
237.96	-8.154
238.33	-4.912
238.69	-3.971
239.06	-3.567
239.42	-3.561
239.79	-3.953
240.15	-3.890
240.52	-3.524
240.88	-3.620
241.25	-3.619
241.61	-4.072
241.98	-3.546
242.34	-3.976
242.71	-3.356
243.07	-2.726
243.44	-2.325
243.80	-1.932
244.17	-1.698
244.53	-1.390
244.90	-1.472
245.26	-1.463
245.63	-1.263
245.99	-1.264
246.36	-1.113
246.72	-1.704
247.09	-1.826
247.45	-2.215
247.81	-2.783
248.18	-3.442
248.54	-3.567
248.91	-3.445
249.27	-3.101
249.64	-3.592
250.00	-3.638
250.36	-3.654
250.73	-2.974
251.09	-2.960
251.46	-2.692
251.82	-2.204
252.19	-1.825
252.55	-2.334
252.91	-2.717
253.28	-3.630
253.64	-3.366
254.01	-3.419
254.37	-3.672
254.73	-3.565
255.10	-3.368
255.46	-2.831
255.83	-2.816
256.19	-2.466
256.55	-2.077
256.92	-1.830
257.28	-1.375
257.65	-0.889
258.01	-0.580
258.37	-0.485
258.74	-0.280
259.10	-0.171
259.46	-0.285
259.83	-0.271
260.19	-0.451
260.55	-0.561
260.92	-0.731
261.28	-0.919
261.64	-1.480
262.01	-2.123
262.37	-2.347
262.73	-2.840
263.10	-3.051
263.46	-2.773
263.82	-2.590
264.19	-2.423
264.55	-2.440
264.91	-2.014
265.28	-1.784
265.64	-1.892
266.00	-1.850
266.37	-1.938
266.73	-1.639
267.09	-1.625
267.46	-1.801
267.82	-2.001
268.18	-1.903
268.54	-1.737
268.91	-1.536
269.27	-1.738
269.63	-1.687
270.00	-1.529
270.36	-1.337
270.72	-1.503
271.08	-1.646
271.45	-1.565
271.81	-1.078
272.17	-0.930
272.53	-1.271
272.90	-1.650
273.26	-1.663
273.62	-1.536
273.98	-1.646
274.35	-1.801
274.71	-1.623
275.07	-1.511
275.43	-1.445
275.80	-1.663
276.16	-1.513
276.52	-1.255
276.88	-0.992
277.25	-0.775
277.61	-0.475
277.97	-0.440
278.33	-0.499
278.69	-0.701
279.06	-0.546
279.42	-0.866
279.78	-1.184
280.14	-1.389
280.50	-1.253
280.87	-1.389
281.23	-1.277
281.59	-1.631
281.95	-1.532
282.31	-1.318
282.68	-1.086
283.04	-1.012
283.40	-0.648
283.76	-0.544
284.12	-0.590
284.48	-0.622
284.85	-0.673
285.21	-0.838
285.57	-0.638
285.93	-0.630
286.29	-0.741
286.65	-0.773
287.02	-0.925
287.38	-1.190
287.74	-0.997
288.10	-0.944
288.46	-0.915
288.82	-0.981
289.18	-0.999
289.54	-1.120
289.91	-1.053
290.27	-1.034
290.63	-1.185
290.99	-1.331
291.35	-1.151
291.71	-0.897
292.07	-0.847
292.43	-0.855
292.79	-0.524
293.16	-0.358
293.52	-0.245
293.88	-0.220
294.24	-0.161
294.60	-0.131
294.96	0.004
295.32	-0.036
295.68	-0.389
296.04	-0.237
296.40	-0.220
296.76	-0.313
297.12	-0.370
297.49	-0.350
297.85	-0.323
298.21	-0.295
298.57	-0.234
298.93	-0.272
299.29	-0.275
299.65	-0.243
300.01	-0.373
300.37	-0.583
300.73	-0.512
301.09	-0.467
301.45	-0.387
301.81	-0.333
302.17	-0.289
302.53	-0.363
302.89	-0.236
303.25	-0.286
303.61	-0.087
303.97	-0.037
304.33	0.102
304.69	0.044
305.05	0.036
305.41	-0.123
305.77	-0.200
306.13	-0.288
306.49	-0.101
306.85	-0.135
307.21	-0.074
307.57	-0.169
307.93	-0.251
308.29	-0.101
308.65	-0.124
309.01	-0.078
309.37	0.113
309.73	0.148
310.09	0.214
310.45	0.166
310.81	0.209
311.17	0.120
311.53	0.146
311.89	0.288
312.25	0.164
312.61	0.153
312.96	0.069
313.32	-0.004
313.68	-0.153
314.04	-0.250
314.40	-0.266
314.76	-0.218
315.12	-0.024
315.48	0.072
315.84	-0.169
316.20	-0.148
316.56	-0.086
316.92	-0.065
317.27	-0.167
317.63	-0.065
317.99	0.010
318.35	-0.051
318.71	-0.191
319.07	-0.391
319.43	-0.514
319.79	-0.411
320.15	-0.355
320.50	-0.512
320.86	-0.423
321.22	-0.361
321.58	-0.388
321.94	-0.388
322.30	-0.286
322.66	-0.157
323.01	0.009
323.37	0.014
323.73	-0.009
324.09	0.025
324.45	0.234
324.81	0.171
325.17	0.170
325.52	0.153
325.88	0.114
326.24	0.109
326.60	0.182
326.96	0.210
327.31	0.261
327.67	0.324
328.03	0.267
328.39	0.127
328.75	0.188
329.11	0.238
329.46	0.282
329.82	0.330
330.18	0.340
330.54	0.229
330.90	0.140
331.25	0.068
331.61	0.019
331.97	-0.024
332.33	0.119
332.68	-0.050
333.04	-0.138
333.40	-0.060
333.76	-0.003
334.11	-0.109
334.47	-0.123
334.83	-0.212
335.19	-0.195
335.54	-0.111
335.90	0.075
336.26	0.007
336.62	0.157
336.97	0.147
337.33	0.089
337.69	-0.003
338.05	0.107
338.40	0.121
338.76	0.196
339.12	0.138
339.48	0.086
339.83	-0.049
340.19	-0.030
340.55	-0.120
340.90	-0.145
341.26	-0.192
341.62	-0.155
341.97	-0.093
342.33	-0.045
342.69	-0.070
343.04	-0.019
343.40	-0.061
343.76	-0.019
344.12	0.047
344.47	0.154
344.83	0.174
345.19	0.149
345.54	0.124
345.90	0.026
346.26	-0.131
346.61	-0.095
346.97	-0.179
347.32	-0.150
347.68	-0.248
348.04	-0.311
348.39	-0.358
348.75	-0.269
349.11	-0.284
349.46	-0.291
349.82	-0.204
350.18	-0.075
350.53	-0.094
350.89	-0.010
351.24	0.028
351.60	0.058
351.96	-0.009
352.31	-0.061
352.67	-0.189
353.02	-0.085
353.38	-0.063
353.74	-0.197
354.09	-0.276
354.45	-0.241
354.80	-0.256
355.16	-0.314
355.52	-0.290
355.87	-0.253
356.23	-0.188
356.58	-0.053
356.94	-0.135
357.29	-0.167
357.65	-0.207
358.00	-0.214
358.36	-0.285
358.72	-0.230
359.07	-0.175
359.43	-0.215
359.78	-0.212
360.14	-0.271
360.49	-0.296
360.85	-0.275
361.20	-0.227
361.56	-0.128
361.91	-0.133
362.27	-0.087
362.62	-0.116
362.98	-0.166
363.33	-0.160
363.69	-0.202
364.04	-0.180
364.40	-0.190
364.75	-0.179
365.11	-0.187
365.46	-0.235
365.82	-0.201
366.17	-0.224
366.53	-0.218
366.88	-0.199
367.24	-0.126
367.59	-0.065
367.95	-0.004
368.30	-0.001
368.66	0.016
369.01	0.018
369.37	0.054
369.72	0.042
370.08	0.108
370.43	0.103
370.78	0.103
371.14	0.051
371.49	0.022
371.85	-0.050
372.20	-0.092
372.56	-0.103
372.91	-0.140
373.26	-0.148
373.62	-0.147
373.97	-0.171
374.33	-0.192
374.68	-0.226
375.03	-0.177
375.39	-0.217
375.74	-0.212
376.10	-0.208
376.45	-0.239
376.80	-0.218
377.16	-0.224
377.51	-0.185
377.87	-0.232
378.22	-0.227
378.57	-0.157
378.93	-0.160
379.28	-0.068
379.63	-0.034
379.99	0.001
380.34	0.030
380.70	0.042
381.05	0.076
381.40	0.038
381.76	0.049
382.11	0.095
382.46	0.005
382.82	-0.030
383.17	-0.055
383.52	-0.066
383.88	-0.122
384.23	-0.093
384.58	-0.120
384.94	-0.156
385.29	-0.131
385.64	-0.113
385.99	-0.138
386.35	-0.059
386.70	-0.067
387.05	-0.093
387.41	-0.087
387.76	-0.058
388.11	-0.115
388.47	-0.089
388.82	-0.098
389.17	-0.089
389.52	-0.077
389.88	-0.083
390.23	-0.100
390.58	-0.077
390.93	-0.089
391.29	-0.081
391.64	-0.067
391.99	-0.059
392.34	-0.049
392.70	-0.027
393.05	-0.057
393.40	-0.046
393.75	-0.051
394.11	-0.049
394.46	-0.055
394.81	-0.063
395.16	-0.090
395.52	-0.104
395.87	-0.121
396.22	-0.160
396.57	-0.195
396.92	-0.209
397.28	-0.240
397.63	-0.273
397.98	-0.278
398.33	-0.282
398.68	-0.251
399.04	-0.253
399.39	-0.259
399.74	-0.233
400.09	-0.246
400.44	-0.254
400.80	-0.235
401.15	-0.241
401.50	-0.222
401.85	-0.220
402.20	-0.210
402.55	-0.209
402.90	-0.236
403.26	-0.229
403.61	-0.231
403.96	-0.229
404.31	-0.232
404.66	-0.249
405.01	-0.238
405.36	-0.243
405.72	-0.285
406.07	-0.309
406.42	-0.319
406.77	-0.303
407.12	-0.328
407.47	-0.320
407.82	-0.319
408.17	-0.328
408.53	-0.321
408.88	-0.306
409.23	-0.294
409.58	-0.285
409.93	-0.295
410.28	-0.285
410.63	-0.282
410.98	-0.258
411.33	-0.306
411.68	-0.302
412.03	-0.268
412.38	-0.241
412.73	-0.275
413.09	-0.287
413.44	-0.276
413.79	-0.228
414.14	-0.223
414.49	-0.202
414.84	-0.191
415.19	-0.137
415.54	-0.107
415.89	-0.090
416.24	-0.084
416.59	-0.040
416.94	-0.008
417.29	0.012
417.64	0.005
417.99	0.021
418.34	0.034
418.69	0.042
419.04	0.036
419.39	0.042
419.74	0.061
420.09	0.073
420.44	0.075
420.79	0.079
421.14	0.069
421.49	0.076
421.84	0.083
422.19	0.088
422.54	0.093
422.89	0.093
423.24	0.093
423.59	0.076
423.94	0.074
424.29	0.064
424.64	0.044
424.99	0.061
425.34	0.054
425.68	0.033
426.03	0.019
426.38	0.006
426.73	0.008
427.08	-0.004
427.43	0.002
427.78	-0.021
428.13	-0.020
428.48	-0.014
428.83	-0.021
429.18	-0.023
429.53	-0.016
429.87	-0.019
430.22	-0.033
430.57	-0.026
430.92	-0.031
431.27	-0.044
431.62	-0.056
431.97	-0.075
432.32	-0.088
432.67	-0.096
433.01	-0.113
433.36	-0.111
433.71	-0.107
434.06	-0.099
434.41	-0.096
434.76	-0.081
435.11	-0.086
435.45	-0.073
435.80	-0.073
436.15	-0.064
436.50	-0.060
436.85	-0.050
437.20	-0.058
437.54	-0.059
437.89	-0.067
438.24	-0.068
438.59	-0.075
438.94	-0.069
439.29	-0.076
439.63	-0.076
439.98	-0.065
440.33	-0.055
440.68	-0.055
441.03	-0.063
441.37	-0.062
441.72	-0.062
442.07	-0.060
442.42	-0.055
442.76	-0.056
443.11	-0.041
443.46	-0.028
443.81	-0.031
444.16	-0.039
444.50	-0.038
444.85	-0.017
445.20	-0.023
445.55	-0.011
445.89	-0.022
446.24	-0.048
446.59	-0.062
446.94	-0.088
447.28	-0.105
447.63	-0.130
447.98	-0.142
448.32	-0.155
448.67	-0.188
449.02	-0.207
449.37	-0.234
449.71	-0.255
450.06	-0.244
450.41	-0.233
450.75	-0.229
451.10	-0.237
451.45	-0.228
451.79	-0.239
452.14	-0.250
452.49	-0.257
452.84	-0.265
453.18	-0.282
453.53	-0.279
453.88	-0.286
454.22	-0.296
454.57	-0.285
454.92	-0.275
455.26	-0.269
455.61	-0.252
455.95	-0.228
456.30	-0.210
456.65	-0.198
456.99	-0.169
457.34	-0.154
457.69	-0.135
458.03	-0.132
458.38	-0.132
458.73	-0.131
459.07	-0.124
459.42	-0.133
459.76	-0.144
460.11	-0.162
460.46	-0.174
460.80	-0.193
461.15	-0.226
461.49	-0.268
461.84	-0.282
462.19	-0.311
462.53	-0.332
462.88	-0.368
463.22	-0.380
463.57	-0.383
463.91	-0.375
464.26	-0.358
464.61	-0.370
464.95	-0.357
465.30	-0.346
465.64	-0.351
465.99	-0.348
466.33	-0.350
466.68	-0.332
467.02	-0.322
467.37	-0.327
467.71	-0.323
468.06	-0.327
468.41	-0.327
468.75	-0.321
469.10	-0.336
469.44	-0.347
469.79	-0.353
470.13	-0.340
470.48	-0.365
470.82	-0.387
471.17	-0.401
471.51	-0.430
471.86	-0.454
472.20	-0.456
472.55	-0.466
472.89	-0.448
473.23	-0.446
473.58	-0.434
473.92	-0.440
474.27	-0.440
474.61	-0.429
474.96	-0.426
475.30	-0.434
475.65	-0.436
475.99	-0.443
476.34	-0.439
476.68	-0.442
477.02	-0.434
477.37	-0.449
477.71	-0.443
478.06	-0.413
478.40	-0.373
478.75	-0.334
479.09	-0.280
479.43	-0.229
479.78	-0.185
480.12	-0.151
480.47	-0.120
480.81	-0.083
481.15	-0.042
481.50	-0.019
481.84	-0.001
482.19	0.010
482.53	0.031
482.87	0.041
483.22	0.048
483.56	0.052
483.90	0.051
484.25	0.051
484.59	0.041
484.94	0.024
485.28	0.018
485.62	0.007
485.97	-0.007
486.31	-0.027
486.65	-0.039
487.00	-0.047
487.34	-0.057
487.68	-0.074
488.03	-0.094
488.37	-0.106
488.71	-0.109
489.06	-0.127
489.40	-0.140
489.74	-0.156
490.09	-0.170
490.43	-0.190
490.77	-0.222
491.11	-0.250
491.46	-0.268
491.80	-0.292
492.14	-0.330
492.49	-0.362
492.83	-0.381
493.17	-0.423
493.51	-0.444
493.86	-0.472
494.20	-0.505
494.54	-0.521
494.88	-0.533
495.23	-0.541
495.57	-0.538
495.91	-0.519
496.25	-0.527
496.60	-0.535
496.94	-0.529
497.28	-0.534
497.62	-0.531
497.97	-0.522
498.31	-0.532
498.65	-0.556
498.99	-0.569
499.33	-0.586
499.68	-0.604
500.02	-0.609
500.36	-0.626
500.70	-0.637
501.04	-0.637
501.39	-0.660
501.73	-0.665
502.07	-0.670
502.41	-0.663
502.75	-0.661
503.09	-0.656
503.44	-0.655
503.78	-0.646
504.12	-0.640
504.46	-0.624
504.80	-0.618
505.14	-0.609
505.49	-0.610
505.83	-0.586
506.17	-0.576
506.51	-0.568
506.85	-0.567
507.19	-0.565
507.53	-0.577
507.87	-0.584
508.22	-0.575
508.56	-0.592
508.90	-0.595
509.24	-0.598
509.58	-0.609
509.92	-0.617
510.26	-0.629
510.60	-0.634
510.94	-0.644
511.28	-0.649
511.63	-0.641
511.97	-0.651
512.31	-0.644
512.65	-0.632
512.99	-0.616
513.33	-0.615
513.67	-0.595
514.01	-0.577
514.35	-0.558
514.69	-0.536
515.03	-0.515
515.37	-0.494
515.71	-0.483
516.05	-0.469
516.39	-0.462
516.73	-0.449
517.07	-0.440
517.41	-0.433
517.75	-0.444
518.09	-0.453
518.43	-0.467
518.77	-0.491
519.11	-0.511
519.45	-0.522
519.79	-0.543
520.13	-0.560
520.47	-0.593
520.81	-0.596
521.15	-0.611
521.49	-0.597
521.83	-0.593
522.17	-0.576
522.51	-0.542
522.85	-0.526
523.19	-0.486
523.53	-0.431
523.87	-0.380
524.21	-0.327
524.55	-0.290
524.89	-0.253
525.23	-0.222
525.57	-0.186
525.91	-0.159
526.25	-0.137
526.58	-0.117
526.92	-0.108
527.26	-0.098
527.60	-0.099
527.94	-0.105
528.28	-0.115
528.62	-0.127
528.96	-0.140
529.30	-0.158
529.64	-0.173
529.97	-0.191
530.31	-0.203
530.65	-0.220
530.99	-0.239
531.33	-0.251
531.67	-0.255
532.01	-0.256
532.35	-0.256
532.68	-0.262
533.02	-0.271
533.36	-0.287
533.70	-0.299
534.04	-0.321
534.38	-0.330
534.71	-0.351
535.05	-0.370
535.39	-0.390
535.73	-0.396
536.07	-0.410
536.41	-0.407
536.74	-0.398
537.08	-0.384
537.42	-0.362
537.76	-0.334
538.10	-0.319
538.43	-0.292
538.77	-0.273
539.11	-0.253
539.45	-0.244
539.79	-0.227
540.12	-0.221
540.46	-0.208
540.80	-0.212
541.14	-0.226
541.47	-0.236
541.81	-0.253
542.15	-0.268
542.49	-0.291
542.82	-0.314
543.16	-0.331
543.50	-0.367
543.84	-0.393
544.17	-0.431
544.51	-0.451
544.85	-0.468
545.18	-0.486
545.52	-0.505
545.86	-0.533
546.20	-0.543
546.53	-0.562
546.87	-0.614
547.21	-0.640
547.54	-0.668
547.88	-0.684
548.22	-0.707
548.55	-0.726
548.89	-0.738
549.23	-0.755
549.56	-0.757
549.90	-0.747
550.24	-0.756
550.57	-0.728
550.91	-0.728
551.25	-0.723
551.58	-0.717
551.92	-0.703
552.26	-0.709
552.59	-0.723
552.93	-0.728
553.27	-0.736
553.60	-0.771
553.94	-0.772
554.27	-0.790
554.61	-0.768
554.95	-0.760
555.28	-0.767
555.62	-0.781
555.95	-0.781
556.29	-0.778
556.63	-0.771
556.96	-0.773
557.30	-0.774
557.63	-0.787
557.97	-0.796
558.31	-0.793
558.64	-0.796
558.98	-0.803
559.31	-0.805
559.65	-0.787
559.98	-0.782
560.32	-0.770
560.65	-0.758
560.99	-0.734
561.33	-0.715
561.66	-0.687
562.00	-0.694
562.33	-0.692
562.67	-0.689
563.00	-0.664
563.34	-0.667
563.67	-0.664
564.01	-0.662
564.34	-0.680
564.68	-0.670
565.01	-0.669
565.35	-0.674
565.68	-0.666
566.02	-0.652
566.35	-0.626
566.69	-0.628
567.02	-0.626
567.36	-0.615
567.69	-0.602
568.03	-0.573
568.36	-0.562
568.69	-0.564
569.03	-0.560
569.36	-0.562
569.70	-0.577
570.03	-0.579
570.37	-0.576
570.70	-0.565
571.04	-0.566
571.37	-0.583
571.70	-0.581
572.04	-0.586
572.37	-0.578
572.71	-0.576
573.04	-0.569
573.37	-0.557
573.71	-0.572
574.04	-0.581
574.38	-0.594
574.71	-0.604
575.04	-0.601
575.38	-0.621
575.71	-0.647
576.05	-0.667
576.38	-0.685
576.71	-0.722
577.05	-0.752
577.38	-0.755
577.71	-0.773
578.05	-0.800
578.38	-0.813
578.71	-0.831
579.05	-0.838
579.38	-0.832
579.71	-0.845
580.05	-0.862
580.38	-0.856
580.71	-0.864
581.05	-0.888
581.38	-0.883
581.71	-0.885
582.05	-0.902
582.38	-0.891
582.71	-0.893
583.04	-0.933
583.38	-0.922
583.71	-0.914
584.04	-0.906
584.38	-0.891
584.71	-0.879
585.04	-0.880
585.37	-0.857
585.71	-0.837
586.04	-0.832
586.37	-0.818
586.70	-0.773
587.04	-0.779
587.37	-0.765
587.70	-0.754
588.03	-0.744
588.37	-0.743
588.70	-0.745
589.03	-0.751
589.36	-0.757
589.69	-0.784
590.03	-0.811
590.36	-0.850
590.69	-0.847
591.02	-0.865
591.35	-0.900
591.69	-0.923
592.02	-0.930
592.35	-0.942
592.68	-0.945
593.01	-0.942
593.35	-0.917
593.68	-0.897
594.01	-0.886
594.34	-0.882
594.67	-0.874
595.00	-0.864
595.34	-0.866
595.67	-0.874
596.00	-0.875
596.33	-0.895
596.66	-0.934
596.99	-0.977
597.32	-1.008
597.65	-1.003
597.99	-1.041
598.32	-1.097
598.65	-1.111
598.98	-1.129
599.31	-1.139
599.64	-1.144
599.97	-1.128
600.30	-1.114
600.63	-1.082
600.96	-1.073
601.30	-1.064
601.63	-1.026
601.96	-0.981
602.29	-0.987
602.62	-0.971
602.95	-0.978
603.28	-0.997
603.61	-1.013
603.94	-1.023
604.27	-1.040
604.60	-1.041
604.93	-1.073
605.26	-1.104
605.59	-1.137
605.92	-1.138
606.25	-1.159
606.58	-1.164
606.91	-1.155
607.24	-1.141
607.57	-1.125
607.90	-1.120
608.23	-1.154
608.56	-1.157
608.89	-1.167
609.22	-1.183
609.55	-1.221
609.88	-1.251
610.21	-1.283
610.54	-1.326
610.87	-1.393
611.20	-1.455
611.53	-1.520
611.86	-1.548
612.19	-1.594
612.52	-1.643
612.85	-1.669
613.18	-1.666
613.51	-1.684
613.84	-1.701
614.17	-1.693
614.49	-1.697
614.82	-1.704
615.15	-1.699
615.48	-1.709
615.81	-1.717
616.14	-1.712
616.47	-1.712
616.80	-1.720
617.13	-1.730
617.46	-1.724
617.78	-1.753
618.11	-1.756
618.44	-1.746
618.77	-1.776
619.10	-1.782
619.43	-1.791
619.76	-1.816
620.09	-1.846
620.41	-1.865
620.74	-1.861
621.07	-1.871
621.40	-1.887
621.73	-1.868
622.06	-1.864
622.38	-1.833
622.71	-1.815
623.04	-1.794
623.37	-1.736
623.70	-1.697
624.02	-1.681
624.35	-1.655
624.68	-1.631
625.01	-1.568
625.34	-1.564
625.66	-1.548
625.99	-1.550
626.32	-1.544
626.65	-1.546
626.98	-1.577
627.30	-1.604
627.63	-1.593
627.96	-1.608
628.29	-1.646
628.61	-1.693
628.94	-1.721
629.27	-1.760
629.60	-1.752
629.92	-1.779
630.25	-1.769
630.58	-1.791
630.91	-1.786
631.23	-1.829
631.56	-1.846
631.89	-1.829
632.21	-1.840
632.54	-1.871
632.87	-1.868
633.19	-1.924
633.52	-1.935
633.85	-1.967
634.18	-2.000
634.50	-2.028
634.83	-2.040
635.16	-2.043
635.48	-2.077
635.81	-2.095
636.14	-2.080
636.46	-2.119
636.79	-2.102
637.11	-2.110
637.44	-2.132
637.77	-2.128
638.09	-2.155
638.42	-2.188
638.75	-2.214
639.07	-2.225
639.40	-2.269
639.73	-2.299
640.05	-2.270
640.38	-2.286
640.70	-2.311
641.03	-2.323
641.36	-2.288
641.68	-2.281
642.01	-2.266
642.33	-2.267
642.66	-2.271
642.98	-2.258
643.31	-2.262
643.64	-2.292
643.96	-2.309
644.29	-2.290
644.61	-2.263
644.94	-2.286
645.26	-2.258
645.59	-2.256
645.91	-2.245
646.24	-2.223
646.56	-2.189
646.89	-2.193
647.22	-2.144
647.54	-2.114
647.87	-2.129
648.19	-2.153
648.52	-2.112
648.84	-2.128
649.17	-2.116
649.49	-2.146
649.82	-2.156
650.14	-2.135
650.47	-2.123
650.79	-2.182
651.11	-2.189
651.44	-2.200
651.76	-2.229
652.09	-2.269
652.41	-2.257
652.74	-2.284
653.06	-2.259
653.39	-2.252
653.71	-2.252
654.04	-2.220
654.36	-2.147
654.68	-2.140
655.01	-2.093
655.33	-2.039
655.66	-2.010
655.98	-2.015
656.30	-1.971
656.63	-1.966
656.95	-1.959
657.28	-1.983
657.60	-2.026
657.92	-2.073
658.25	-2.089
658.57	-2.122
658.90	-2.146
659.22	-2.201
659.54	-2.216
659.87	-2.282
660.19	-2.320
660.51	-2.357
660.84	-2.361
661.16	-2.383
661.48	-2.446
661.81	-2.509
662.13	-2.546
662.45	-2.613
662.78	-2.651
663.10	-2.707
663.42	-2.676
663.75	-2.683
664.07	-2.705
664.39	-2.738
664.72	-2.721
665.04	-2.702
665.36	-2.656
665.69	-2.622
666.01	-2.570
666.33	-2.521
666.65	-2.506
666.98	-2.548
667.30	-2.558
667.62	-2.633
667.94	-2.643
668.27	-2.665
668.59	-2.665
668.91	-2.710
669.23	-2.714
669.56	-2.774
669.88	-2.824
670.20	-2.901
670.52	-2.941
670.85	-2.947
671.17	-2.884
671.49	-2.900
671.81	-2.905
672.13	-2.963
672.46	-2.943
672.78	-3.052
673.10	-3.078
673.42	-3.093
673.74	-2.983
674.07	-2.953
674.39	-2.979
674.71	-2.998
675.03	-2.982
675.35	-3.005
675.67	-2.925
676.00	-2.904
676.32	-2.757
676.64	-2.655
676.96	-2.605
677.28	-2.606
677.60	-2.566
677.92	-2.508
678.25	-2.476
678.57	-2.474
678.89	-2.448
679.21	-2.456
679.53	-2.437
679.85	-2.530
680.17	-2.570
680.49	-2.587
680.81	-2.606
681.13	-2.588
681.46	-2.554
681.78	-2.558
682.10	-2.558
682.42	-2.520
682.74	-2.488
683.06	-2.494
683.38	-2.414
683.70	-2.397
684.02	-2.409
684.34	-2.419
684.66	-2.425
684.98	-2.470
685.30	-2.379
685.62	-2.342
685.94	-2.404
686.26	-2.447
686.58	-2.467
686.90	-2.476
687.22	-2.479
687.54	-2.450
687.86	-2.434
688.18	-2.466
688.50	-2.478
688.82	-2.547
689.14	-2.595
689.46	-2.597
689.78	-2.617
690.10	-2.650
690.42	-2.711
690.74	-2.826
691.06	-2.835
691.38	-2.907
691.70	-3.002
692.02	-3.098
692.34	-3.165
692.66	-3.171
692.98	-3.148
693.30	-3.090
693.62	-3.053
693.94	-3.051
694.26	-2.903
694.57	-2.832
694.89	-2.713
695.21	-2.569
695.53	-2.481
695.85	-2.417
696.17	-2.347
696.49	-2.289
696.81	-2.241
697.13	-2.218
697.44	-2.162
697.76	-2.212
698.08	-2.251
698.40	-2.298
698.72	-2.339
699.04	-2.405
699.36	-2.467
699.67	-2.617
699.99	-2.804
700.31	-2.980
700.63	-3.108
700.95	-3.243
701.27	-3.319
701.58	-3.435
701.90	-3.532
702.22	-3.675
702.54	-3.768
702.86	-3.904
703.17	-3.969
703.49	-3.963
703.81	-4.001
704.13	-4.037
704.45	-4.021
704.76	-4.069
705.08	-4.139
705.40	-4.172
705.72	-4.175
706.03	-4.141
706.35	-4.049
706.67	-4.043
706.99	-4.049
707.30	-4.075
707.62	-4.069
707.94	-4.076
708.26	-4.048
708.57	-4.001
708.89	-3.959
709.21	-4.002
709.53	-4.000
709.84	-4.038
710.16	-3.973
710.48	-3.888
710.79	-3.850
711.11	-3.781
711.43	-3.777
711.74	-3.785
712.06	-3.758
712.38	-3.811
712.69	-3.714
713.01	-3.619
713.33	-3.578
713.64	-3.531
713.96	-3.494
714.28	-3.361
714.59	-3.362
714.91	-3.285
715.23	-3.169
715.54	-3.056
715.86	-2.897
716.17	-2.815
716.49	-2.824
716.81	-2.709
717.12	-2.735
717.44	-2.712
717.76	-2.760
718.07	-2.752
718.39	-2.831
718.70	-2.992
719.02	-3.144
719.33	-3.288
719.65	-3.320
719.97	-3.334
720.28	-3.473
720.60	-3.512
720.91	-3.535
721.23	-3.584
721.54	-3.524
721.86	-3.477
722.17	-3.394
722.49	-3.375
722.81	-3.416
723.12	-3.456
723.44	-3.483
723.75	-3.420
724.07	-3.351
724.38	-3.331
724.70	-3.306
725.01	-3.305
725.33	-3.226
725.64	-3.163
725.96	-3.137
726.27	-3.114
726.59	-3.075
726.90	-2.978
727.22	-2.980
727.53	-3.004
727.84	-3.086
728.16	-3.196
728.47	-3.296
728.79	-3.372
729.10	-3.438
729.42	-3.392
729.73	-3.312
730.05	-3.387
730.36	-3.517
730.67	-3.573
730.99	-3.637
731.30	-3.773
731.62	-3.850
731.93	-3.916
732.24	-4.096
732.56	-4.326
732.87	-4.611
733.19	-4.773
733.50	-4.814
733.81	-4.944
734.13	-5.038
734.44	-5.181
734.76	-5.148
735.07	-5.210
735.38	-5.298
735.70	-5.287
736.01	-5.304
736.32	-5.235
736.64	-5.179
736.95	-5.370
737.26	-5.425
737.58	-5.518
737.89	-5.559
738.20	-5.779
738.52	-5.812
738.83	-5.861
739.14	-5.902
739.45	-5.814
739.77	-5.831
740.08	-5.921
740.39	-5.962
740.71	-5.966
741.02	-5.938
741.33	-5.928
741.64	-5.926
741.96	-6.046
742.27	-6.150
742.58	-6.318
742.90	-6.264
743.21	-6.401
743.52	-6.564
743.83	-6.466
744.14	-6.577
744.46	-6.691
744.77	-6.735
745.08	-6.629
745.39	-6.522
745.71	-6.542
746.02	-6.465
746.33	-6.760
746.64	-6.693
746.95	-6.658
747.27	-6.708
747.58	-6.737
747.89	-6.694
748.20	-6.725
748.51	-6.693
748.82	-6.627
749.14	-6.611
749.45	-6.620
749.76	-6.549
750.07	-6.653
750.38	-6.681
750.69	-6.617
751.01	-6.453
751.32	-6.536
751.63	-6.476
751.94	-6.497
752.25	-6.469
752.56	-6.380
752.87	-6.289
753.18	-6.220
753.49	-6.100
753.81	-6.151
754.12	-6.151
754.43	-6.035
754.74	-5.892
755.05	-5.862
755.36	-5.642
755.67	-5.535
755.98	-5.162
756.29	-4.938
756.60	-4.659
756.91	-4.340
757.22	-3.744
757.53	-3.338
757.84	-3.044
758.15	-2.742
758.46	-2.324
758.77	-2.102
759.09	-1.757
759.40	-1.614
759.71	-1.410
760.02	-1.326
760.33	-1.305
760.64	-1.360
760.95	-1.415
761.26	-1.479
761.57	-1.409
761.88	-1.448
762.18	-1.450
762.49	-1.594
762.80	-1.713
763.11	-1.951
763.42	-2.069
763.73	-2.224
764.04	-2.566
764.35	-2.881
764.66	-3.183
764.97	-3.532
765.28	-3.831
765.59	-4.251
765.90	-4.510
766.21	-4.687
766.52	-4.964
766.83	-5.261
767.14	-5.343
767.44	-5.303
767.75	-5.320
768.06	-5.450
768.37	-5.805
768.68	-6.185
768.99	-6.524
769.30	-6.728
769.61	-7.307
769.91	-7.504
770.22	-7.605
770.53	-7.854
770.84	-7.824
771.15	-7.825
771.46	-7.744
771.77	-7.848
772.07	-7.642
772.38	-7.680
772.69	-7.947
773.00	-8.117
773.31	-7.649
773.61	-7.839
773.92	-7.970
774.23	-8.098
774.54	-8.140
774.85	-8.310
775.15	-8.015
775.46	-8.221
775.77	-8.042
776.08	-8.025
776.39	-7.971
776.69	-8.180
777.00	-7.888
777.31	-7.868
777.62	-7.731
777.92	-7.989
778.23	-7.836
778.54	-8.070
778.85	-7.798
779.15	-7.639
779.46	-7.263
779.77	-7.220
780.07	-7.433
780.38	-7.650
780.69	-7.641
781.00	-8.163
781.30	-8.264
781.61	-8.450
781.92	-8.268
782.22	-8.539
782.53	-8.788
782.84	-9.068
783.14	-8.842
783.45	-8.759
783.76	-8.421
784.06	-8.175
784.37	-7.505
784.68	-7.097
784.98	-6.861
785.29	-6.640
785.60	-6.292
785.90	-6.041
786.21	-5.874
786.51	-5.559
786.82	-5.464
787.13	-5.089
787.43	-4.856
787.74	-5.138
788.04	-5.017
788.35	-4.981
788.66	-5.205
788.96	-5.237
789.27	-5.030
789.57	-4.986
789.88	-4.936
790.19	-4.861
790.49	-5.484
790.80	-5.695
791.10	-5.594
791.41	-5.713
791.71	-5.397
792.02	-5.093
792.32	-5.261
792.63	-5.256
792.93	-5.218
793.24	-5.756
793.54	-6.053
793.85	-5.649
794.15	-5.721
794.46	-5.912
794.76	-5.766
795.07	-6.056
795.37	-5.956
795.68	-5.882
795.98	-5.868
796.29	-5.837
796.59	-5.551
796.90	-5.351
797.20	-5.704
797.51	-5.327
797.81	-5.330
798.12	-5.418
798.42	-5.244
798.72	-5.397
799.03	-5.299
799.33	-5.255
799.64	-5.381
799.94	-5.502
800.25	-5.000
800.55	-4.621
800.85	-5.045
801.16	-4.804
801.46	-4.478
801.77	-4.711
802.07	-4.869
802.37	-5.072
802.68	-5.319
802.98	-5.419
803.28	-5.329
803.59	-5.734
803.89	-5.527
804.20	-5.476
804.50	-5.441
804.80	-6.044
805.11	-5.695
805.41	-5.394
805.71	-5.021
806.02	-5.008
806.32	-4.532
806.62	-4.564
806.93	-4.889
807.23	-5.248
807.53	-5.343
807.83	-5.369
808.14	-5.110
808.44	-5.451
808.74	-5.216
809.05	-5.181
809.35	-5.076
809.65	-5.433
809.95	-5.351
810.26	-5.079
810.56	-4.777
810.86	-4.519
811.16	-4.800
811.47	-4.782
811.77	-4.293
812.07	-4.453
812.37	-4.694
812.68	-4.463
812.98	-3.777
813.28	-3.499
813.58	-3.264
813.88	-3.664
814.19	-3.340
814.49	-2.950
814.79	-2.644
815.09	-3.020
815.39	-3.266
815.70	-3.057
816.00	-2.989
816.30	-3.602
816.60	-3.405
816.90	-2.805
817.20	-2.354
817.50	-2.121
817.81	-1.644
818.11	-1.475
818.41	-0.999
818.71	-0.741
819.01	-0.578
819.31	-0.435
819.61	-0.173
819.92	-0.018
820.22	0.020
820.52	0.163
820.82	0.253
821.12	0.288
821.42	0.390
821.72	0.421
822.02	0.469
822.32	0.451
822.62	0.434
822.92	0.396
823.22	0.347
823.52	0.354
823.83	0.224
824.13	0.176
824.43	0.189
824.73	0.132
825.03	0.038
825.33	-0.051
825.63	0.018
825.93	0.056
826.23	0.025
826.53	-0.056
826.83	-0.131
827.13	-0.163
827.43	-0.220
827.73	-0.421
828.03	-0.705
828.33	-1.033
828.63	-0.988
828.93	-1.145
829.23	-1.201
829.53	-1.430
829.83	-1.135
830.13	-1.319
830.42	-1.144
830.72	-1.230
831.02	-1.222
831.32	-1.172
831.62	-0.902
831.92	-0.943
832.22	-0.782
832.52	-1.013
832.82	-0.614
833.12	-0.966
833.42	-0.895
833.72	-0.833
834.01	-0.714
834.31	-0.652
834.61	-0.243
834.91	-0.057
835.21	-0.274
835.51	-0.539
835.81	-0.409
836.11	-0.733
836.40	-0.885
836.70	-1.095
837.00	-1.619
837.30	-2.340
837.60	-2.188
837.90	-2.602
838.19	-2.736
838.49	-2.829
838.79	-2.767
839.09	-3.048
839.39	-2.945
839.68	-3.144
839.98	-3.173
840.28	-3.418
840.58	-3.391
840.88	-4.395
841.17	-5.575
841.47	-6.203
841.77	-6.454
842.07	-6.838
842.36	-7.080
842.66	-8.088
842.96	-6.695
843.26	-8.475
843.55	-8.634
843.85	-8.523
844.15	-9.379
844.45	-7.841
844.74	-7.750
845.04	-7.942
845.34	-8.297
845.63	-9.671
845.93	-8.793
846.23	-10.268
846.53	-8.966
846.82	-9.360
847.12	-9.839
847.42	-9.412
847.71	-10.825
848.01	-10.591
848.31	-9.794
848.60	-10.258
848.90	-10.685
849.19	-10.945
849.49	-10.590
849.79	-10.949
850.08	-9.582
850.38	-9.284
850.68	-8.338
850.97	-6.877
851.27	-6.335
851.56	-6.419
851.86	-6.307
852.16	-4.923
852.45	-5.247
852.75	-7.037
853.04	-7.424
853.34	-8.050
853.64	-9.140
853.93	-10.381
854.23	-12.121
854.52	-14.050
854.82	-13.549
855.11	-13.061
855.41	-12.069
855.70	-11.553
856.00	-10.194
856.30	-9.243
856.59	-10.057
856.89	-8.502
857.18	-7.416
857.48	-6.716
857.77	-7.391
858.07	-7.308
858.36	-6.881
858.66	-7.339
858.95	-6.501
859.25	-6.347
859.54	-8.101
859.84	-8.506
860.13	-10.472
860.42	-9.383
860.72	-8.242
861.01	-7.344
861.31	-9.434
861.60	-10.317
861.90	-11.384
862.19	-13.801
862.49	-13.358
862.78	-8.964
863.07	-8.229
863.37	-7.472
863.66	-8.383
863.96	-10.081
864.25	-9.064
864.54	-7.215
864.84	-7.802
865.13	-7.461
865.43	-8.252
865.72	-0.563
866.01	-1.944
866.31	-20.426
866.60	-15.916
866.89	-25.695
>>>>>End Spectral Data<<<<<
