OOIBase32 Version 2.0.0.6 Data File
++++++++++++++++++++++++++++++++++++
Date: 01-23-2012, 21:52:35
User: Valued Ocean Optics Customer
Spectrometer Serial Number: USB2E2917
Spectrometer Channel: Master
Integration Time (msec): 5
Spectra Averaged: 10
Boxcar Smoothing: 5
Correct for Electrical Dark: Enabled
Time Normalized: Disabled
Dual-beam Reference: Disabled
Reference Channel: Master
Temperature: Not acquired
Spectrometer Type: S2000
ADC Type: USB2000
Number of Pixels in File: 2048
Graph Title: 
>>>>>Begin Spectral Data<<<<<
180.30	0.000
180.67	0.000
181.03	285.845
181.40	-38.372
181.77	3772.867
182.14	-146.062
182.51	134.879
182.88	6960.434
183.25	162.265
183.62	86.273
183.99	29.922
184.36	-474.181
184.73	419.366
185.10	-124.505
185.46	17.673
185.83	110.829
186.20	116.505
186.57	654.156
186.94	142.729
187.31	128.412
187.68	-333.998
188.05	5.812
188.42	37.840
188.78	45.737
189.15	52.267
189.52	45.976
189.89	25.690
190.26	16.191
190.63	22.760
191.00	24.305
191.37	30.137
191.73	29.812
192.10	33.680
192.47	27.079
192.84	22.605
193.21	14.714
193.58	22.354
193.94	20.382
194.31	2.113
194.68	0.366
195.05	-11.192
195.42	-42.569
195.79	-51.431
196.15	-40.836
196.52	-40.048
196.89	-50.157
197.26	-37.455
197.63	-43.205
198.00	-37.276
198.36	-11.943
198.73	-5.446
199.10	6.159
199.47	20.474
199.84	24.877
200.20	27.949
200.57	13.642
200.94	13.785
201.31	-2.462
201.68	3.511
202.04	-9.299
202.41	-2.234
202.78	-5.713
203.15	0.963
203.51	-14.112
203.88	-19.701
204.25	-21.383
204.62	-2.263
204.98	9.659
205.35	29.206
205.72	41.507
206.09	61.967
206.46	59.532
206.82	57.053
207.19	42.691
207.56	34.097
207.92	31.961
208.29	22.498
208.66	20.279
209.03	19.926
209.39	-1.578
209.76	-12.225
210.13	-20.912
210.50	-32.077
210.86	-32.311
211.23	-18.602
211.60	-10.863
211.96	5.753
212.33	13.713
212.70	23.914
213.07	16.382
213.43	21.989
213.80	23.863
214.17	14.639
214.53	19.138
214.90	29.332
215.27	24.213
215.63	18.838
216.00	12.071
216.37	7.898
216.74	-5.469
217.10	-1.942
217.47	-6.016
217.84	-0.924
218.20	19.179
218.57	19.840
218.94	12.515
219.30	16.042
219.67	18.600
220.04	10.658
220.40	10.410
220.77	11.640
221.13	6.924
221.50	8.027
221.87	7.037
222.23	-6.532
222.60	-5.355
222.97	-8.706
223.33	-8.685
223.70	-3.994
224.07	3.552
224.43	6.580
224.80	10.134
225.16	11.998
225.53	13.203
225.90	9.828
226.26	7.829
226.63	5.920
226.99	6.850
227.36	6.514
227.73	4.313
228.09	0.446
228.46	0.580
228.82	1.649
229.19	1.185
229.56	-1.923
229.92	-1.145
230.29	2.016
230.65	3.839
231.02	4.759
231.38	5.099
231.75	6.945
232.12	11.289
232.48	12.762
232.85	10.171
233.21	11.281
233.58	13.048
233.94	14.145
234.31	12.052
234.68	11.240
235.04	10.644
235.41	10.587
235.77	10.882
236.14	10.176
236.50	7.481
236.87	8.736
237.23	6.685
237.60	7.572
237.96	6.982
238.33	7.956
238.69	7.926
239.06	6.591
239.42	6.116
239.79	5.353
240.15	5.176
240.52	5.184
240.88	4.772
241.25	5.527
241.61	5.714
241.98	5.907
242.34	5.908
242.71	6.189
243.07	7.003
243.44	7.435
243.80	7.472
244.17	7.534
244.53	7.589
244.90	7.474
245.26	7.000
245.63	6.663
245.99	6.482
246.36	6.380
246.72	5.785
247.09	5.524
247.45	5.189
247.81	5.166
248.18	4.782
248.54	4.933
248.91	4.931
249.27	5.626
249.64	5.840
250.00	6.155
250.36	6.128
250.73	7.437
251.09	7.730
251.46	8.072
251.82	8.352
252.19	8.848
252.55	8.580
252.91	8.569
253.28	7.452
253.64	7.196
254.01	6.941
254.37	6.452
254.73	5.890
255.10	5.792
255.46	5.553
255.83	5.174
256.19	4.978
256.55	4.972
256.92	5.072
257.28	5.401
257.65	5.507
258.01	5.679
258.37	5.766
258.74	5.686
259.10	5.631
259.46	5.649
259.83	5.912
260.19	5.889
260.55	5.865
260.92	5.819
261.28	5.961
261.64	5.774
262.01	5.500
262.37	5.275
262.73	5.002
263.10	4.895
263.46	5.084
263.82	5.059
264.19	5.000
264.55	5.098
264.91	5.120
265.28	5.166
265.64	4.926
266.00	4.651
266.37	4.734
266.73	5.254
267.09	5.151
267.46	5.297
267.82	4.893
268.18	4.839
268.54	4.775
268.91	4.703
269.27	4.602
269.63	4.831
270.00	5.217
270.36	5.468
270.72	5.406
271.08	5.138
271.45	4.823
271.81	5.225
272.17	5.285
272.53	5.061
272.90	4.822
273.26	4.619
273.62	4.435
273.98	4.143
274.35	3.862
274.71	3.982
275.07	4.520
275.43	4.747
275.80	4.492
276.16	4.777
276.52	4.956
276.88	5.112
277.25	5.217
277.61	5.627
277.97	5.663
278.33	5.698
278.69	5.508
279.06	5.628
279.42	5.288
279.78	5.247
280.14	5.139
280.50	5.298
280.87	5.473
281.23	5.673
281.59	5.466
281.95	5.421
282.31	5.423
282.68	5.455
283.04	5.291
283.40	5.359
283.76	5.403
284.12	5.345
284.48	5.316
284.85	5.186
285.21	5.023
285.57	4.987
285.93	5.082
286.29	5.018
286.65	4.837
287.02	4.713
287.38	4.684
287.74	4.722
288.10	4.780
288.46	4.666
288.82	4.597
289.18	4.650
289.54	4.695
289.91	4.805
290.27	4.910
290.63	5.059
290.99	5.187
291.35	5.379
291.71	5.571
292.07	5.295
292.43	5.226
292.79	5.464
293.16	5.399
293.52	5.414
293.88	5.376
294.24	5.282
294.60	5.103
294.96	5.062
295.32	4.952
295.68	4.670
296.04	5.031
296.40	5.098
296.76	5.061
297.12	5.146
297.49	5.244
297.85	5.269
298.21	5.513
298.57	5.653
298.93	5.689
299.29	5.743
299.65	5.771
300.01	5.617
300.37	5.546
300.73	5.740
301.09	5.879
301.45	5.887
301.81	5.908
302.17	5.848
302.53	5.960
302.89	5.968
303.25	5.993
303.61	6.289
303.97	6.289
304.33	6.388
304.69	6.160
305.05	6.066
305.41	6.021
305.77	5.956
306.13	5.815
306.49	5.758
306.85	5.791
307.21	5.855
307.57	5.803
307.93	5.893
308.29	6.060
308.65	6.028
309.01	5.992
309.37	6.049
309.73	6.086
310.09	6.104
310.45	6.113
310.81	6.069
311.17	5.905
311.53	5.786
311.89	5.872
312.25	5.745
312.61	5.939
312.96	5.915
313.32	5.891
313.68	5.836
314.04	5.985
314.40	5.919
314.76	6.060
315.12	6.334
315.48	6.545
315.84	6.585
316.20	6.775
316.56	6.712
316.92	6.823
317.27	6.838
317.63	6.750
317.99	6.719
318.35	6.762
318.71	6.783
319.07	6.749
319.43	6.769
319.79	6.684
320.15	6.504
320.50	6.467
320.86	6.513
321.22	6.533
321.58	6.787
321.94	6.871
322.30	7.032
322.66	7.053
323.01	7.108
323.37	7.100
323.73	7.208
324.09	7.341
324.45	7.519
324.81	7.576
325.17	7.685
325.52	7.665
325.88	7.695
326.24	7.758
326.60	7.974
326.96	8.203
327.31	8.316
327.67	8.352
328.03	8.459
328.39	8.488
328.75	8.619
329.11	8.763
329.46	8.883
329.82	9.017
330.18	9.165
330.54	9.244
330.90	9.211
331.25	9.175
331.61	9.204
331.97	9.240
332.33	9.288
332.68	9.168
333.04	9.067
333.40	9.096
333.76	9.105
334.11	8.957
334.47	8.821
334.83	8.733
335.19	8.846
335.54	8.934
335.90	8.949
336.26	8.942
336.62	9.067
336.97	9.120
337.33	9.048
337.69	8.940
338.05	8.993
338.40	9.040
338.76	9.108
339.12	9.058
339.48	9.100
339.83	9.135
340.19	9.123
340.55	9.060
340.90	9.019
341.26	9.010
341.62	9.048
341.97	9.064
342.33	9.105
342.69	9.069
343.04	9.040
343.40	8.895
343.76	8.946
344.12	9.020
344.47	8.997
344.83	8.924
345.19	8.904
345.54	8.900
345.90	8.924
346.26	8.824
346.61	8.848
346.97	8.827
347.32	8.822
347.68	8.733
348.04	8.605
348.39	8.697
348.75	8.939
349.11	9.019
349.46	9.030
349.82	8.957
350.18	9.015
350.53	8.953
350.89	8.994
351.24	9.011
351.60	8.984
351.96	8.980
352.31	9.000
352.67	8.808
353.02	8.796
353.38	8.763
353.74	8.754
354.09	8.753
354.45	8.787
354.80	8.807
355.16	8.832
355.52	8.911
355.87	8.945
356.23	8.923
356.58	8.928
356.94	8.910
357.29	8.925
357.65	8.859
358.00	8.819
358.36	8.797
358.72	8.799
359.07	8.841
359.43	8.785
359.78	8.828
360.14	8.804
360.49	8.910
360.85	8.931
361.20	9.042
361.56	9.166
361.91	9.204
362.27	9.248
362.62	9.222
362.98	9.195
363.33	9.218
363.69	9.216
364.04	9.208
364.40	9.187
364.75	9.166
365.11	9.108
365.46	9.094
365.82	9.107
366.17	9.147
366.53	9.239
366.88	9.259
367.24	9.286
367.59	9.313
367.95	9.381
368.30	9.356
368.66	9.461
369.01	9.467
369.37	9.528
369.72	9.538
370.08	9.548
370.43	9.519
370.78	9.538
371.14	9.538
371.49	9.560
371.85	9.589
372.20	9.735
372.56	9.746
372.91	9.749
373.26	9.762
373.62	9.798
373.97	9.827
374.33	9.881
374.68	9.901
375.03	9.921
375.39	9.928
375.74	9.976
376.10	9.935
376.45	9.970
376.80	10.061
377.16	10.101
377.51	10.163
377.87	10.193
378.22	10.228
378.57	10.353
378.93	10.439
379.28	10.565
379.63	10.592
379.99	10.644
380.34	10.688
380.70	10.754
381.05	10.852
381.40	10.904
381.76	10.992
382.11	11.075
382.46	11.054
382.82	11.140
383.17	11.157
383.52	11.216
383.88	11.255
384.23	11.364
384.58	11.390
384.94	11.409
385.29	11.471
385.64	11.539
385.99	11.576
386.35	11.704
386.70	11.727
387.05	11.773
387.41	11.809
387.76	11.897
388.11	11.895
388.47	11.972
388.82	12.033
389.17	12.073
389.52	12.090
389.88	12.157
390.23	12.188
390.58	12.242
390.93	12.325
391.29	12.387
391.64	12.437
391.99	12.503
392.34	12.570
392.70	12.626
393.05	12.720
393.40	12.793
393.75	12.868
394.11	12.905
394.46	12.996
394.81	13.028
395.16	13.043
395.52	13.069
395.87	13.053
396.22	13.055
396.57	13.096
396.92	13.095
397.28	13.136
397.63	13.130
397.98	13.195
398.33	13.249
398.68	13.311
399.04	13.403
399.39	13.462
399.74	13.593
400.09	13.658
400.44	13.711
400.80	13.735
401.15	13.775
401.50	13.824
401.85	13.858
402.20	13.856
402.55	13.889
402.90	13.923
403.26	13.977
403.61	13.995
403.96	14.057
404.31	14.094
404.66	14.172
405.01	14.221
405.36	14.306
405.72	14.314
406.07	14.377
406.42	14.425
406.77	14.465
407.12	14.500
407.47	14.565
407.82	14.595
408.17	14.623
408.53	14.685
408.88	14.730
409.23	14.781
409.58	14.841
409.93	14.881
410.28	14.936
410.63	14.985
410.98	15.053
411.33	15.054
411.68	15.076
412.03	15.120
412.38	15.151
412.73	15.148
413.09	15.129
413.44	15.109
413.79	15.123
414.14	15.108
414.49	15.092
414.84	15.098
415.19	15.118
415.54	15.140
415.89	15.128
416.24	15.084
416.59	15.088
416.94	15.081
417.29	15.106
417.64	15.087
417.99	15.110
418.34	15.144
418.69	15.132
419.04	15.122
419.39	15.117
419.74	15.125
420.09	15.156
420.44	15.177
420.79	15.222
421.14	15.219
421.49	15.254
421.84	15.283
422.19	15.284
422.54	15.334
422.89	15.382
423.24	15.435
423.59	15.496
423.94	15.547
424.29	15.578
424.64	15.624
424.99	15.700
425.34	15.753
425.68	15.808
426.03	15.917
426.38	15.938
426.73	15.990
427.08	16.014
427.43	16.044
427.78	16.081
428.13	16.158
428.48	16.183
428.83	16.217
429.18	16.208
429.53	16.217
429.87	16.231
430.22	16.226
430.57	16.242
430.92	16.261
431.27	16.291
431.62	16.278
431.97	16.272
432.32	16.277
432.67	16.302
433.01	16.360
433.36	16.388
433.71	16.403
434.06	16.452
434.41	16.479
434.76	16.500
435.11	16.489
435.45	16.525
435.80	16.530
436.15	16.528
436.50	16.535
436.85	16.544
437.20	16.535
437.54	16.534
437.89	16.545
438.24	16.556
438.59	16.559
438.94	16.580
439.29	16.592
439.63	16.629
439.98	16.659
440.33	16.662
440.68	16.678
441.03	16.685
441.37	16.682
441.72	16.677
442.07	16.654
442.42	16.678
442.76	16.683
443.11	16.674
443.46	16.674
443.81	16.680
444.16	16.712
444.50	16.732
444.85	16.762
445.20	16.800
445.55	16.834
445.89	16.887
446.24	16.912
446.59	16.952
446.94	17.019
447.28	17.063
447.63	17.140
447.98	17.198
448.32	17.249
448.67	17.298
449.02	17.360
449.37	17.420
449.71	17.451
450.06	17.494
450.41	17.547
450.75	17.577
451.10	17.580
451.45	17.604
451.79	17.610
452.14	17.648
452.49	17.689
452.84	17.723
453.18	17.737
453.53	17.784
453.88	17.829
454.22	17.839
454.57	17.845
454.92	17.919
455.26	17.921
455.61	17.937
455.95	17.938
456.30	17.947
456.65	17.942
456.99	17.959
457.34	17.979
457.69	18.011
458.03	18.035
458.38	18.078
458.73	18.091
459.07	18.132
459.42	18.175
459.76	18.206
460.11	18.241
460.46	18.286
460.80	18.357
461.15	18.409
461.49	18.418
461.84	18.480
462.19	18.536
462.53	18.602
462.88	18.657
463.22	18.718
463.57	18.788
463.91	18.849
464.26	18.904
464.61	18.936
464.95	18.972
465.30	19.022
465.64	19.068
465.99	19.106
466.33	19.117
466.68	19.157
467.02	19.187
467.37	19.215
467.71	19.240
468.06	19.268
468.41	19.321
468.75	19.373
469.10	19.406
469.44	19.433
469.79	19.452
470.13	19.546
470.48	19.544
470.82	19.598
471.17	19.626
471.51	19.647
471.86	19.662
472.20	19.685
472.55	19.705
472.89	19.748
473.23	19.778
473.58	19.784
473.92	19.765
474.27	19.801
474.61	19.793
474.96	19.804
475.30	19.852
475.65	19.897
475.99	19.945
476.34	19.986
476.68	20.035
477.02	20.082
477.37	20.162
477.71	20.238
478.06	20.323
478.40	20.444
478.75	20.608
479.09	20.767
479.43	20.957
479.78	21.217
480.12	21.496
480.47	21.800
480.81	22.140
481.15	22.494
481.50	22.838
481.84	23.258
482.19	23.698
482.53	24.052
482.87	24.272
483.22	24.277
483.56	24.069
483.90	23.753
484.25	23.331
484.59	22.928
484.94	22.609
485.28	22.313
485.62	21.939
485.97	21.513
486.31	21.170
486.65	20.958
487.00	20.956
487.34	21.110
487.68	21.360
488.03	21.691
488.37	21.949
488.71	22.085
489.06	22.150
489.40	22.182
489.74	22.223
490.09	22.258
490.43	22.288
490.77	22.325
491.11	22.369
491.46	22.425
491.80	22.464
492.14	22.498
492.49	22.517
492.83	22.560
493.17	22.616
493.51	22.668
493.86	22.733
494.20	22.788
494.54	22.830
494.88	22.885
495.23	22.906
495.57	22.969
495.91	23.055
496.25	23.113
496.60	23.161
496.94	23.212
497.28	23.262
497.62	23.326
497.97	23.398
498.31	23.486
498.65	23.532
498.99	23.632
499.33	23.702
499.68	23.755
500.02	23.834
500.36	23.894
500.70	23.960
501.04	24.041
501.39	24.083
501.73	24.162
502.07	24.230
502.41	24.329
502.75	24.373
503.09	24.423
503.44	24.493
503.78	24.538
504.12	24.607
504.46	24.663
504.80	24.718
505.14	24.795
505.49	24.843
505.83	24.892
506.17	24.929
506.51	24.974
506.85	25.002
507.19	25.044
507.53	25.097
507.87	25.146
508.22	25.216
508.56	25.251
508.90	25.307
509.24	25.371
509.58	25.418
509.92	25.473
510.26	25.527
510.60	25.641
510.94	25.716
511.28	25.786
511.63	25.853
511.97	25.900
512.31	25.979
512.65	26.010
512.99	26.052
513.33	26.112
513.67	26.174
514.01	26.235
514.35	26.247
514.69	26.286
515.03	26.329
515.37	26.364
515.71	26.409
516.05	26.449
516.39	26.490
516.73	26.531
517.07	26.568
517.41	26.609
517.75	26.630
518.09	26.659
518.43	26.679
518.77	26.720
519.11	26.766
519.45	26.805
519.79	26.830
520.13	26.883
520.47	26.909
520.81	26.944
521.15	26.965
521.49	27.021
521.83	27.073
522.17	27.116
522.51	27.132
522.85	27.170
523.19	27.238
523.53	27.350
523.87	27.474
524.21	27.632
524.55	27.772
524.89	27.901
525.23	28.034
525.57	28.143
525.91	28.246
526.25	28.345
526.58	28.441
526.92	28.501
527.26	28.535
527.60	28.550
527.94	28.521
528.28	28.483
528.62	28.437
528.96	28.370
529.30	28.320
529.64	28.265
529.97	28.199
530.31	28.132
530.65	28.072
530.99	28.027
531.33	27.997
531.67	27.987
532.01	28.007
532.35	28.013
532.68	28.014
533.02	28.021
533.36	28.019
533.70	28.025
534.04	28.009
534.38	28.009
534.71	28.041
535.05	28.031
535.39	28.027
535.73	28.010
536.07	28.013
536.41	28.040
536.74	28.059
537.08	28.096
537.42	28.120
537.76	28.184
538.10	28.235
538.43	28.256
538.77	28.305
539.11	28.338
539.45	28.377
539.79	28.387
540.12	28.386
540.46	28.394
540.80	28.380
541.14	28.367
541.47	28.340
541.81	28.315
542.15	28.289
542.49	28.230
542.82	28.187
543.16	28.146
543.50	28.136
543.84	28.137
544.17	28.130
544.51	28.141
544.85	28.155
545.18	28.147
545.52	28.168
545.86	28.167
546.20	28.207
546.53	28.237
546.87	28.262
547.21	28.302
547.54	28.288
547.88	28.311
548.22	28.305
548.55	28.315
548.89	28.340
549.23	28.340
549.56	28.343
549.90	28.355
550.24	28.380
550.57	28.362
550.91	28.319
551.25	28.321
551.58	28.278
551.92	28.273
552.26	28.281
552.59	28.265
552.93	28.257
553.27	28.250
553.60	28.243
553.94	28.244
554.27	28.224
554.61	28.262
554.95	28.317
555.28	28.340
555.62	28.374
555.95	28.352
556.29	28.362
556.63	28.358
556.96	28.310
557.30	28.317
557.63	28.324
557.97	28.337
558.31	28.303
558.64	28.285
558.98	28.273
559.31	28.244
559.65	28.254
559.98	28.240
560.32	28.213
560.65	28.226
560.99	28.171
561.33	28.116
561.66	28.083
562.00	28.074
562.33	28.002
562.67	27.955
563.00	27.910
563.34	27.860
563.67	27.812
564.01	27.788
564.34	27.762
564.68	27.764
565.01	27.716
565.35	27.688
565.68	27.674
566.02	27.678
566.35	27.684
566.69	27.677
567.02	27.660
567.36	27.638
567.69	27.607
568.03	27.590
568.36	27.554
568.69	27.560
569.03	27.529
569.36	27.480
569.70	27.405
570.03	27.348
570.37	27.303
570.70	27.293
571.04	27.268
571.37	27.216
571.70	27.192
572.04	27.147
572.37	27.099
572.71	27.094
573.04	27.086
573.37	27.111
573.71	27.117
574.04	27.124
574.38	27.113
574.71	27.139
575.04	27.169
575.38	27.171
575.71	27.190
576.05	27.204
576.38	27.197
576.71	27.181
577.05	27.162
577.38	27.178
577.71	27.159
578.05	27.138
578.38	27.106
578.71	27.100
579.05	27.082
579.38	27.043
579.71	27.012
580.05	26.973
580.38	26.950
580.71	26.917
581.05	26.851
581.38	26.804
581.71	26.750
582.05	26.708
582.38	26.656
582.71	26.630
583.04	26.614
583.38	26.600
583.71	26.563
584.04	26.522
584.38	26.486
584.71	26.425
585.04	26.396
585.37	26.338
585.71	26.275
586.04	26.225
586.37	26.127
586.70	26.027
587.04	25.944
587.37	25.872
587.70	25.789
588.03	25.740
588.37	25.702
588.70	25.638
589.03	25.582
589.36	25.543
589.69	25.492
590.03	25.427
590.36	25.383
590.69	25.348
591.02	25.296
591.35	25.232
591.69	25.134
592.02	25.019
592.35	24.929
592.68	24.878
593.01	24.790
593.35	24.709
593.68	24.654
594.01	24.569
594.34	24.496
594.67	24.433
595.00	24.376
595.34	24.318
595.67	24.272
596.00	24.226
596.33	24.163
596.66	24.118
596.99	24.081
597.32	24.033
597.65	24.032
597.99	23.976
598.32	23.907
598.65	23.865
598.98	23.826
599.31	23.774
599.64	23.689
599.97	23.646
600.30	23.592
600.63	23.525
600.96	23.437
601.30	23.337
601.63	23.267
601.96	23.218
602.29	23.136
602.62	23.093
602.95	23.034
603.28	22.987
603.61	22.927
603.94	22.821
604.27	22.744
604.60	22.710
604.93	22.653
605.26	22.590
605.59	22.547
605.92	22.506
606.25	22.427
606.58	22.405
606.91	22.371
607.24	22.352
607.57	22.326
607.90	22.293
608.23	22.219
608.56	22.166
608.89	22.131
609.22	22.059
609.55	21.976
609.88	21.928
610.21	21.865
610.54	21.816
610.87	21.697
611.20	21.637
611.53	21.581
611.86	21.582
612.19	21.597
612.52	21.535
612.85	21.475
613.18	21.498
613.51	21.421
613.84	21.330
614.17	21.262
614.49	21.230
614.82	21.182
615.15	21.105
615.48	21.013
615.81	20.925
616.14	20.868
616.47	20.861
616.80	20.784
617.13	20.771
617.46	20.761
617.78	20.683
618.11	20.622
618.44	20.572
618.77	20.518
619.10	20.457
619.43	20.393
619.76	20.354
620.09	20.256
620.41	20.186
620.74	20.103
621.07	20.006
621.40	19.953
621.73	19.904
622.06	19.832
622.38	19.790
622.71	19.673
623.04	19.589
623.37	19.493
623.70	19.445
624.02	19.386
624.35	19.328
624.68	19.272
625.01	19.242
625.34	19.163
625.66	19.138
625.99	19.105
626.32	19.111
626.65	19.094
626.98	19.065
627.30	19.042
627.63	19.006
627.96	18.954
628.29	18.887
628.61	18.863
628.94	18.831
629.27	18.738
629.60	18.668
629.92	18.594
630.25	18.592
630.58	18.526
630.91	18.474
631.23	18.403
631.56	18.368
631.89	18.364
632.21	18.274
632.54	18.196
632.87	18.162
633.19	18.108
633.52	18.098
633.85	17.994
634.18	17.960
634.50	17.876
634.83	17.895
635.16	17.866
635.48	17.796
635.81	17.747
636.14	17.745
636.46	17.725
636.79	17.666
637.11	17.607
637.44	17.552
637.77	17.512
638.09	17.491
638.42	17.381
638.75	17.321
639.07	17.276
639.40	17.222
639.73	17.183
640.05	17.156
640.38	17.107
640.70	17.047
641.03	17.008
641.36	16.990
641.68	16.954
642.01	16.895
642.33	16.888
642.66	16.852
642.98	16.843
643.31	16.810
643.64	16.735
643.96	16.731
644.29	16.728
644.61	16.729
644.94	16.652
645.26	16.611
645.59	16.636
645.91	16.568
646.24	16.570
646.56	16.542
646.89	16.449
647.22	16.441
647.54	16.398
647.87	16.328
648.19	16.252
648.52	16.244
648.84	16.208
649.17	16.118
649.49	16.072
649.82	16.000
650.14	15.937
650.47	15.919
650.79	15.813
651.11	15.752
651.44	15.745
651.76	15.727
652.09	15.658
652.41	15.602
652.74	15.583
653.06	15.525
653.39	15.542
653.71	15.543
654.04	15.512
654.36	15.507
654.68	15.454
655.01	15.390
655.33	15.355
655.66	15.295
655.98	15.240
656.30	15.193
656.63	15.151
656.95	15.106
657.28	15.073
657.60	15.002
657.92	14.972
658.25	14.952
658.57	14.913
658.90	14.860
659.22	14.886
659.54	14.910
659.87	14.857
660.19	14.833
660.51	14.797
660.84	14.744
661.16	14.738
661.48	14.708
661.81	14.625
662.13	14.627
662.45	14.604
662.78	14.557
663.10	14.488
663.42	14.491
663.75	14.483
664.07	14.395
664.39	14.368
664.72	14.317
665.04	14.271
665.36	14.247
665.69	14.169
666.01	14.112
666.33	14.109
666.65	14.056
666.98	14.014
667.30	13.937
667.62	13.906
667.94	13.847
668.27	13.816
668.59	13.843
668.91	13.865
669.23	13.898
669.56	13.833
669.88	13.802
670.20	13.736
670.52	13.701
670.85	13.715
671.17	13.691
671.49	13.652
671.81	13.661
672.13	13.543
672.46	13.496
672.78	13.386
673.10	13.349
673.42	13.257
673.74	13.329
674.07	13.332
674.39	13.273
674.71	13.223
675.03	13.204
675.35	13.156
675.67	13.219
676.00	13.196
676.32	13.240
676.64	13.254
676.96	13.225
677.28	13.142
677.60	13.134
677.92	13.132
678.25	13.113
678.57	13.102
678.89	13.068
679.21	13.019
679.53	13.041
679.85	12.980
680.17	13.019
680.49	13.031
680.81	13.066
681.13	13.054
681.46	13.108
681.78	13.206
682.10	13.155
682.42	13.199
682.74	13.193
683.06	13.146
683.38	13.119
683.70	13.109
684.02	13.101
684.34	13.022
684.66	13.016
684.98	12.974
685.30	12.976
685.62	13.020
685.94	13.006
686.26	12.968
686.58	12.927
686.90	13.015
687.22	12.975
687.54	12.990
687.86	12.997
688.18	12.941
688.50	12.845
688.82	12.665
689.14	12.598
689.46	12.564
689.78	12.494
690.10	12.475
690.42	12.381
690.74	12.254
691.06	12.178
691.38	12.157
691.70	12.041
692.02	12.054
692.34	12.089
692.66	12.050
692.98	11.978
693.30	12.024
693.62	11.988
693.94	11.983
694.26	12.029
694.57	11.992
694.89	11.985
695.21	12.116
695.53	12.076
695.85	12.060
696.17	12.063
696.49	12.082
696.81	12.093
697.13	12.093
697.44	12.047
697.76	11.961
698.08	11.930
698.40	11.878
698.72	11.748
699.04	11.708
699.36	11.674
699.67	11.638
699.99	11.498
700.31	11.347
700.63	11.259
700.95	11.160
701.27	11.138
701.58	10.994
701.90	10.890
702.22	10.826
702.54	10.736
702.86	10.575
703.17	10.451
703.49	10.445
703.81	10.506
704.13	10.498
704.45	10.544
704.76	10.576
705.08	10.642
705.40	10.538
705.72	10.544
706.03	10.604
706.35	10.675
706.67	10.715
706.99	10.749
707.30	10.623
707.62	10.603
707.94	10.592
708.26	10.479
708.57	10.469
708.89	10.598
709.21	10.590
709.53	10.549
709.84	10.530
710.16	10.541
710.48	10.571
710.79	10.576
711.11	10.575
711.43	10.496
711.74	10.512
712.06	10.514
712.38	10.521
712.69	10.533
713.01	10.576
713.33	10.586
713.64	10.591
713.96	10.543
714.28	10.707
714.59	10.769
714.91	10.869
715.23	11.014
715.54	11.070
715.86	11.191
716.17	11.271
716.49	11.259
716.81	11.230
717.12	11.145
717.44	11.138
717.76	11.101
718.07	11.004
718.39	10.986
718.70	10.899
719.02	10.818
719.33	10.655
719.65	10.490
719.97	10.454
720.28	10.488
720.60	10.466
720.91	10.556
721.23	10.490
721.54	10.625
721.86	10.609
722.17	10.478
722.49	10.548
722.81	10.524
723.12	10.539
723.44	10.610
723.75	10.593
724.07	10.679
724.38	10.604
724.70	10.574
725.01	10.540
725.33	10.530
725.64	10.698
725.96	10.604
726.27	10.561
726.59	10.584
726.90	10.483
727.22	10.445
727.53	10.464
727.84	10.404
728.16	10.325
728.47	10.232
728.79	10.210
729.10	10.050
729.42	9.976
729.73	10.020
730.05	10.045
730.36	10.042
730.67	9.972
730.99	9.883
731.30	9.808
731.62	9.694
731.93	9.580
732.24	9.418
732.56	9.315
732.87	9.182
733.19	9.042
733.50	8.915
733.81	8.788
734.13	8.781
734.44	8.684
734.76	8.654
735.07	8.539
735.38	8.572
735.70	8.607
736.01	8.572
736.32	8.614
736.64	8.672
736.95	8.557
737.26	8.551
737.58	8.429
737.89	8.446
738.20	8.344
738.52	8.391
738.83	8.323
739.14	8.296
739.45	8.267
739.77	8.335
740.08	8.315
740.39	8.245
740.71	8.176
741.02	8.205
741.33	8.141
741.64	8.051
741.96	7.919
742.27	7.765
742.58	7.530
742.90	7.565
743.21	7.442
743.52	7.275
743.83	7.511
744.14	7.385
744.46	7.230
744.77	6.952
745.08	7.240
745.39	7.302
745.71	7.341
746.02	7.441
746.33	7.362
746.64	7.409
746.95	7.423
747.27	7.305
747.58	7.370
747.89	7.574
748.20	7.662
748.51	7.497
748.82	7.596
749.14	7.509
749.45	7.547
749.76	7.609
750.07	7.465
750.38	7.388
750.69	7.414
751.01	7.385
751.32	7.335
751.63	7.409
751.94	7.291
752.25	7.397
752.56	7.469
752.87	7.388
753.18	7.370
753.49	7.505
753.81	7.487
754.12	7.348
754.43	7.438
754.74	7.452
755.05	7.496
755.36	7.709
755.67	7.852
755.98	8.066
756.29	8.379
756.60	8.663
756.91	9.025
757.22	9.419
757.53	9.798
757.84	10.175
758.15	10.563
758.46	10.954
758.77	11.198
759.09	11.337
759.40	11.572
759.71	11.753
760.02	11.662
760.33	11.613
760.64	11.743
760.95	11.761
761.26	11.684
761.57	11.615
761.88	11.522
762.18	11.535
762.49	11.471
762.80	11.362
763.11	11.135
763.42	11.125
763.73	11.011
764.04	10.634
764.35	10.224
764.66	9.985
764.97	9.650
765.28	9.475
765.59	9.173
765.90	8.815
766.21	8.555
766.52	8.205
766.83	7.984
767.14	7.668
767.44	7.558
767.75	7.552
768.06	7.402
768.37	7.284
768.68	7.148
768.99	6.781
769.30	6.633
769.61	6.360
769.91	6.349
770.22	6.145
770.53	6.006
770.84	5.854
771.15	5.800
771.46	5.656
771.77	5.311
772.07	5.171
772.38	5.124
772.69	4.993
773.00	4.995
773.31	5.277
773.61	5.361
773.92	5.516
774.23	5.599
774.54	5.635
774.85	5.555
775.15	6.027
775.46	5.829
775.77	5.957
776.08	5.942
776.39	5.810
776.69	5.690
777.00	5.652
777.31	5.647
777.62	5.843
777.92	5.722
778.23	6.119
778.54	5.692
778.85	5.868
779.15	5.833
779.46	6.142
779.77	6.301
780.07	6.163
780.38	6.077
780.69	5.562
781.00	5.171
781.30	5.062
781.61	4.750
781.92	4.928
782.22	5.117
782.53	5.264
782.84	5.027
783.14	5.136
783.45	5.368
783.76	5.673
784.06	6.303
784.37	6.905
784.68	7.160
784.98	7.515
785.29	7.868
785.60	7.793
785.90	8.006
786.21	8.247
786.51	8.119
786.82	8.012
787.13	8.296
787.43	8.595
787.74	8.587
788.04	8.986
788.35	8.774
788.66	8.597
788.96	8.618
789.27	8.585
789.57	8.511
789.88	8.638
790.19	8.720
790.49	8.606
790.80	8.369
791.10	8.057
791.41	7.692
791.71	7.906
792.02	8.420
792.32	8.120
792.63	8.023
792.93	7.889
793.24	7.724
793.54	7.563
793.85	7.541
794.15	7.494
794.46	7.398
794.76	7.365
795.07	7.052
795.37	6.713
795.68	7.065
795.98	6.985
796.29	7.362
796.59	7.708
796.90	7.609
797.20	7.425
797.51	7.536
797.81	7.747
798.12	7.709
798.42	7.729
798.72	7.300
799.03	7.180
799.33	7.392
799.64	7.297
799.94	6.835
800.25	7.346
800.55	7.581
800.85	7.328
801.16	7.320
801.46	7.859
801.77	7.978
802.07	8.019
802.37	7.725
802.68	7.483
802.98	7.142
803.28	7.354
803.59	6.966
803.89	6.773
804.20	7.035
804.50	7.063
804.80	6.471
805.11	6.606
805.41	6.888
805.71	7.256
806.02	7.216
806.32	7.773
806.62	7.711
806.93	7.734
807.23	7.539
807.53	7.464
807.83	7.528
808.14	7.852
808.44	8.060
808.74	8.249
809.05	8.590
809.35	9.076
809.65	8.650
809.95	8.910
810.26	9.075
810.56	9.465
810.86	9.553
811.16	9.491
811.47	9.460
811.77	9.956
812.07	9.917
812.37	9.690
812.68	9.666
812.98	10.333
813.28	10.754
813.58	10.807
813.88	10.410
814.19	10.597
814.49	10.735
814.79	10.868
815.09	10.511
815.39	10.832
815.70	11.229
816.00	11.084
816.30	10.723
816.60	10.391
816.90	10.574
817.20	10.951
817.50	11.296
817.81	11.599
818.11	11.705
818.41	12.240
818.71	12.180
819.01	12.282
819.31	12.494
819.61	12.625
819.92	12.759
820.22	12.836
820.52	12.955
820.82	12.979
821.12	13.037
821.42	13.164
821.72	13.159
822.02	13.230
822.32	13.259
822.62	13.258
822.92	13.286
823.22	13.263
823.52	13.266
823.83	13.234
824.13	13.181
824.43	13.048
824.73	12.936
825.03	12.819
825.33	12.857
825.63	12.854
825.93	12.755
826.23	12.709
826.53	12.706
826.83	12.808
827.13	12.663
827.43	12.643
827.73	12.757
828.03	12.750
828.33	12.501
828.63	12.353
828.93	11.999
829.23	11.979
829.53	11.854
829.83	11.882
830.13	11.674
830.42	11.743
830.72	11.931
831.02	11.970
831.32	11.859
831.62	11.902
831.92	11.861
832.22	12.023
832.52	11.930
832.82	12.137
833.12	12.174
833.42	12.043
833.72	12.400
834.01	12.394
834.31	12.458
834.61	12.554
834.91	12.615
835.21	12.695
835.51	12.653
835.81	12.532
836.11	11.966
836.40	11.397
836.70	11.448
837.00	10.860
837.30	10.203
837.60	9.882
837.90	9.866
838.19	9.952
838.49	9.682
838.79	9.685
839.09	10.091
839.39	10.176
839.68	10.811
839.98	10.556
840.28	10.286
840.58	10.694
840.88	10.189
841.17	9.845
841.47	9.555
841.77	9.545
842.07	9.418
842.36	9.019
842.66	9.116
842.96	9.136
843.26	8.391
843.55	7.824
843.85	6.491
844.15	6.057
844.45	6.588
844.74	7.233
845.04	6.776
845.34	7.333
845.63	5.880
845.93	5.680
846.23	4.976
846.53	5.752
846.82	5.846
847.12	7.222
847.42	5.959
847.71	4.464
848.01	3.860
848.31	4.248
848.60	3.213
848.90	3.736
849.19	3.779
849.49	4.387
849.79	3.645
850.08	4.325
850.38	3.341
850.68	6.135
850.97	6.756
851.27	6.465
851.56	5.174
851.86	4.116
852.16	5.428
852.45	5.380
852.75	4.357
853.04	5.003
853.34	5.073
853.64	3.191
853.93	2.625
854.23	2.418
854.52	2.239
854.82	4.510
855.11	4.596
855.41	3.671
855.70	3.526
856.00	4.093
856.30	2.540
856.59	1.961
856.89	4.251
857.18	4.310
857.48	4.753
857.77	3.077
858.07	2.027
858.36	1.976
858.66	2.441
858.95	3.263
859.25	2.977
859.54	3.510
859.84	3.196
860.13	3.747
860.42	4.928
860.72	6.067
861.01	6.286
861.31	5.904
861.60	6.100
861.90	5.390
862.19	3.844
862.49	4.607
862.78	7.508
863.07	8.066
863.37	6.562
863.66	5.054
863.96	3.718
864.25	5.740
864.54	6.560
864.84	6.316
865.13	6.743
865.43	6.838
865.72	13.109
866.01	9.643
866.31	-3.331
866.60	2.086
866.89	-1.951
>>>>>End Spectral Data<<<<<
