OOIBase32 Version 2.0.0.6 Data File
++++++++++++++++++++++++++++++++++++
Date: 01-20-2012, 22:24:54
User: Valued Ocean Optics Customer
Spectrometer Serial Number: USB2E2917
Spectrometer Channel: Master
Integration Time (msec): 4
Spectra Averaged: 10
Boxcar Smoothing: 5
Correct for Electrical Dark: Enabled
Time Normalized: Disabled
Dual-beam Reference: Disabled
Reference Channel: Master
Temperature: Not acquired
Spectrometer Type: S2000
ADC Type: USB2000
Number of Pixels in File: 2048
Graph Title: 
>>>>>Begin Spectral Data<<<<<
180.30	0.000
180.67	0.000
181.03	267.155
181.40	39.984
181.77	92.702
182.14	63.231
182.51	53.032
182.88	-99.676
183.25	183.137
183.62	106.400
183.99	-43.710
184.36	126.484
184.73	174.262
185.10	48.592
185.46	85.398
185.83	57.339
186.20	73.235
186.57	84.921
186.94	75.758
187.31	13.303
187.68	-3299.582
188.05	-47.162
188.42	-77.497
188.78	3.825
189.15	-3.085
189.52	3.905
189.89	-19.593
190.26	-4.733
190.63	15.984
191.00	-0.933
191.37	-31.837
191.73	-35.739
192.10	-33.317
192.47	35.692
192.84	13.480
193.21	28.546
193.58	16.940
193.94	23.186
194.31	49.422
194.68	33.690
195.05	28.849
195.42	31.079
195.79	16.669
196.15	6.544
196.52	-7.810
196.89	-2.345
197.26	-32.952
197.63	-33.008
198.00	-35.792
198.36	-64.769
198.73	-58.476
199.10	-27.625
199.47	-3.918
199.84	16.266
200.20	20.901
200.57	18.740
200.94	13.306
201.31	18.858
201.68	20.201
202.04	37.751
202.41	40.445
202.78	24.800
203.15	12.244
203.51	6.800
203.88	6.384
204.25	11.653
204.62	10.490
204.98	17.766
205.35	20.240
205.72	8.649
206.09	1.181
206.46	23.465
206.82	22.298
207.19	23.954
207.56	8.829
207.92	-2.285
208.29	-8.462
208.66	-28.586
209.03	-34.831
209.39	-30.710
209.76	-24.111
210.13	-11.879
210.50	-28.091
210.86	-23.696
211.23	-31.925
211.60	-26.441
211.96	-26.239
212.33	-11.441
212.70	2.400
213.07	-1.909
213.43	-20.411
213.80	-18.879
214.17	-12.852
214.53	-5.042
214.90	-9.170
215.27	1.819
215.63	-2.942
216.00	-8.855
216.37	-14.555
216.74	-21.483
217.10	-17.473
217.47	2.302
217.84	2.133
218.20	-7.598
218.57	-6.689
218.94	-0.532
219.30	-4.892
219.67	-0.847
220.04	4.426
220.40	0.769
220.77	-1.265
221.13	2.320
221.50	1.633
221.87	3.528
222.23	3.776
222.60	1.062
222.97	2.886
223.33	4.747
223.70	1.108
224.07	0.172
224.43	2.427
224.80	4.942
225.16	3.977
225.53	3.747
225.90	3.665
226.26	4.195
226.63	3.989
226.99	3.746
227.36	3.322
227.73	3.849
228.09	3.833
228.46	3.769
228.82	2.803
229.19	2.644
229.56	2.532
229.92	2.311
230.29	1.841
230.65	2.200
231.02	1.910
231.38	1.369
231.75	0.558
232.12	0.545
232.48	0.101
232.85	1.745
233.21	1.960
233.58	1.426
233.94	1.863
234.31	1.661
234.68	0.635
235.04	1.951
235.41	1.944
235.77	2.587
236.14	1.710
236.50	1.540
236.87	2.184
237.23	2.194
237.60	3.724
237.96	4.073
238.33	4.767
238.69	6.022
239.06	5.470
239.42	5.986
239.79	6.032
240.15	6.223
240.52	6.075
240.88	5.726
241.25	5.628
241.61	5.043
241.98	4.971
242.34	4.553
242.71	4.126
243.07	4.178
243.44	3.992
243.80	4.128
244.17	4.315
244.53	4.286
244.90	4.193
245.26	4.455
245.63	4.730
245.99	4.910
246.36	4.952
246.72	4.901
247.09	4.947
247.45	4.610
247.81	4.341
248.18	4.225
248.54	4.214
248.91	4.120
249.27	3.906
249.64	3.974
250.00	3.929
250.36	4.221
250.73	4.213
251.09	4.055
251.46	4.665
251.82	5.023
252.19	5.132
252.55	5.644
252.91	5.819
253.28	6.046
253.64	5.456
254.01	5.219
254.37	4.840
254.73	4.846
255.10	4.641
255.46	4.585
255.83	4.387
256.19	4.319
256.55	4.129
256.92	4.353
257.28	4.294
257.65	4.371
258.01	4.457
258.37	4.451
258.74	4.555
259.10	4.472
259.46	4.435
259.83	4.436
260.19	4.392
260.55	4.392
260.92	4.266
261.28	4.276
261.64	4.271
262.01	3.879
262.37	3.731
262.73	3.419
263.10	3.486
263.46	3.825
263.82	3.878
264.19	3.967
264.55	4.397
264.91	4.611
265.28	4.579
265.64	4.517
266.00	4.524
266.37	4.781
266.73	5.080
267.09	5.105
267.46	4.832
267.82	4.758
268.18	4.584
268.54	4.294
268.91	3.968
269.27	3.915
269.63	3.986
270.00	4.067
270.36	3.796
270.72	3.552
271.08	3.433
271.45	3.591
271.81	3.597
272.17	3.802
272.53	3.825
272.90	3.947
273.26	3.781
273.62	3.755
273.98	3.890
274.35	4.104
274.71	4.248
275.07	4.277
275.43	4.169
275.80	4.295
276.16	4.070
276.52	4.059
276.88	3.914
277.25	4.025
277.61	4.037
277.97	4.110
278.33	4.296
278.69	4.335
279.06	4.490
279.42	4.414
279.78	4.442
280.14	4.690
280.50	4.607
280.87	4.671
281.23	4.697
281.59	4.699
281.95	4.535
282.31	4.332
282.68	4.240
283.04	4.263
283.40	4.346
283.76	4.301
284.12	4.217
284.48	4.193
284.85	4.134
285.21	4.103
285.57	3.935
285.93	3.792
286.29	3.667
286.65	3.596
287.02	3.471
287.38	3.227
287.74	3.106
288.10	2.982
288.46	3.004
288.82	3.073
289.18	3.179
289.54	3.382
289.91	3.555
290.27	3.549
290.63	3.704
290.99	3.941
291.35	4.047
291.71	4.147
292.07	4.270
292.43	4.232
292.79	4.024
293.16	3.900
293.52	3.672
293.88	3.636
294.24	3.905
294.60	3.914
294.96	3.806
295.32	3.946
295.68	3.862
296.04	3.872
296.40	3.894
296.76	3.916
297.12	3.926
297.49	4.011
297.85	4.024
298.21	4.005
298.57	3.994
298.93	3.971
299.29	4.038
299.65	4.081
300.01	4.033
300.37	4.024
300.73	4.094
301.09	4.105
301.45	4.137
301.81	4.265
302.17	4.222
302.53	4.259
302.89	4.274
303.25	4.061
303.61	4.144
303.97	4.174
304.33	4.159
304.69	4.329
305.05	4.201
305.41	4.106
305.77	4.047
306.13	3.998
306.49	3.903
306.85	3.974
307.21	4.105
307.57	4.093
307.93	4.044
308.29	4.110
308.65	4.077
309.01	4.101
309.37	4.243
309.73	4.229
310.09	4.187
310.45	4.280
310.81	4.338
311.17	4.208
311.53	4.273
311.89	4.295
312.25	4.271
312.61	4.284
312.96	4.368
313.32	4.344
313.68	4.339
314.04	4.415
314.40	4.321
314.76	4.226
315.12	4.324
315.48	4.270
315.84	4.340
316.20	4.332
316.56	4.411
316.92	4.487
317.27	4.520
317.63	4.589
317.99	4.662
318.35	4.813
318.71	4.946
319.07	5.144
319.43	5.241
319.79	5.324
320.15	5.337
320.50	5.420
320.86	5.453
321.22	5.507
321.58	5.524
321.94	5.589
322.30	5.679
322.66	5.785
323.01	5.803
323.37	5.950
323.73	6.044
324.09	6.300
324.45	6.341
324.81	6.619
325.17	6.811
325.52	7.128
325.88	7.259
326.24	7.343
326.60	7.574
326.96	7.792
327.31	7.891
327.67	8.178
328.03	8.389
328.39	8.728
328.75	8.764
329.11	8.916
329.46	8.921
329.82	9.116
330.18	9.313
330.54	9.293
330.90	9.312
331.25	9.377
331.61	9.344
331.97	9.312
332.33	9.208
332.68	9.231
333.04	9.223
333.40	9.329
333.76	9.323
334.11	9.323
334.47	9.405
334.83	9.469
335.19	9.538
335.54	9.626
335.90	9.714
336.26	9.686
336.62	9.661
336.97	9.716
337.33	9.739
337.69	9.765
338.05	9.754
338.40	9.839
338.76	9.800
339.12	9.796
339.48	9.696
339.83	9.673
340.19	9.674
340.55	9.760
340.90	9.742
341.26	9.706
341.62	9.695
341.97	9.798
342.33	9.680
342.69	9.784
343.04	9.739
343.40	9.773
343.76	9.815
344.12	9.846
344.47	9.852
344.83	9.884
345.19	9.928
345.54	9.939
345.90	9.873
346.26	9.998
346.61	9.889
346.97	10.009
347.32	10.086
347.68	10.077
348.04	10.146
348.39	10.254
348.75	10.243
349.11	10.248
349.46	10.240
349.82	10.361
350.18	10.302
350.53	10.409
350.89	10.438
351.24	10.398
351.60	10.379
351.96	10.334
352.31	10.274
352.67	10.353
353.02	10.355
353.38	10.358
353.74	10.335
354.09	10.358
354.45	10.412
354.80	10.408
355.16	10.533
355.52	10.523
355.87	10.634
356.23	10.705
356.58	10.697
356.94	10.765
357.29	10.842
357.65	10.866
358.00	10.842
358.36	10.773
358.72	10.782
359.07	10.711
359.43	10.755
359.78	10.752
360.14	10.719
360.49	10.764
360.85	10.742
361.20	10.780
361.56	10.732
361.91	10.775
362.27	10.815
362.62	10.823
362.98	10.876
363.33	10.904
363.69	10.888
364.04	10.915
364.40	10.907
364.75	10.952
365.11	10.957
365.46	11.012
365.82	11.034
366.17	11.049
366.53	11.038
366.88	11.063
367.24	11.073
367.59	11.067
367.95	11.080
368.30	11.122
368.66	11.186
369.01	11.237
369.37	11.247
369.72	11.309
370.08	11.372
370.43	11.464
370.78	11.476
371.14	11.574
371.49	11.651
371.85	11.695
372.20	11.755
372.56	11.777
372.91	11.738
373.26	11.804
373.62	11.875
373.97	11.876
374.33	11.930
374.68	11.959
375.03	11.979
375.39	12.043
375.74	12.075
376.10	12.081
376.45	12.082
376.80	12.194
377.16	12.252
377.51	12.279
377.87	12.367
378.22	12.449
378.57	12.545
378.93	12.594
379.28	12.672
379.63	12.773
379.99	12.827
380.34	12.894
380.70	12.938
381.05	13.029
381.40	13.087
381.76	13.184
382.11	13.210
382.46	13.303
382.82	13.369
383.17	13.448
383.52	13.529
383.88	13.626
384.23	13.671
384.58	13.716
384.94	13.645
385.29	13.627
385.64	13.627
385.99	13.633
386.35	13.621
386.70	13.629
387.05	13.605
387.41	13.599
387.76	13.677
388.11	13.736
388.47	13.770
388.82	13.904
389.17	14.001
389.52	14.049
389.88	14.089
390.23	14.129
390.58	14.195
390.93	14.254
391.29	14.255
391.64	14.200
391.99	14.236
392.34	14.239
392.70	14.233
393.05	14.223
393.40	14.210
393.75	14.231
394.11	14.202
394.46	14.168
394.81	14.164
395.16	14.190
395.52	14.174
395.87	14.107
396.22	14.078
396.57	14.024
396.92	13.959
397.28	13.964
397.63	13.911
397.98	13.875
398.33	13.825
398.68	13.801
399.04	13.747
399.39	13.713
399.74	13.706
400.09	13.708
400.44	13.688
400.80	13.736
401.15	13.710
401.50	13.729
401.85	13.755
402.20	13.807
402.55	13.782
402.90	13.787
403.26	13.774
403.61	13.783
403.96	13.797
404.31	13.823
404.66	13.784
405.01	13.774
405.36	13.747
405.72	13.732
406.07	13.708
406.42	13.684
406.77	13.718
407.12	13.748
407.47	13.713
407.82	13.685
408.17	13.649
408.53	13.636
408.88	13.592
409.23	13.599
409.58	13.583
409.93	13.556
410.28	13.588
410.63	13.528
410.98	13.491
411.33	13.503
411.68	13.489
412.03	13.507
412.38	13.516
412.73	13.531
413.09	13.537
413.44	13.520
413.79	13.546
414.14	13.542
414.49	13.549
414.84	13.572
415.19	13.572
415.54	13.607
415.89	13.626
416.24	13.599
416.59	13.619
416.94	13.618
417.29	13.644
417.64	13.650
417.99	13.643
418.34	13.660
418.69	13.664
419.04	13.678
419.39	13.674
419.74	13.685
420.09	13.721
420.44	13.716
420.79	13.724
421.14	13.713
421.49	13.690
421.84	13.693
422.19	13.682
422.54	13.675
422.89	13.658
423.24	13.658
423.59	13.622
423.94	13.598
424.29	13.583
424.64	13.556
424.99	13.549
425.34	13.535
425.68	13.497
426.03	13.487
426.38	13.472
426.73	13.442
427.08	13.400
427.43	13.384
427.78	13.392
428.13	13.411
428.48	13.390
428.83	13.355
429.18	13.397
429.53	13.405
429.87	13.390
430.22	13.398
430.57	13.427
430.92	13.432
431.27	13.440
431.62	13.436
431.97	13.430
432.32	13.451
432.67	13.445
433.01	13.402
433.36	13.410
433.71	13.425
434.06	13.403
434.41	13.379
434.76	13.381
435.11	13.419
435.45	13.436
435.80	13.455
436.15	13.456
436.50	13.488
436.85	13.520
437.20	13.538
437.54	13.546
437.89	13.563
438.24	13.592
438.59	13.594
438.94	13.552
439.29	13.539
439.63	13.504
439.98	13.524
440.33	13.531
440.68	13.539
441.03	13.536
441.37	13.517
441.72	13.524
442.07	13.543
442.42	13.528
442.76	13.558
443.11	13.573
443.46	13.599
443.81	13.594
444.16	13.606
444.50	13.583
444.85	13.561
445.20	13.582
445.55	13.566
445.89	13.528
446.24	13.530
446.59	13.497
446.94	13.452
447.28	13.393
447.63	13.354
447.98	13.313
448.32	13.311
448.67	13.287
449.02	13.234
449.37	13.216
449.71	13.218
450.06	13.197
450.41	13.200
450.75	13.201
451.10	13.228
451.45	13.209
451.79	13.192
452.14	13.173
452.49	13.181
452.84	13.179
453.18	13.182
453.53	13.175
453.88	13.195
454.22	13.216
454.57	13.245
454.92	13.286
455.26	13.313
455.61	13.387
455.95	13.439
456.30	13.508
456.65	13.545
456.99	13.578
457.34	13.617
457.69	13.663
458.03	13.700
458.38	13.742
458.73	13.761
459.07	13.820
459.42	13.822
459.76	13.823
460.11	13.817
460.46	13.829
460.80	13.865
461.15	13.862
461.49	13.863
461.84	13.864
462.19	13.872
462.53	13.901
462.88	13.909
463.22	13.927
463.57	13.971
463.91	14.000
464.26	14.041
464.61	14.069
464.95	14.104
465.30	14.138
465.64	14.177
465.99	14.193
466.33	14.204
466.68	14.215
467.02	14.223
467.37	14.246
467.71	14.264
468.06	14.276
468.41	14.260
468.75	14.270
469.10	14.274
469.44	14.276
469.79	14.280
470.13	14.294
470.48	14.289
470.82	14.324
471.17	14.327
471.51	14.331
471.86	14.328
472.20	14.332
472.55	14.368
472.89	14.368
473.23	14.357
473.58	14.377
473.92	14.404
474.27	14.431
474.61	14.426
474.96	14.418
475.30	14.429
475.65	14.454
475.99	14.488
476.34	14.478
476.68	14.488
477.02	14.515
477.37	14.538
477.71	14.545
478.06	14.586
478.40	14.664
478.75	14.837
479.09	15.033
479.43	15.250
479.78	15.515
480.12	15.817
480.47	16.127
480.81	16.430
481.15	16.732
481.50	17.034
481.84	17.395
482.19	17.794
482.53	18.130
482.87	18.361
483.22	18.428
483.56	18.307
483.90	18.078
484.25	17.750
484.59	17.381
484.94	17.094
485.28	16.857
485.62	16.539
485.97	16.166
486.31	15.818
486.65	15.571
487.00	15.469
487.34	15.507
487.68	15.622
488.03	15.815
488.37	16.037
488.71	16.149
489.06	16.165
489.40	16.158
489.74	16.164
490.09	16.161
490.43	16.134
490.77	16.135
491.11	16.144
491.46	16.129
491.80	16.116
492.14	16.097
492.49	16.063
492.83	16.059
493.17	16.062
493.51	16.054
493.86	16.079
494.20	16.113
494.54	16.145
494.88	16.195
495.23	16.275
495.57	16.345
495.91	16.422
496.25	16.505
496.60	16.565
496.94	16.658
497.28	16.736
497.62	16.804
497.97	16.878
498.31	16.941
498.65	17.036
498.99	17.137
499.33	17.234
499.68	17.339
500.02	17.454
500.36	17.585
500.70	17.689
501.04	17.806
501.39	17.918
501.73	18.023
502.07	18.154
502.41	18.249
502.75	18.352
503.09	18.492
503.44	18.624
503.78	18.757
504.12	18.871
504.46	19.015
504.80	19.144
505.14	19.272
505.49	19.438
505.83	19.566
506.17	19.724
506.51	19.865
506.85	19.974
507.19	20.089
507.53	20.187
507.87	20.314
508.22	20.427
508.56	20.519
508.90	20.635
509.24	20.733
509.58	20.854
509.92	20.916
510.26	20.991
510.60	21.095
510.94	21.177
511.28	21.244
511.63	21.316
511.97	21.394
512.31	21.505
512.65	21.590
512.99	21.700
513.33	21.792
513.67	21.932
514.01	22.057
514.35	22.182
514.69	22.317
515.03	22.490
515.37	22.621
515.71	22.728
516.05	22.824
516.39	22.928
516.73	22.994
517.07	23.085
517.41	23.144
517.75	23.203
518.09	23.219
518.43	23.248
518.77	23.241
519.11	23.207
519.45	23.214
519.79	23.231
520.13	23.246
520.47	23.282
520.81	23.295
521.15	23.343
521.49	23.387
521.83	23.467
522.17	23.544
522.51	23.646
522.85	23.781
523.19	23.952
523.53	24.129
523.87	24.330
524.21	24.553
524.55	24.775
524.89	24.953
525.23	25.122
525.57	25.272
525.91	25.425
526.25	25.564
526.58	25.700
526.92	25.784
527.26	25.832
527.60	25.858
527.94	25.836
528.28	25.804
528.62	25.764
528.96	25.725
529.30	25.652
529.64	25.566
529.97	25.461
530.31	25.349
530.65	25.230
530.99	25.162
531.33	25.100
531.67	25.064
532.01	25.017
532.35	24.993
532.68	24.953
533.02	24.942
533.36	24.901
533.70	24.851
534.04	24.790
534.38	24.752
534.71	24.695
535.05	24.632
535.39	24.575
535.73	24.530
536.07	24.475
536.41	24.459
536.74	24.445
537.08	24.484
537.42	24.531
537.76	24.595
538.10	24.644
538.43	24.675
538.77	24.722
539.11	24.775
539.45	24.824
539.79	24.859
540.12	24.878
540.46	24.895
540.80	24.878
541.14	24.860
541.47	24.802
541.81	24.771
542.15	24.729
542.49	24.645
542.82	24.541
543.16	24.457
543.50	24.366
543.84	24.247
544.17	24.161
544.51	24.071
544.85	24.006
545.18	23.976
545.52	23.892
545.86	23.837
546.20	23.829
546.53	23.804
546.87	23.746
547.21	23.682
547.54	23.656
547.88	23.604
548.22	23.564
548.55	23.505
548.89	23.420
549.23	23.398
549.56	23.380
549.90	23.312
550.24	23.276
550.57	23.231
550.91	23.209
551.25	23.171
551.58	23.140
551.92	23.113
552.26	23.083
552.59	23.062
552.93	23.028
553.27	22.967
553.60	22.947
553.94	22.896
554.27	22.862
554.61	22.814
554.95	22.772
555.28	22.712
555.62	22.656
555.95	22.609
556.29	22.595
556.63	22.547
556.96	22.517
557.30	22.474
557.63	22.479
557.97	22.415
558.31	22.369
558.64	22.351
558.98	22.309
559.31	22.291
559.65	22.267
559.98	22.252
560.32	22.219
560.65	22.180
560.99	22.154
561.33	22.100
561.66	22.080
562.00	22.072
562.33	22.029
562.67	22.026
563.00	22.007
563.34	21.969
563.67	21.895
564.01	21.859
564.34	21.819
564.68	21.771
565.01	21.715
565.35	21.694
565.68	21.632
566.02	21.594
566.35	21.554
566.69	21.481
567.02	21.458
567.36	21.429
567.69	21.374
568.03	21.318
568.36	21.259
568.69	21.211
569.03	21.128
569.36	21.092
569.70	21.052
570.03	20.984
570.37	20.952
570.70	20.906
571.04	20.868
571.37	20.830
571.70	20.799
572.04	20.774
572.37	20.736
572.71	20.691
573.04	20.642
573.37	20.585
573.71	20.537
574.04	20.482
574.38	20.416
574.71	20.356
575.04	20.331
575.38	20.285
575.71	20.232
576.05	20.158
576.38	20.099
576.71	20.018
577.05	19.969
577.38	19.883
577.71	19.802
578.05	19.715
578.38	19.612
578.71	19.512
579.05	19.449
579.38	19.391
579.71	19.357
580.05	19.319
580.38	19.282
580.71	19.200
581.05	19.194
581.38	19.158
581.71	19.128
582.05	19.077
582.38	19.048
582.71	18.990
583.04	18.933
583.38	18.869
583.71	18.788
584.04	18.770
584.38	18.718
584.71	18.658
585.04	18.615
585.37	18.584
585.71	18.558
586.04	18.504
586.37	18.468
586.70	18.421
587.04	18.388
587.37	18.379
587.70	18.325
588.03	18.260
588.37	18.208
588.70	18.159
589.03	18.084
589.36	18.046
589.69	17.993
590.03	17.915
590.36	17.859
590.69	17.786
591.02	17.718
591.35	17.643
591.69	17.601
592.02	17.540
592.35	17.471
592.68	17.449
593.01	17.411
593.35	17.347
593.68	17.313
594.01	17.282
594.34	17.248
594.67	17.228
595.00	17.201
595.34	17.179
595.67	17.157
596.00	17.154
596.33	17.108
596.66	17.046
596.99	16.993
597.32	16.971
597.65	16.919
597.99	16.875
598.32	16.798
598.65	16.749
598.98	16.671
599.31	16.561
599.64	16.468
599.97	16.401
600.30	16.359
600.63	16.321
600.96	16.257
601.30	16.170
601.63	16.151
601.96	16.124
602.29	16.090
602.62	16.090
602.95	16.101
603.28	16.057
603.61	16.018
603.94	15.994
604.27	15.935
604.60	15.891
604.93	15.870
605.26	15.774
605.59	15.724
605.92	15.667
606.25	15.592
606.58	15.521
606.91	15.490
607.24	15.436
607.57	15.389
607.90	15.379
608.23	15.333
608.56	15.316
608.89	15.309
609.22	15.283
609.55	15.234
609.88	15.181
610.21	15.138
610.54	15.068
610.87	15.050
611.20	14.935
611.53	14.871
611.86	14.819
612.19	14.783
612.52	14.711
612.85	14.632
613.18	14.566
613.51	14.522
613.84	14.462
614.17	14.464
614.49	14.427
614.82	14.478
615.15	14.456
615.48	14.418
615.81	14.304
616.14	14.283
616.47	14.230
616.80	14.176
617.13	14.161
617.46	14.149
617.78	14.109
618.11	14.029
618.44	13.941
618.77	13.889
619.10	13.849
619.43	13.876
619.76	13.823
620.09	13.809
620.41	13.775
620.74	13.760
621.07	13.701
621.40	13.664
621.73	13.618
622.06	13.615
622.38	13.591
622.71	13.550
623.04	13.486
623.37	13.461
623.70	13.450
624.02	13.497
624.35	13.477
624.68	13.468
625.01	13.422
625.34	13.421
625.66	13.393
625.99	13.365
626.32	13.339
626.65	13.334
626.98	13.318
627.30	13.287
627.63	13.212
627.96	13.154
628.29	13.120
628.61	13.137
628.94	13.117
629.27	13.058
629.60	13.056
629.92	13.020
630.25	12.951
630.58	12.921
630.91	12.884
631.23	12.859
631.56	12.830
631.89	12.805
632.21	12.742
632.54	12.732
632.87	12.719
633.19	12.650
633.52	12.617
633.85	12.620
634.18	12.527
634.50	12.511
634.83	12.449
635.16	12.420
635.48	12.363
635.81	12.308
636.14	12.206
636.46	12.168
636.79	12.081
637.11	12.090
637.44	12.049
637.77	12.066
638.09	11.996
638.42	11.990
638.75	11.976
639.07	11.965
639.40	11.883
639.73	11.859
640.05	11.811
640.38	11.788
640.70	11.685
641.03	11.632
641.36	11.660
641.68	11.626
642.01	11.608
642.33	11.527
642.66	11.475
642.98	11.530
643.31	11.487
643.64	11.491
643.96	11.531
644.29	11.557
644.61	11.589
644.94	11.557
645.26	11.562
645.59	11.513
645.91	11.504
646.24	11.486
646.56	11.456
646.89	11.424
647.22	11.387
647.54	11.362
647.87	11.266
648.19	11.201
648.52	11.156
648.84	11.139
649.17	11.109
649.49	11.053
649.82	11.051
650.14	10.958
650.47	11.001
650.79	10.948
651.11	10.870
651.44	10.892
651.76	10.870
652.09	10.813
652.41	10.706
652.74	10.661
653.06	10.635
653.39	10.570
653.71	10.567
654.04	10.572
654.36	10.557
654.68	10.611
655.01	10.574
655.33	10.586
655.66	10.542
655.98	10.543
656.30	10.494
656.63	10.498
656.95	10.509
657.28	10.522
657.60	10.436
657.92	10.392
658.25	10.293
658.57	10.251
658.90	10.140
659.22	10.101
659.54	10.079
659.87	10.053
660.19	9.996
660.51	9.900
660.84	9.764
661.16	9.629
661.48	9.577
661.81	9.526
662.13	9.433
662.45	9.393
662.78	9.384
663.10	9.341
663.42	9.330
663.75	9.241
664.07	9.201
664.39	9.175
664.72	9.143
665.04	9.091
665.36	8.994
665.69	8.993
666.01	8.919
666.33	8.852
666.65	8.763
666.98	8.702
667.30	8.689
667.62	8.653
667.94	8.597
668.27	8.642
668.59	8.590
668.91	8.575
669.23	8.499
669.56	8.514
669.88	8.436
670.20	8.359
670.52	8.279
670.85	8.241
671.17	8.172
671.49	8.126
671.81	8.004
672.13	7.915
672.46	7.920
672.78	7.934
673.10	7.761
673.42	7.722
673.74	7.668
674.07	7.619
674.39	7.505
674.71	7.503
675.03	7.451
675.35	7.441
675.67	7.530
676.00	7.499
676.32	7.467
676.64	7.569
676.96	7.551
677.28	7.626
677.60	7.668
677.92	7.766
678.25	7.744
678.57	7.813
678.89	7.840
679.21	7.811
679.53	7.727
679.85	7.755
680.17	7.697
680.49	7.687
680.81	7.597
681.13	7.615
681.46	7.526
681.78	7.437
682.10	7.317
682.42	7.236
682.74	7.132
683.06	7.180
683.38	7.084
683.70	7.105
684.02	7.128
684.34	7.120
684.66	7.136
684.98	7.131
685.30	7.201
685.62	7.283
685.94	7.266
686.26	7.268
686.58	7.239
686.90	7.171
687.22	7.132
687.54	7.053
687.86	7.000
688.18	6.817
688.50	6.688
688.82	6.543
689.14	6.404
689.46	6.356
689.78	6.275
690.10	6.199
690.42	6.130
690.74	6.052
691.06	5.903
691.38	5.873
691.70	5.741
692.02	5.609
692.34	5.565
692.66	5.449
692.98	5.311
693.30	5.234
693.62	5.201
693.94	5.280
694.26	5.261
694.57	5.338
694.89	5.389
695.21	5.545
695.53	5.669
695.85	5.766
696.17	5.897
696.49	6.059
696.81	6.150
697.13	6.217
697.44	6.197
697.76	6.202
698.08	6.152
698.40	6.005
698.72	5.794
699.04	5.653
699.36	5.413
699.67	5.182
699.99	4.816
700.31	4.460
700.63	4.041
700.95	3.697
701.27	3.259
701.58	2.898
701.90	2.584
702.22	2.403
702.54	2.177
702.86	1.956
703.17	1.774
703.49	1.608
703.81	1.454
704.13	1.350
704.45	1.193
704.76	1.141
705.08	1.000
705.40	1.028
705.72	0.899
706.03	0.905
706.35	0.827
706.67	0.758
706.99	0.768
707.30	0.824
707.62	0.744
707.94	0.731
708.26	0.707
708.57	0.838
708.89	0.787
709.21	0.810
709.53	0.769
709.84	0.841
710.16	0.793
710.48	0.796
710.79	0.783
711.11	0.916
711.43	1.015
711.74	1.195
712.06	1.255
712.38	1.421
712.69	1.625
713.01	1.800
713.33	2.004
713.64	2.337
713.96	2.455
714.28	2.711
714.59	2.960
714.91	3.276
715.23	3.457
715.54	3.679
715.86	3.754
716.17	3.843
716.49	3.783
716.81	3.775
717.12	3.602
717.44	3.627
717.76	3.346
718.07	3.145
718.39	2.698
718.70	2.439
719.02	1.983
719.33	1.761
719.65	1.432
719.97	1.123
720.28	0.901
720.60	0.735
720.91	0.635
721.23	0.705
721.54	0.575
721.86	0.704
722.17	0.640
722.49	0.916
722.81	0.957
723.12	0.951
723.44	1.299
723.75	1.372
724.07	1.429
724.38	1.371
724.70	1.200
725.01	1.236
725.33	1.183
725.64	1.324
725.96	1.311
726.27	1.408
726.59	1.509
726.90	1.485
727.22	1.591
727.53	1.701
727.84	1.656
728.16	1.689
728.47	1.585
728.79	1.386
729.10	1.149
729.42	0.761
729.73	0.355
730.05	0.099
730.36	-0.255
730.67	-0.719
730.99	-1.237
731.30	-1.524
731.62	-1.983
731.93	-2.351
732.24	-2.613
732.56	-3.075
732.87	-3.468
733.19	-3.836
733.50	-4.298
733.81	-4.705
734.13	-5.095
734.44	-5.455
734.76	-5.718
735.07	-5.912
735.38	-6.401
735.70	-6.821
736.01	-7.165
736.32	-7.240
736.64	-7.377
736.95	-7.501
737.26	-7.805
737.58	-8.065
737.89	-8.259
738.20	-8.802
738.52	-9.230
738.83	-9.578
739.14	-10.086
739.45	-10.516
739.77	-11.027
740.08	-11.808
740.39	-12.469
740.71	-12.938
741.02	-13.620
741.33	-14.207
741.64	-14.681
741.96	-15.301
742.27	-15.773
742.58	-16.109
742.90	-16.592
743.21	-17.160
743.52	-17.499
743.83	-17.853
744.14	-18.099
744.46	-18.287
744.77	-18.526
745.08	-18.772
745.39	-18.605
745.71	-18.407
746.02	-18.429
746.33	-18.163
746.64	-18.214
746.95	-18.169
747.27	-18.117
747.58	-17.947
747.89	-17.976
748.20	-17.906
748.51	-17.846
748.82	-17.917
749.14	-18.134
749.45	-17.947
749.76	-18.432
750.07	-18.329
750.38	-18.370
750.69	-18.557
751.01	-19.140
751.32	-19.145
751.63	-19.337
751.94	-19.511
752.25	-19.678
752.56	-19.947
752.87	-20.398
753.18	-20.314
753.49	-20.338
753.81	-20.139
754.12	-19.710
754.43	-19.181
754.74	-18.409
755.05	-17.241
755.36	-15.868
755.67	-14.708
755.98	-12.954
756.29	-11.242
756.60	-9.392
756.91	-7.829
757.22	-5.964
757.53	-4.367
757.84	-2.575
758.15	-0.870
758.46	0.429
758.77	1.750
759.09	2.995
759.40	3.821
759.71	4.505
760.02	5.023
760.33	5.503
760.64	5.476
760.95	5.595
761.26	5.651
761.57	5.353
761.88	4.976
762.18	4.489
762.49	4.063
762.80	3.480
763.11	2.721
763.42	1.882
763.73	0.777
764.04	-0.095
764.35	-1.289
764.66	-2.872
764.97	-4.555
765.28	-6.341
765.59	-8.479
765.90	-10.929
766.21	-13.209
766.52	-15.113
766.83	-17.078
767.14	-18.805
767.44	-20.585
767.75	-22.408
768.06	-23.786
768.37	-25.028
768.68	-26.528
768.99	-27.149
769.30	-28.130
769.61	-29.251
769.91	-30.312
770.22	-31.412
770.53	-31.890
770.84	-33.053
771.15	-33.479
771.46	-34.345
771.77	-34.981
772.07	-34.653
772.38	-35.197
772.69	-35.572
773.00	-35.829
773.31	-36.114
773.61	-36.672
773.92	-37.347
774.23	-36.661
774.54	-37.508
774.85	-37.158
775.15	-37.125
775.46	-37.463
775.77	-36.975
776.08	-36.221
776.39	-36.114
776.69	-36.122
777.00	-35.569
777.31	-34.846
777.62	-35.345
777.92	-34.203
778.23	-35.096
778.54	-34.664
778.85	-34.720
779.15	-35.064
779.46	-35.790
779.77	-35.984
780.07	-35.881
780.38	-36.492
780.69	-36.845
781.00	-36.581
781.30	-37.402
781.61	-36.783
781.92	-37.684
782.22	-37.522
782.53	-37.983
782.84	-37.845
783.14	-36.905
783.45	-36.145
783.76	-34.739
784.06	-33.899
784.37	-32.954
784.68	-31.501
784.98	-30.338
785.29	-28.343
785.60	-26.959
785.90	-25.326
786.21	-23.871
786.51	-22.152
786.82	-21.280
787.13	-20.840
787.43	-20.439
787.74	-19.613
788.04	-19.287
788.35	-19.329
788.66	-20.028
788.96	-20.982
789.27	-21.289
789.57	-21.669
789.88	-23.401
790.19	-23.880
790.49	-24.434
790.80	-25.259
791.10	-26.645
791.41	-26.580
791.71	-26.378
792.02	-25.824
792.32	-24.966
792.63	-24.089
792.93	-23.614
793.24	-22.895
793.54	-22.710
793.85	-21.905
794.15	-20.240
794.46	-18.985
794.76	-18.991
795.07	-18.271
795.37	-18.167
795.68	-16.867
795.98	-17.720
796.29	-17.712
796.59	-17.407
796.90	-17.479
797.20	-16.828
797.51	-16.947
797.81	-17.340
798.12	-17.758
798.42	-18.206
798.72	-17.393
799.03	-18.839
799.33	-18.321
799.64	-18.167
799.94	-18.366
800.25	-18.628
800.55	-19.190
800.85	-19.903
801.16	-19.544
801.46	-18.869
801.77	-18.887
802.07	-19.796
802.37	-18.980
802.68	-19.251
802.98	-19.115
803.28	-18.987
803.59	-19.207
803.89	-19.782
804.20	-19.883
804.50	-20.212
804.80	-20.588
805.11	-20.382
805.41	-20.051
805.71	-20.225
806.02	-19.299
806.32	-19.252
806.62	-19.185
806.93	-18.917
807.23	-18.002
807.53	-17.497
807.83	-17.380
808.14	-17.053
808.44	-16.470
808.74	-16.580
809.05	-15.912
809.35	-16.409
809.65	-16.089
809.95	-15.333
810.26	-13.556
810.56	-13.094
810.86	-12.262
811.16	-11.823
811.47	-10.972
811.77	-10.485
812.07	-9.924
812.37	-9.614
812.68	-8.804
812.98	-8.614
813.28	-7.987
813.58	-8.047
813.88	-7.256
814.19	-6.782
814.49	-5.681
814.79	-5.003
815.09	-3.891
815.39	-2.764
815.70	-2.505
816.00	-1.964
816.30	-0.968
816.60	-0.463
816.90	0.296
817.20	0.631
817.50	1.743
817.81	3.119
818.11	4.290
818.41	5.373
818.71	6.242
819.01	7.257
819.31	8.076
819.61	8.575
819.92	9.067
820.22	9.348
820.52	9.817
820.82	10.088
821.12	10.258
821.42	10.451
821.72	10.493
822.02	10.604
822.32	10.583
822.62	10.487
822.92	10.434
823.22	10.328
823.52	10.242
823.83	9.998
824.13	9.890
824.43	9.753
824.73	9.531
825.03	9.307
825.33	9.003
825.63	8.740
825.93	8.668
826.23	8.428
826.53	8.302
826.83	8.216
827.13	8.033
827.43	7.742
827.73	7.492
828.03	7.061
828.33	6.954
828.63	6.595
828.93	5.825
829.23	5.102
829.53	4.506
829.83	3.898
830.13	3.411
830.42	2.947
830.72	3.103
831.02	3.122
831.32	3.624
831.62	3.393
831.92	3.613
832.22	4.275
832.52	4.393
832.82	4.714
833.12	5.112
833.42	5.271
833.72	5.230
834.01	4.480
834.31	4.414
834.61	3.738
834.91	3.291
835.21	2.897
835.51	2.151
835.81	1.140
836.11	-0.025
836.40	-2.236
836.70	-3.997
837.00	-5.171
837.30	-5.410
837.60	-7.510
837.90	-7.690
838.19	-8.669
838.49	-9.961
838.79	-10.423
839.09	-10.306
839.39	-10.533
839.68	-11.102
839.98	-11.424
840.28	-12.377
840.58	-13.853
840.88	-15.332
841.17	-17.844
841.47	-19.108
841.77	-20.590
842.07	-23.554
842.36	-27.501
842.66	-30.872
842.96	-33.815
843.26	-36.340
843.55	-38.657
843.85	-40.757
844.15	-43.332
844.45	-41.381
844.74	-41.851
845.04	-45.123
845.34	-45.597
845.63	-42.644
845.93	-43.706
846.23	-46.184
846.53	-48.501
846.82	-50.404
847.12	-54.094
847.42	-50.680
847.71	-56.768
848.01	-59.804
848.31	-57.126
848.60	-53.584
848.90	-53.925
849.19	-51.505
849.49	-51.006
849.79	-50.143
850.08	-54.139
850.38	-52.784
850.68	-53.003
850.97	-51.035
851.27	-49.958
851.56	-52.626
851.86	-54.061
852.16	-55.474
852.45	-60.210
852.75	-56.690
853.04	-56.448
853.34	-49.118
853.64	-49.809
853.93	-49.062
854.23	-49.599
854.52	-47.485
854.82	-44.479
855.11	-47.104
855.41	-48.203
855.70	-42.409
856.00	-45.356
856.30	-48.461
856.59	-46.737
856.89	-47.695
857.18	-51.728
857.48	-51.625
857.77	-53.943
858.07	-54.761
858.36	-55.443
858.66	-57.305
858.95	-63.092
859.25	-60.292
859.54	-61.133
859.84	-65.257
860.13	-59.353
860.42	-55.011
860.72	-52.886
861.01	-52.276
861.31	-52.729
861.60	-47.709
861.90	-47.173
862.19	-43.396
862.49	-42.266
862.78	-37.861
863.07	-37.695
863.37	-38.069
863.66	-43.095
863.96	-42.703
864.25	-37.715
864.54	-36.639
864.84	-35.174
865.13	-33.896
865.43	-33.332
865.72	-10.460
866.01	-52.408
866.31	-12.901
866.60	-55.061
866.89	-16.572
>>>>>End Spectral Data<<<<<
