OOIBase32 Version 2.0.0.6 Data File
++++++++++++++++++++++++++++++++++++
Date: 01-20-2012, 22:26:08
User: Valued Ocean Optics Customer
Spectrometer Serial Number: USB2E2917
Spectrometer Channel: Master
Integration Time (msec): 4
Spectra Averaged: 10
Boxcar Smoothing: 5
Correct for Electrical Dark: Enabled
Time Normalized: Disabled
Dual-beam Reference: Disabled
Reference Channel: Master
Temperature: Not acquired
Spectrometer Type: S2000
ADC Type: USB2000
Number of Pixels in File: 2048
Graph Title: 
>>>>>Begin Spectral Data<<<<<
180.30	0.000
180.67	0.000
181.03	175.157
181.40	44.448
181.77	66.083
182.14	-41.178
182.51	58.199
182.88	-60.157
183.25	36.992
183.62	50.434
183.99	49.898
184.36	110.739
184.73	148.588
185.10	37.356
185.46	197.878
185.83	-9.727
186.20	-345.256
186.57	38.570
186.94	219.525
187.31	-115.623
187.68	425.932
188.05	-18.062
188.42	-66.678
188.78	1.192
189.15	-14.663
189.52	-38.305
189.89	-58.221
190.26	-35.916
190.63	-6.676
191.00	-35.845
191.37	-63.697
191.73	-75.817
192.10	-106.185
192.47	-44.388
192.84	-70.395
193.21	-85.829
193.58	-82.886
193.94	-100.130
194.31	-56.330
194.68	-32.664
195.05	-19.768
195.42	-16.026
195.79	-23.410
196.15	-26.288
196.52	-50.811
196.89	-87.294
197.26	-70.388
197.63	-51.620
198.00	-28.866
198.36	-50.059
198.73	-53.482
199.10	-34.382
199.47	-24.791
199.84	-20.210
200.20	-13.127
200.57	-21.294
200.94	-22.855
201.31	-22.057
201.68	-37.335
202.04	-30.819
202.41	-31.712
202.78	-37.647
203.15	-53.229
203.51	-55.763
203.88	-23.246
204.25	-5.892
204.62	18.433
204.98	43.653
205.35	49.646
205.72	70.025
206.09	58.589
206.46	84.289
206.82	87.283
207.19	63.580
207.56	53.113
207.92	40.099
208.29	17.546
208.66	0.782
209.03	-14.568
209.39	-19.872
209.76	-31.863
210.13	-13.619
210.50	-21.038
210.86	-3.336
211.23	2.016
211.60	-2.907
211.96	-12.244
212.33	-6.479
212.70	-7.046
213.07	-1.943
213.43	-9.436
213.80	-9.478
214.17	-6.634
214.53	-3.189
214.90	-9.531
215.27	-1.262
215.63	-1.373
216.00	1.993
216.37	17.712
216.74	18.976
217.10	17.679
217.47	19.035
217.84	20.953
218.20	10.297
218.57	0.508
218.94	-5.272
219.30	-11.185
219.67	-7.593
220.04	-1.207
220.40	-11.655
220.77	-7.882
221.13	-7.332
221.50	-4.832
221.87	1.340
222.23	4.410
222.60	2.648
222.97	5.263
223.33	3.830
223.70	0.788
224.07	1.037
224.43	3.228
224.80	1.845
225.16	1.898
225.53	1.399
225.90	0.567
226.26	0.422
226.63	0.822
226.99	0.757
227.36	1.669
227.73	2.732
228.09	2.779
228.46	2.655
228.82	2.580
229.19	2.492
229.56	2.964
229.92	3.202
230.29	3.571
230.65	5.922
231.02	6.292
231.38	5.351
231.75	3.425
232.12	3.542
232.48	4.095
232.85	4.255
233.21	3.918
233.58	3.122
233.94	2.163
234.31	2.588
234.68	-1.689
235.04	-1.501
235.41	-0.774
235.77	1.351
236.14	0.473
236.50	-0.404
236.87	0.784
237.23	1.362
237.60	2.155
237.96	2.753
238.33	2.135
238.69	3.271
239.06	2.934
239.42	3.419
239.79	3.109
240.15	3.277
240.52	3.447
240.88	3.240
241.25	2.972
241.61	2.749
241.98	2.820
242.34	3.256
242.71	3.146
243.07	3.390
243.44	2.987
243.80	3.151
244.17	2.832
244.53	2.675
244.90	2.612
245.26	2.980
245.63	3.060
245.99	3.126
246.36	3.040
246.72	3.106
247.09	3.043
247.45	2.947
247.81	2.565
248.18	2.812
248.54	2.761
248.91	2.814
249.27	2.417
249.64	2.390
250.00	2.195
250.36	2.109
250.73	1.994
251.09	1.882
251.46	2.197
251.82	2.492
252.19	2.471
252.55	2.930
252.91	2.872
253.28	3.125
253.64	2.648
254.01	2.557
254.37	2.383
254.73	2.356
255.10	2.419
255.46	2.252
255.83	2.386
256.19	2.400
256.55	2.370
256.92	2.441
257.28	2.390
257.65	2.714
258.01	2.777
258.37	2.848
258.74	2.871
259.10	2.734
259.46	2.650
259.83	2.480
260.19	2.396
260.55	2.400
260.92	2.404
261.28	2.545
261.64	2.404
262.01	2.360
262.37	2.166
262.73	2.090
263.10	2.255
263.46	2.623
263.82	3.016
264.19	2.961
264.55	2.917
264.91	3.095
265.28	2.858
265.64	2.961
266.00	2.910
266.37	2.979
266.73	3.124
267.09	3.191
267.46	3.332
267.82	3.245
268.18	3.272
268.54	3.263
268.91	2.863
269.27	2.876
269.63	2.684
270.00	2.484
270.36	2.315
270.72	1.991
271.08	1.820
271.45	1.548
271.81	1.341
272.17	1.483
272.53	1.494
272.90	1.790
273.26	1.701
273.62	1.815
273.98	2.146
274.35	2.308
274.71	2.625
275.07	2.715
275.43	2.760
275.80	3.042
276.16	2.697
276.52	2.623
276.88	2.244
277.25	2.388
277.61	2.446
277.97	2.416
278.33	2.520
278.69	2.490
279.06	2.349
279.42	2.246
279.78	2.227
280.14	2.631
280.50	2.720
280.87	2.900
281.23	2.927
281.59	2.841
281.95	2.719
282.31	2.664
282.68	2.599
283.04	2.781
283.40	2.978
283.76	3.003
284.12	2.911
284.48	2.833
284.85	2.791
285.21	2.863
285.57	2.739
285.93	2.863
286.29	2.895
286.65	2.994
287.02	3.041
287.38	2.912
287.74	2.939
288.10	2.929
288.46	3.053
288.82	3.294
289.18	3.306
289.54	3.695
289.91	3.710
290.27	3.694
290.63	3.937
290.99	4.188
291.35	4.489
291.71	4.692
292.07	5.115
292.43	5.376
292.79	5.476
293.16	5.749
293.52	5.850
293.88	6.210
294.24	6.642
294.60	6.814
294.96	6.883
295.32	7.034
295.68	7.190
296.04	7.221
296.40	7.355
296.76	7.540
297.12	7.696
297.49	7.920
297.85	7.997
298.21	8.030
298.57	8.175
298.93	8.429
299.29	8.855
299.65	9.004
300.01	9.316
300.37	9.589
300.73	9.865
301.09	10.090
301.45	10.359
301.81	10.661
302.17	10.987
302.53	11.167
302.89	11.225
303.25	11.121
303.61	11.242
303.97	11.278
304.33	11.332
304.69	11.572
305.05	11.508
305.41	11.337
305.77	11.365
306.13	11.418
306.49	11.459
306.85	11.579
307.21	11.738
307.57	11.875
307.93	11.951
308.29	12.049
308.65	12.028
309.01	12.156
309.37	12.439
309.73	12.455
310.09	12.480
310.45	12.546
310.81	12.628
311.17	12.559
311.53	12.602
311.89	12.668
312.25	12.679
312.61	12.617
312.96	12.687
313.32	12.578
313.68	12.571
314.04	12.667
314.40	12.731
314.76	12.746
315.12	12.791
315.48	12.780
315.84	12.810
316.20	12.871
316.56	12.818
316.92	12.714
317.27	12.733
317.63	12.709
317.99	12.521
318.35	12.447
318.71	12.470
319.07	12.607
319.43	12.694
319.79	12.582
320.15	12.491
320.50	12.552
320.86	12.549
321.22	12.523
321.58	12.472
321.94	12.488
322.30	12.306
322.66	12.123
323.01	12.059
323.37	11.934
323.73	11.874
324.09	11.764
324.45	11.691
324.81	11.704
325.17	11.590
325.52	11.605
325.88	11.591
326.24	11.644
326.60	11.628
326.96	11.504
327.31	11.464
327.67	11.566
328.03	11.636
328.39	11.688
328.75	11.709
329.11	11.818
329.46	11.711
329.82	11.681
330.18	11.633
330.54	11.642
330.90	11.585
331.25	11.482
331.61	11.345
331.97	11.253
332.33	11.122
332.68	11.017
333.04	10.933
333.40	10.964
333.76	10.993
334.11	11.016
334.47	11.033
334.83	11.070
335.19	11.067
335.54	10.997
335.90	11.056
336.26	10.990
336.62	10.951
336.97	10.823
337.33	10.765
337.69	10.640
338.05	10.591
338.40	10.502
338.76	10.420
339.12	10.410
339.48	10.449
339.83	10.341
340.19	10.410
340.55	10.408
340.90	10.415
341.26	10.387
341.62	10.409
341.97	10.355
342.33	10.271
342.69	10.332
343.04	10.237
343.40	10.195
343.76	10.192
344.12	10.102
344.47	10.062
344.83	10.025
345.19	10.031
345.54	9.988
345.90	10.028
346.26	10.064
346.61	9.925
346.97	10.005
347.32	10.001
347.68	10.004
348.04	10.068
348.39	10.071
348.75	10.011
349.11	9.878
349.46	9.802
349.82	9.743
350.18	9.667
350.53	9.657
350.89	9.580
351.24	9.480
351.60	9.426
351.96	9.260
352.31	9.192
352.67	9.231
353.02	9.235
353.38	9.219
353.74	9.184
354.09	9.196
354.45	9.247
354.80	9.197
355.16	9.221
355.52	9.098
355.87	9.129
356.23	9.091
356.58	9.046
356.94	9.089
357.29	9.100
357.65	9.091
358.00	9.031
358.36	8.922
358.72	8.875
359.07	8.833
359.43	8.808
359.78	8.786
360.14	8.729
360.49	8.665
360.85	8.630
361.20	8.513
361.56	8.454
361.91	8.463
362.27	8.466
362.62	8.457
362.98	8.399
363.33	8.422
363.69	8.404
364.04	8.366
364.40	8.335
364.75	8.311
365.11	8.344
365.46	8.303
365.82	8.215
366.17	8.149
366.53	8.105
366.88	8.098
367.24	8.006
367.59	7.909
367.95	7.922
368.30	7.920
368.66	7.839
369.01	7.807
369.37	7.816
369.72	7.852
370.08	7.895
370.43	7.903
370.78	7.880
371.14	7.960
371.49	7.925
371.85	7.939
372.20	7.946
372.56	7.957
372.91	7.879
373.26	7.831
373.62	7.820
373.97	7.701
374.33	7.658
374.68	7.643
375.03	7.551
375.39	7.570
375.74	7.514
376.10	7.455
376.45	7.400
376.80	7.405
377.16	7.372
377.51	7.312
377.87	7.355
378.22	7.354
378.57	7.368
378.93	7.377
379.28	7.421
379.63	7.371
379.99	7.369
380.34	7.367
380.70	7.399
381.05	7.378
381.40	7.366
381.76	7.362
382.11	7.351
382.46	7.302
382.82	7.280
383.17	7.247
383.52	7.247
383.88	7.185
384.23	7.149
384.58	7.145
384.94	7.142
385.29	7.113
385.64	7.072
385.99	7.040
386.35	6.977
386.70	6.916
387.05	6.857
387.41	6.841
387.76	6.869
388.11	6.873
388.47	6.839
388.82	6.829
389.17	6.839
389.52	6.860
389.88	6.876
390.23	6.919
390.58	6.969
390.93	7.006
391.29	6.980
391.64	6.977
391.99	6.975
392.34	6.959
392.70	6.942
393.05	6.890
393.40	6.825
393.75	6.751
394.11	6.667
394.46	6.618
394.81	6.545
395.16	6.493
395.52	6.378
395.87	6.314
396.22	6.193
396.57	6.152
396.92	6.083
397.28	6.020
397.63	5.995
397.98	5.941
398.33	5.873
398.68	5.836
399.04	5.789
399.39	5.748
399.74	5.653
400.09	5.652
400.44	5.583
400.80	5.591
401.15	5.584
401.50	5.555
401.85	5.559
402.20	5.578
402.55	5.534
402.90	5.504
403.26	5.518
403.61	5.562
403.96	5.562
404.31	5.561
404.66	5.544
405.01	5.486
405.36	5.426
405.72	5.405
406.07	5.335
406.42	5.329
406.77	5.357
407.12	5.324
407.47	5.269
407.82	5.226
408.17	5.196
408.53	5.165
408.88	5.156
409.23	5.168
409.58	5.110
409.93	5.085
410.28	5.044
410.63	4.991
410.98	4.977
411.33	4.941
411.68	4.934
412.03	4.909
412.38	4.895
412.73	4.933
413.09	4.937
413.44	4.954
413.79	5.003
414.14	5.033
414.49	5.048
414.84	5.073
415.19	5.119
415.54	5.172
415.89	5.238
416.24	5.268
416.59	5.265
416.94	5.285
417.29	5.338
417.64	5.343
417.99	5.349
418.34	5.364
418.69	5.388
419.04	5.395
419.39	5.393
419.74	5.385
420.09	5.400
420.44	5.414
420.79	5.426
421.14	5.409
421.49	5.402
421.84	5.389
422.19	5.373
422.54	5.359
422.89	5.359
423.24	5.337
423.59	5.294
423.94	5.255
424.29	5.218
424.64	5.177
424.99	5.139
425.34	5.097
425.68	5.057
426.03	5.042
426.38	4.982
426.73	4.920
427.08	4.874
427.43	4.872
427.78	4.859
428.13	4.846
428.48	4.842
428.83	4.834
429.18	4.844
429.53	4.858
429.87	4.840
430.22	4.847
430.57	4.849
430.92	4.847
431.27	4.861
431.62	4.860
431.97	4.847
432.32	4.824
432.67	4.796
433.01	4.771
433.36	4.748
433.71	4.735
434.06	4.707
434.41	4.685
434.76	4.688
435.11	4.670
435.45	4.657
435.80	4.677
436.15	4.685
436.50	4.694
436.85	4.706
437.20	4.732
437.54	4.740
437.89	4.753
438.24	4.770
438.59	4.766
438.94	4.753
439.29	4.751
439.63	4.721
439.98	4.701
440.33	4.714
440.68	4.710
441.03	4.697
441.37	4.695
441.72	4.710
442.07	4.726
442.42	4.729
442.76	4.754
443.11	4.768
443.46	4.787
443.81	4.819
444.16	4.823
444.50	4.830
444.85	4.817
445.20	4.812
445.55	4.766
445.89	4.719
446.24	4.682
446.59	4.635
446.94	4.577
447.28	4.518
447.63	4.441
447.98	4.381
448.32	4.317
448.67	4.271
449.02	4.229
449.37	4.200
449.71	4.184
450.06	4.157
450.41	4.150
450.75	4.156
451.10	4.167
451.45	4.157
451.79	4.141
452.14	4.118
452.49	4.091
452.84	4.094
453.18	4.107
453.53	4.097
453.88	4.108
454.22	4.101
454.57	4.111
454.92	4.134
455.26	4.149
455.61	4.194
455.95	4.233
456.30	4.295
456.65	4.300
456.99	4.316
457.34	4.350
457.69	4.378
458.03	4.387
458.38	4.390
458.73	4.376
459.07	4.375
459.42	4.337
459.76	4.302
460.11	4.243
460.46	4.204
460.80	4.176
461.15	4.097
461.49	4.036
461.84	3.992
462.19	3.945
462.53	3.914
462.88	3.869
463.22	3.856
463.57	3.849
463.91	3.843
464.26	3.851
464.61	3.840
464.95	3.860
465.30	3.855
465.64	3.858
465.99	3.840
466.33	3.829
466.68	3.829
467.02	3.811
467.37	3.804
467.71	3.781
468.06	3.760
468.41	3.735
468.75	3.721
469.10	3.693
469.44	3.666
469.79	3.646
470.13	3.614
470.48	3.589
470.82	3.577
471.17	3.555
471.51	3.570
471.86	3.543
472.20	3.513
472.55	3.502
472.89	3.492
473.23	3.461
473.58	3.438
473.92	3.438
474.27	3.432
474.61	3.420
474.96	3.411
475.30	3.382
475.65	3.397
475.99	3.390
476.34	3.372
476.68	3.370
477.02	3.367
477.37	3.388
477.71	3.394
478.06	3.438
478.40	3.506
478.75	3.617
479.09	3.738
479.43	3.864
479.78	4.009
480.12	4.154
480.47	4.296
480.81	4.440
481.15	4.570
481.50	4.700
481.84	4.821
482.19	4.959
482.53	5.076
482.87	5.156
483.22	5.169
483.56	5.138
483.90	5.060
484.25	4.953
484.59	4.824
484.94	4.719
485.28	4.621
485.62	4.506
485.97	4.360
486.31	4.215
486.65	4.106
487.00	4.044
487.34	4.014
487.68	4.014
488.03	4.029
488.37	4.053
488.71	4.038
489.06	4.014
489.40	3.985
489.74	3.962
490.09	3.931
490.43	3.890
490.77	3.852
491.11	3.803
491.46	3.744
491.80	3.681
492.14	3.620
492.49	3.562
492.83	3.479
493.17	3.399
493.51	3.306
493.86	3.222
494.20	3.157
494.54	3.124
494.88	3.112
495.23	3.109
495.57	3.116
495.91	3.111
496.25	3.099
496.60	3.101
496.94	3.109
497.28	3.108
497.62	3.093
497.97	3.058
498.31	3.012
498.65	2.965
498.99	2.951
499.33	2.926
499.68	2.909
500.02	2.909
500.36	2.876
500.70	2.859
501.04	2.853
501.39	2.846
501.73	2.857
502.07	2.864
502.41	2.887
502.75	2.865
503.09	2.864
503.44	2.882
503.78	2.878
504.12	2.888
504.46	2.884
504.80	2.902
505.14	2.936
505.49	2.967
505.83	2.978
506.17	2.984
506.51	3.018
506.85	3.028
507.19	3.026
507.53	3.027
507.87	3.049
508.22	3.049
508.56	3.030
508.90	3.028
509.24	3.008
509.58	3.007
509.92	2.995
510.26	2.975
510.60	2.952
510.94	2.919
511.28	2.901
511.63	2.884
511.97	2.875
512.31	2.870
512.65	2.837
512.99	2.842
513.33	2.861
513.67	2.903
514.01	2.937
514.35	2.984
514.69	3.037
515.03	3.079
515.37	3.104
515.71	3.146
516.05	3.192
516.39	3.234
516.73	3.235
517.07	3.234
517.41	3.212
517.75	3.203
518.09	3.188
518.43	3.165
518.77	3.147
519.11	3.123
519.45	3.085
519.79	3.052
520.13	3.022
520.47	3.019
520.81	3.007
521.15	3.014
521.49	2.999
521.83	3.001
522.17	3.017
522.51	3.050
522.85	3.104
523.19	3.183
523.53	3.258
523.87	3.360
524.21	3.459
524.55	3.553
524.89	3.623
525.23	3.691
525.57	3.752
525.91	3.814
526.25	3.853
526.58	3.888
526.92	3.908
527.26	3.928
527.60	3.925
527.94	3.909
528.28	3.885
528.62	3.868
528.96	3.843
529.30	3.812
529.64	3.776
529.97	3.749
530.31	3.707
530.65	3.669
530.99	3.636
531.33	3.611
531.67	3.598
532.01	3.582
532.35	3.564
532.68	3.540
533.02	3.528
533.36	3.499
533.70	3.466
534.04	3.449
534.38	3.427
534.71	3.390
535.05	3.351
535.39	3.309
535.73	3.277
536.07	3.252
536.41	3.263
536.74	3.271
537.08	3.295
537.42	3.328
537.76	3.353
538.10	3.391
538.43	3.425
538.77	3.455
539.11	3.495
539.45	3.520
539.79	3.543
540.12	3.559
540.46	3.572
540.80	3.565
541.14	3.562
541.47	3.553
541.81	3.543
542.15	3.517
542.49	3.489
542.82	3.433
543.16	3.398
543.50	3.372
543.84	3.336
544.17	3.294
544.51	3.263
544.85	3.214
545.18	3.182
545.52	3.123
545.86	3.093
546.20	3.058
546.53	3.043
546.87	3.020
547.21	2.954
547.54	2.906
547.88	2.872
548.22	2.854
548.55	2.832
548.89	2.799
549.23	2.791
549.56	2.786
549.90	2.789
550.24	2.781
550.57	2.766
550.91	2.781
551.25	2.780
551.58	2.768
551.92	2.753
552.26	2.759
552.59	2.734
552.93	2.721
553.27	2.701
553.60	2.677
553.94	2.687
554.27	2.676
554.61	2.660
554.95	2.651
555.28	2.650
555.62	2.660
555.95	2.634
556.29	2.661
556.63	2.671
556.96	2.671
557.30	2.675
557.63	2.656
557.97	2.670
558.31	2.676
558.64	2.684
558.98	2.685
559.31	2.681
559.65	2.698
559.98	2.709
560.32	2.709
560.65	2.718
560.99	2.724
561.33	2.743
561.66	2.772
562.00	2.796
562.33	2.800
562.67	2.814
563.00	2.817
563.34	2.833
563.67	2.836
564.01	2.863
564.34	2.887
564.68	2.922
565.01	2.934
565.35	2.930
565.68	2.928
566.02	2.925
566.35	2.929
566.69	2.963
567.02	2.980
567.36	2.999
567.69	3.003
568.03	2.995
568.36	2.989
568.69	2.989
569.03	2.982
569.36	2.968
569.70	2.979
570.03	2.999
570.37	2.984
570.70	2.989
571.04	2.983
571.37	2.984
571.70	3.003
572.04	2.996
572.37	2.999
572.71	2.988
573.04	3.019
573.37	3.012
573.71	2.992
574.04	3.004
574.38	2.977
574.71	2.967
575.04	2.955
575.38	2.938
575.71	2.936
576.05	2.917
576.38	2.906
576.71	2.873
577.05	2.856
577.38	2.823
577.71	2.769
578.05	2.760
578.38	2.725
578.71	2.685
579.05	2.655
579.38	2.642
579.71	2.612
580.05	2.612
580.38	2.599
580.71	2.596
581.05	2.610
581.38	2.626
581.71	2.624
582.05	2.638
582.38	2.668
582.71	2.675
583.04	2.690
583.38	2.720
583.71	2.760
584.04	2.791
584.38	2.827
584.71	2.848
585.04	2.846
585.37	2.877
585.71	2.892
586.04	2.893
586.37	2.924
586.70	2.911
587.04	2.912
587.37	2.909
587.70	2.887
588.03	2.858
588.37	2.843
588.70	2.856
589.03	2.859
589.36	2.867
589.69	2.867
590.03	2.864
590.36	2.879
590.69	2.875
591.02	2.850
591.35	2.865
591.69	2.883
592.02	2.898
592.35	2.913
592.68	2.926
593.01	2.934
593.35	2.963
593.68	2.983
594.01	2.979
594.34	2.994
594.67	3.010
595.00	3.013
595.34	3.043
595.67	3.052
596.00	3.029
596.33	3.020
596.66	3.017
596.99	2.978
597.32	2.951
597.65	2.953
597.99	2.952
598.32	2.944
598.65	2.932
598.98	2.901
599.31	2.869
599.64	2.867
599.97	2.852
600.30	2.864
600.63	2.885
600.96	2.879
601.30	2.891
601.63	2.902
601.96	2.893
602.29	2.921
602.62	2.937
602.95	2.959
603.28	2.991
603.61	2.991
603.94	2.986
604.27	2.960
604.60	2.983
604.93	2.968
605.26	2.957
605.59	2.981
605.92	2.970
606.25	2.948
606.58	2.945
606.91	2.941
607.24	2.954
607.57	2.962
607.90	2.976
608.23	2.953
608.56	2.958
608.89	2.952
609.22	2.932
609.55	2.902
609.88	2.890
610.21	2.873
610.54	2.848
610.87	2.817
611.20	2.770
611.53	2.748
611.86	2.719
612.19	2.693
612.52	2.688
612.85	2.675
613.18	2.688
613.51	2.697
613.84	2.655
614.17	2.632
614.49	2.667
614.82	2.699
615.15	2.689
615.48	2.703
615.81	2.692
616.14	2.653
616.47	2.619
616.80	2.596
617.13	2.585
617.46	2.618
617.78	2.632
618.11	2.599
618.44	2.554
618.77	2.545
619.10	2.539
619.43	2.546
619.76	2.553
620.09	2.582
620.41	2.566
620.74	2.570
621.07	2.562
621.40	2.558
621.73	2.533
622.06	2.540
622.38	2.610
622.71	2.624
623.04	2.616
623.37	2.674
623.70	2.672
624.02	2.722
624.35	2.689
624.68	2.695
625.01	2.705
625.34	2.710
625.66	2.714
625.99	2.679
626.32	2.662
626.65	2.671
626.98	2.628
627.30	2.617
627.63	2.583
627.96	2.603
628.29	2.590
628.61	2.597
628.94	2.613
629.27	2.609
629.60	2.601
629.92	2.591
630.25	2.562
630.58	2.541
630.91	2.542
631.23	2.507
631.56	2.511
631.89	2.529
632.21	2.505
632.54	2.493
632.87	2.477
633.19	2.458
633.52	2.449
633.85	2.473
634.18	2.459
634.50	2.444
634.83	2.426
635.16	2.383
635.48	2.359
635.81	2.329
636.14	2.269
636.46	2.257
636.79	2.243
637.11	2.222
637.44	2.180
637.77	2.166
638.09	2.116
638.42	2.113
638.75	2.113
639.07	2.095
639.40	2.061
639.73	2.070
640.05	2.048
640.38	1.997
640.70	1.972
641.03	1.940
641.36	1.959
641.68	1.981
642.01	1.997
642.33	1.976
642.66	1.948
642.98	1.942
643.31	1.956
643.64	1.955
643.96	1.993
644.29	2.017
644.61	2.053
644.94	2.063
645.26	2.091
645.59	2.088
645.91	2.116
646.24	2.110
646.56	2.131
646.89	2.100
647.22	2.128
647.54	2.167
647.87	2.153
648.19	2.167
648.52	2.171
648.84	2.118
649.17	2.107
649.49	2.076
649.82	2.066
650.14	2.007
650.47	1.980
650.79	1.936
651.11	1.865
651.44	1.893
651.76	1.879
652.09	1.813
652.41	1.811
652.74	1.777
653.06	1.756
653.39	1.734
653.71	1.776
654.04	1.811
654.36	1.789
654.68	1.795
655.01	1.744
655.33	1.726
655.66	1.698
655.98	1.689
656.30	1.650
656.63	1.669
656.95	1.701
657.28	1.692
657.60	1.689
657.92	1.659
658.25	1.636
658.57	1.575
658.90	1.509
659.22	1.457
659.54	1.393
659.87	1.346
660.19	1.239
660.51	1.122
660.84	1.024
661.16	0.885
661.48	0.785
661.81	0.690
662.13	0.649
662.45	0.582
662.78	0.576
663.10	0.535
663.42	0.559
663.75	0.584
664.07	0.523
664.39	0.443
664.72	0.395
665.04	0.421
665.36	0.398
665.69	0.368
666.01	0.338
666.33	0.286
666.65	0.272
666.98	0.207
667.30	0.132
667.62	0.150
667.94	0.189
668.27	0.140
668.59	0.108
668.91	0.044
669.23	0.002
669.56	-0.057
669.88	-0.131
670.20	-0.236
670.52	-0.277
670.85	-0.282
671.17	-0.336
671.49	-0.441
671.81	-0.462
672.13	-0.535
672.46	-0.578
672.78	-0.634
673.10	-0.709
673.42	-0.769
673.74	-0.820
674.07	-0.866
674.39	-0.977
674.71	-1.015
675.03	-1.083
675.35	-1.053
675.67	-1.000
676.00	-0.997
676.32	-1.014
676.64	-0.944
676.96	-0.874
677.28	-0.777
677.60	-0.775
677.92	-0.691
678.25	-0.661
678.57	-0.592
678.89	-0.588
679.21	-0.682
679.53	-0.734
679.85	-0.720
680.17	-0.777
680.49	-0.799
680.81	-0.857
681.13	-0.842
681.46	-0.911
681.78	-0.982
682.10	-1.063
682.42	-1.143
682.74	-1.153
683.06	-1.073
683.38	-1.086
683.70	-1.047
684.02	-1.086
684.34	-1.094
684.66	-1.080
684.98	-1.035
685.30	-1.037
685.62	-0.955
685.94	-0.945
686.26	-0.938
686.58	-0.983
686.90	-1.004
687.22	-1.049
687.54	-1.104
687.86	-1.204
688.18	-1.368
688.50	-1.535
688.82	-1.624
689.14	-1.768
689.46	-1.846
689.78	-1.903
690.10	-2.021
690.42	-2.149
690.74	-2.261
691.06	-2.338
691.38	-2.412
691.70	-2.477
692.02	-2.559
692.34	-2.584
692.66	-2.730
692.98	-2.844
693.30	-2.887
693.62	-2.906
693.94	-2.852
694.26	-2.800
694.57	-2.763
694.89	-2.632
695.21	-2.454
695.53	-2.291
695.85	-2.216
696.17	-2.047
696.49	-1.928
696.81	-1.890
697.13	-1.846
697.44	-1.863
697.76	-1.926
698.08	-1.978
698.40	-2.100
698.72	-2.324
699.04	-2.603
699.36	-2.868
699.67	-3.118
699.99	-3.495
700.31	-3.862
700.63	-4.239
700.95	-4.655
701.27	-5.092
701.58	-5.514
701.90	-5.913
702.22	-6.184
702.54	-6.421
702.86	-6.627
703.17	-6.867
703.49	-6.907
703.81	-7.059
704.13	-7.193
704.45	-7.226
704.76	-7.210
705.08	-7.247
705.40	-7.145
705.72	-7.241
706.03	-7.216
706.35	-7.293
706.67	-7.337
706.99	-7.470
707.30	-7.447
707.62	-7.499
707.94	-7.575
708.26	-7.572
708.57	-7.528
708.89	-7.622
709.21	-7.571
709.53	-7.598
709.84	-7.566
710.16	-7.590
710.48	-7.507
710.79	-7.572
711.11	-7.436
711.43	-7.367
711.74	-7.179
712.06	-7.082
712.38	-6.922
712.69	-6.795
713.01	-6.565
713.33	-6.338
713.64	-6.084
713.96	-5.973
714.28	-5.617
714.59	-5.375
714.91	-5.004
715.23	-4.754
715.54	-4.483
715.86	-4.350
716.17	-4.222
716.49	-4.291
716.81	-4.340
717.12	-4.420
717.44	-4.401
717.76	-4.709
718.07	-4.969
718.39	-5.447
718.70	-5.985
719.02	-6.577
719.33	-6.986
719.65	-7.300
719.97	-7.555
720.28	-7.761
720.60	-7.804
720.91	-7.766
721.23	-7.690
721.54	-7.786
721.86	-7.653
722.17	-7.574
722.49	-7.253
722.81	-7.123
723.12	-7.068
723.44	-6.967
723.75	-6.859
724.07	-7.040
724.38	-7.221
724.70	-7.321
725.01	-7.325
725.33	-7.355
725.64	-7.127
725.96	-7.045
726.27	-6.950
726.59	-6.911
726.90	-6.781
727.22	-6.799
727.53	-6.685
727.84	-6.636
728.16	-6.565
728.47	-6.497
728.79	-6.706
729.10	-7.089
729.42	-7.370
729.73	-7.766
730.05	-8.193
730.36	-8.732
730.67	-9.167
730.99	-9.673
731.30	-10.008
731.62	-10.624
731.93	-11.168
732.24	-11.520
732.56	-11.987
732.87	-12.485
733.19	-12.839
733.50	-13.173
733.81	-13.497
734.13	-13.827
734.44	-14.303
734.76	-14.657
735.07	-14.915
735.38	-15.393
735.70	-15.824
736.01	-16.190
736.32	-16.398
736.64	-16.700
736.95	-16.904
737.26	-17.200
737.58	-17.603
737.89	-17.698
738.20	-18.237
738.52	-18.520
738.83	-18.762
739.14	-19.220
739.45	-19.760
739.77	-20.439
740.08	-21.158
740.39	-21.762
740.71	-22.281
741.02	-23.118
741.33	-23.910
741.64	-24.712
741.96	-25.435
742.27	-26.118
742.58	-26.649
742.90	-27.216
743.21	-27.650
743.52	-27.867
743.83	-28.230
744.14	-28.528
744.46	-28.598
744.77	-28.739
745.08	-28.781
745.39	-28.528
745.71	-28.282
746.02	-28.144
746.33	-27.655
746.64	-27.692
746.95	-27.653
747.27	-27.326
747.58	-26.936
747.89	-26.876
748.20	-26.900
748.51	-26.615
748.82	-26.759
749.14	-27.047
749.45	-26.916
749.76	-27.569
750.07	-27.590
750.38	-27.796
750.69	-28.380
751.01	-29.050
751.32	-29.151
751.63	-29.192
751.94	-29.441
752.25	-29.623
752.56	-29.848
752.87	-30.351
753.18	-30.126
753.49	-30.132
753.81	-29.981
754.12	-29.548
754.43	-29.020
754.74	-28.083
755.05	-26.795
755.36	-25.473
755.67	-24.394
755.98	-22.642
756.29	-20.868
756.60	-18.980
756.91	-17.341
757.22	-15.479
757.53	-13.598
757.84	-11.637
758.15	-9.882
758.46	-8.524
758.77	-7.149
759.09	-5.814
759.40	-4.807
759.71	-3.912
760.02	-3.375
760.33	-2.814
760.64	-2.668
760.95	-2.566
761.26	-2.441
761.57	-2.637
761.88	-2.874
762.18	-3.349
762.49	-3.722
762.80	-4.375
763.11	-5.237
763.42	-6.045
763.73	-7.163
764.04	-8.196
764.35	-9.501
764.66	-11.311
764.97	-13.091
765.28	-15.067
765.59	-17.213
765.90	-19.826
766.21	-22.369
766.52	-24.528
766.83	-26.921
767.14	-28.955
767.44	-30.843
767.75	-33.032
768.06	-34.537
768.37	-35.872
768.68	-37.715
768.99	-39.007
769.30	-39.938
769.61	-40.921
769.91	-41.781
770.22	-42.412
770.53	-42.816
770.84	-44.209
771.15	-44.483
771.46	-45.155
771.77	-46.186
772.07	-45.651
772.38	-46.109
772.69	-46.965
773.00	-47.101
773.31	-47.358
773.61	-48.237
773.92	-48.895
774.23	-47.889
774.54	-48.875
774.85	-48.542
775.15	-48.675
775.46	-49.094
775.77	-48.320
776.08	-47.308
776.39	-47.460
776.69	-47.673
777.00	-47.272
777.31	-46.900
777.62	-47.090
777.92	-46.350
778.23	-47.343
778.54	-46.605
778.85	-46.809
779.15	-47.214
779.46	-47.682
779.77	-47.921
780.07	-48.021
780.38	-48.389
780.69	-48.842
781.00	-49.250
781.30	-49.247
781.61	-48.661
781.92	-49.730
782.22	-49.531
782.53	-49.662
782.84	-49.139
783.14	-48.299
783.45	-47.648
783.76	-46.334
784.06	-45.110
784.37	-43.636
784.68	-42.116
784.98	-41.237
785.29	-38.982
785.60	-37.913
785.90	-36.468
786.21	-35.408
786.51	-33.757
786.82	-32.193
787.13	-31.579
787.43	-31.117
787.74	-30.277
788.04	-30.236
788.35	-30.159
788.66	-30.692
788.96	-31.067
789.27	-31.262
789.57	-32.110
789.88	-33.447
790.19	-34.085
790.49	-34.424
790.80	-34.925
791.10	-36.173
791.41	-36.094
791.71	-35.534
792.02	-35.303
792.32	-34.636
792.63	-34.048
792.93	-32.828
793.24	-31.855
793.54	-32.016
793.85	-31.121
794.15	-29.817
794.46	-29.357
794.76	-29.465
795.07	-29.027
795.37	-28.963
795.68	-28.112
795.98	-28.880
796.29	-28.939
796.59	-29.009
796.90	-28.940
797.20	-28.820
797.51	-29.223
797.81	-29.101
798.12	-29.550
798.42	-30.095
798.72	-29.350
799.03	-30.157
799.33	-29.397
799.64	-29.516
799.94	-29.121
800.25	-29.013
800.55	-29.235
800.85	-29.628
801.16	-29.588
801.46	-28.546
801.77	-28.155
802.07	-28.953
802.37	-28.495
802.68	-28.968
802.98	-29.564
803.28	-29.952
803.59	-30.021
803.89	-30.494
804.20	-30.253
804.50	-30.436
804.80	-31.568
805.11	-31.684
805.41	-31.074
805.71	-31.315
806.02	-30.588
806.32	-30.551
806.62	-30.765
806.93	-30.693
807.23	-30.433
807.53	-31.195
807.83	-30.923
808.14	-30.449
808.44	-30.244
808.74	-30.631
809.05	-29.885
809.35	-29.986
809.65	-28.944
809.95	-27.777
810.26	-27.025
810.56	-26.659
810.86	-23.939
811.16	-23.236
811.47	-21.915
811.77	-21.382
812.07	-20.467
812.37	-19.729
812.68	-18.195
812.98	-17.025
813.28	-16.408
813.58	-16.210
813.88	-15.426
814.19	-15.708
814.49	-14.900
814.79	-14.173
815.09	-13.031
815.39	-11.859
815.70	-11.591
816.00	-11.562
816.30	-11.233
816.60	-11.105
816.90	-9.777
817.20	-8.678
817.50	-7.473
817.81	-5.834
818.11	-4.278
818.41	-3.041
818.71	-2.036
819.01	-1.045
819.31	-0.186
819.61	0.354
819.92	0.951
820.22	1.277
820.52	1.682
820.82	2.075
821.12	2.354
821.42	2.593
821.72	2.668
822.02	2.714
822.32	2.711
822.62	2.681
822.92	2.627
823.22	2.617
823.52	2.566
823.83	2.379
824.13	2.102
824.43	1.824
824.73	1.418
825.03	1.250
825.33	0.908
825.63	0.677
825.93	0.498
826.23	0.347
826.53	0.068
826.83	-0.136
827.13	-0.504
827.43	-0.624
827.73	-1.057
828.03	-1.454
828.33	-2.101
828.63	-2.393
828.93	-3.357
829.23	-4.361
829.53	-4.933
829.83	-5.676
830.13	-6.416
830.42	-6.519
830.72	-6.586
831.02	-6.130
831.32	-5.307
831.62	-4.899
831.92	-4.784
832.22	-4.314
832.52	-3.992
832.82	-4.301
833.12	-4.245
833.42	-3.690
833.72	-3.923
834.01	-4.594
834.31	-4.960
834.61	-6.241
834.91	-6.937
835.21	-7.719
835.51	-8.481
835.81	-9.852
836.11	-10.535
836.40	-12.285
836.70	-14.636
837.00	-15.787
837.30	-16.846
837.60	-18.784
837.90	-19.207
838.19	-20.146
838.49	-20.519
838.79	-21.330
839.09	-21.591
839.39	-22.019
839.68	-21.742
839.98	-22.288
840.28	-23.631
840.58	-26.233
840.88	-28.811
841.17	-30.509
841.47	-33.752
841.77	-36.433
842.07	-39.807
842.36	-43.531
842.66	-47.828
842.96	-52.746
843.26	-56.837
843.55	-58.204
843.85	-58.655
844.15	-58.758
844.45	-57.335
844.74	-54.748
845.04	-55.577
845.34	-55.322
845.63	-54.122
845.93	-57.367
846.23	-59.403
846.53	-62.303
846.82	-66.721
847.12	-68.505
847.42	-64.779
847.71	-67.547
848.01	-71.743
848.31	-69.450
848.60	-68.329
848.90	-71.537
849.19	-67.769
849.49	-73.272
849.79	-72.699
850.08	-77.143
850.38	-75.189
850.68	-81.070
850.97	-83.049
851.27	-82.220
851.56	-89.516
851.86	-91.705
852.16	-92.260
852.45	-95.842
852.75	-83.446
853.04	-84.029
853.34	-77.444
853.64	-78.097
853.93	-71.935
854.23	-72.569
854.52	-70.082
854.82	-64.091
855.11	-64.938
855.41	-61.889
855.70	-55.454
856.00	-62.956
856.30	-63.447
856.59	-61.249
856.89	-60.010
857.18	-65.831
857.48	-64.465
857.77	-67.871
858.07	-70.058
858.36	-71.842
858.66	-71.281
858.95	-77.222
859.25	-73.484
859.54	-73.468
859.84	-74.249
860.13	-71.871
860.42	-66.843
860.72	-68.460
861.01	-66.408
861.31	-64.553
861.60	-57.656
861.90	-57.791
862.19	-57.819
862.49	-59.104
862.78	-55.667
863.07	-52.375
863.37	-49.256
863.66	-51.817
863.96	-50.561
864.25	-47.171
864.54	-48.209
864.84	-50.640
865.13	-52.530
865.43	-45.867
865.72	-40.064
866.01	-62.228
866.31	-69.636
866.60	-77.594
866.89	-8.412
>>>>>End Spectral Data<<<<<
