OOIBase32 Version 2.0.0.6 Data File
++++++++++++++++++++++++++++++++++++
Date: 01-20-2012, 22:24:36
User: Valued Ocean Optics Customer
Spectrometer Serial Number: USB2E2917
Spectrometer Channel: Master
Integration Time (msec): 4
Spectra Averaged: 10
Boxcar Smoothing: 5
Correct for Electrical Dark: Enabled
Time Normalized: Disabled
Dual-beam Reference: Disabled
Reference Channel: Master
Temperature: Not acquired
Spectrometer Type: S2000
ADC Type: USB2000
Number of Pixels in File: 2048
Graph Title: 
>>>>>Begin Spectral Data<<<<<
180.30	0.000
180.67	0.000
181.03	209.055
181.40	71.144
181.77	31.178
182.14	79.163
182.51	98.913
182.88	500.427
183.25	75.859
183.62	78.044
183.99	160.472
184.36	181.202
184.73	128.953
185.10	267.236
185.46	-154.467
185.83	4.804
186.20	-74.906
186.57	-10.515
186.94	85.711
187.31	-45.160
187.68	-448.213
188.05	92.584
188.42	48.382
188.78	41.972
189.15	25.795
189.52	20.331
189.89	-0.711
190.26	-4.022
190.63	11.775
191.00	-6.664
191.37	-15.246
191.73	-14.662
192.10	-24.556
192.47	18.196
192.84	5.308
193.21	21.806
193.58	11.880
193.94	20.960
194.31	50.721
194.68	21.054
195.05	25.445
195.42	10.704
195.79	13.466
196.15	14.539
196.52	4.476
196.89	-17.748
197.26	-23.052
197.63	-21.921
198.00	-6.306
198.36	-33.823
198.73	-17.182
199.10	-3.928
199.47	10.112
199.84	6.773
200.20	10.521
200.57	-0.165
200.94	-8.897
201.31	-2.681
201.68	-1.717
202.04	-6.478
202.41	0.252
202.78	-12.980
203.15	-32.133
203.51	-44.618
203.88	-27.145
204.25	-21.886
204.62	-1.409
204.98	11.657
205.35	5.607
205.72	6.880
206.09	2.712
206.46	11.076
206.82	0.325
207.19	17.139
207.56	17.217
207.92	30.105
208.29	30.741
208.66	12.384
209.03	22.884
209.39	53.207
209.76	65.856
210.13	62.491
210.50	51.861
210.86	59.039
211.23	48.590
211.60	61.242
211.96	52.649
212.33	51.956
212.70	51.731
213.07	49.202
213.43	17.589
213.80	8.011
214.17	16.894
214.53	22.477
214.90	19.743
215.27	35.816
215.63	28.657
216.00	28.393
216.37	25.093
216.74	26.833
217.10	14.160
217.47	25.282
217.84	17.521
218.20	6.026
218.57	3.664
218.94	4.574
219.30	-7.267
219.67	-4.312
220.04	0.900
220.40	1.836
220.77	0.473
221.13	3.235
221.50	9.388
221.87	15.418
222.23	18.900
222.60	14.597
222.97	17.729
223.33	19.171
223.70	16.947
224.07	14.465
224.43	13.476
224.80	11.834
225.16	10.760
225.53	9.347
225.90	8.026
226.26	9.085
226.63	9.282
226.99	7.947
227.36	8.235
227.73	9.359
228.09	8.908
228.46	8.155
228.82	8.212
229.19	8.470
229.56	7.903
229.92	8.079
230.29	6.458
230.65	8.055
231.02	8.614
231.38	8.203
231.75	6.162
232.12	6.531
232.48	6.839
232.85	7.524
233.21	6.980
233.58	6.032
233.94	5.926
234.31	6.498
234.68	5.265
235.04	5.383
235.41	4.744
235.77	5.591
236.14	4.768
236.50	3.581
236.87	3.548
237.23	4.231
237.60	5.615
237.96	6.060
238.33	6.213
238.69	6.374
239.06	5.946
239.42	6.393
239.79	6.131
240.15	6.049
240.52	6.613
240.88	6.282
241.25	5.998
241.61	5.656
241.98	5.347
242.34	5.142
242.71	4.856
243.07	5.154
243.44	4.850
243.80	5.114
244.17	5.104
244.53	4.840
244.90	4.950
245.26	5.239
245.63	5.348
245.99	5.495
246.36	5.399
246.72	5.360
247.09	5.256
247.45	5.106
247.81	4.744
248.18	4.868
248.54	4.845
248.91	4.775
249.27	4.462
249.64	4.328
250.00	4.415
250.36	4.796
250.73	4.670
251.09	4.522
251.46	4.792
251.82	5.152
252.19	5.422
252.55	5.699
252.91	6.040
253.28	6.352
253.64	6.497
254.01	6.225
254.37	5.780
254.73	5.822
255.10	5.736
255.46	5.495
255.83	5.191
256.19	4.939
256.55	4.803
256.92	4.776
257.28	4.682
257.65	4.545
258.01	4.580
258.37	4.449
258.74	4.492
259.10	4.416
259.46	4.481
259.83	4.426
260.19	4.307
260.55	4.345
260.92	4.340
261.28	4.345
261.64	4.390
262.01	4.145
262.37	4.402
262.73	4.271
263.10	4.463
263.46	4.540
263.82	4.868
264.19	4.928
264.55	5.005
264.91	5.100
265.28	4.917
265.64	4.946
266.00	5.150
266.37	5.132
266.73	5.367
267.09	5.317
267.46	5.321
267.82	5.241
268.18	5.213
268.54	5.129
268.91	4.717
269.27	4.629
269.63	4.618
270.00	4.556
270.36	4.458
270.72	4.158
271.08	4.113
271.45	4.063
271.81	4.050
272.17	4.226
272.53	4.332
272.90	4.508
273.26	4.626
273.62	4.656
273.98	4.727
274.35	4.850
274.71	5.136
275.07	5.154
275.43	4.903
275.80	4.874
276.16	4.673
276.52	4.483
276.88	4.159
277.25	4.167
277.61	4.155
277.97	4.064
278.33	3.945
278.69	3.916
279.06	3.784
279.42	3.810
279.78	3.803
280.14	3.941
280.50	4.065
280.87	4.154
281.23	4.163
281.59	4.027
281.95	4.054
282.31	4.096
282.68	4.028
283.04	4.170
283.40	4.367
283.76	4.373
284.12	4.281
284.48	4.099
284.85	4.189
285.21	4.321
285.57	4.331
285.93	4.300
286.29	4.143
286.65	4.153
287.02	3.991
287.38	3.898
287.74	3.846
288.10	3.872
288.46	3.956
288.82	3.994
289.18	3.850
289.54	3.897
289.91	3.872
290.27	3.966
290.63	4.104
290.99	4.384
291.35	4.510
291.71	4.583
292.07	4.669
292.43	4.617
292.79	4.308
293.16	4.145
293.52	4.052
293.88	4.025
294.24	4.177
294.60	4.020
294.96	3.779
295.32	3.644
295.68	3.503
296.04	3.423
296.40	3.485
296.76	3.568
297.12	3.682
297.49	3.724
297.85	3.740
298.21	3.617
298.57	3.667
298.93	3.766
299.29	3.914
299.65	3.995
300.01	3.990
300.37	4.086
300.73	4.242
301.09	4.152
301.45	4.262
301.81	4.367
302.17	4.524
302.53	4.551
302.89	4.544
303.25	4.446
303.61	4.434
303.97	4.415
304.33	4.280
304.69	4.314
305.05	4.300
305.41	4.222
305.77	4.188
306.13	4.053
306.49	4.026
306.85	4.087
307.21	4.157
307.57	4.215
307.93	4.267
308.29	4.257
308.65	4.350
309.01	4.438
309.37	4.555
309.73	4.473
310.09	4.509
310.45	4.586
310.81	4.614
311.17	4.472
311.53	4.495
311.89	4.444
312.25	4.491
312.61	4.326
312.96	4.307
313.32	4.143
313.68	4.153
314.04	4.204
314.40	4.102
314.76	4.057
315.12	4.081
315.48	3.881
315.84	3.954
316.20	3.906
316.56	3.969
316.92	3.989
317.27	4.138
317.63	4.231
317.99	4.232
318.35	4.234
318.71	4.304
319.07	4.499
319.43	4.745
319.79	4.859
320.15	4.930
320.50	5.012
320.86	5.081
321.22	4.998
321.58	4.903
321.94	4.829
322.30	4.760
322.66	4.766
323.01	4.778
323.37	4.805
323.73	4.691
324.09	4.746
324.45	4.745
324.81	4.847
325.17	4.947
325.52	5.053
325.88	5.164
326.24	5.365
326.60	5.414
326.96	5.446
327.31	5.475
327.67	5.718
328.03	5.825
328.39	5.986
328.75	5.950
329.11	6.061
329.46	6.257
329.82	6.347
330.18	6.452
330.54	6.478
330.90	6.494
331.25	6.503
331.61	6.414
331.97	6.424
332.33	6.407
332.68	6.496
333.04	6.498
333.40	6.497
333.76	6.563
334.11	6.472
334.47	6.542
334.83	6.625
335.19	6.687
335.54	6.690
335.90	6.713
336.26	6.726
336.62	6.769
336.97	6.726
337.33	6.643
337.69	6.641
338.05	6.671
338.40	6.696
338.76	6.697
339.12	6.719
339.48	6.774
339.83	6.786
340.19	6.755
340.55	6.760
340.90	6.739
341.26	6.723
341.62	6.720
341.97	6.773
342.33	6.710
342.69	6.757
343.04	6.710
343.40	6.796
343.76	6.822
344.12	6.833
344.47	6.750
344.83	6.821
345.19	6.989
345.54	6.990
345.90	6.997
346.26	7.109
346.61	7.044
346.97	7.191
347.32	7.149
347.68	7.152
348.04	7.236
348.39	7.299
348.75	7.314
349.11	7.231
349.46	7.249
349.82	7.294
350.18	7.221
350.53	7.273
350.89	7.254
351.24	7.287
351.60	7.346
351.96	7.292
352.31	7.303
352.67	7.359
353.02	7.375
353.38	7.356
353.74	7.371
354.09	7.392
354.45	7.457
354.80	7.469
355.16	7.532
355.52	7.502
355.87	7.581
356.23	7.569
356.58	7.573
356.94	7.643
357.29	7.724
357.65	7.784
358.00	7.783
358.36	7.779
358.72	7.766
359.07	7.735
359.43	7.760
359.78	7.771
360.14	7.820
360.49	7.809
360.85	7.760
361.20	7.724
361.56	7.659
361.91	7.663
362.27	7.648
362.62	7.659
362.98	7.649
363.33	7.606
363.69	7.583
364.04	7.587
364.40	7.579
364.75	7.634
365.11	7.675
365.46	7.661
365.82	7.705
366.17	7.722
366.53	7.727
366.88	7.722
367.24	7.744
367.59	7.721
367.95	7.731
368.30	7.787
368.66	7.768
369.01	7.755
369.37	7.766
369.72	7.779
370.08	7.817
370.43	7.786
370.78	7.784
371.14	7.825
371.49	7.810
371.85	7.817
372.20	7.774
372.56	7.737
372.91	7.722
373.26	7.753
373.62	7.765
373.97	7.680
374.33	7.680
374.68	7.671
375.03	7.647
375.39	7.646
375.74	7.610
376.10	7.658
376.45	7.681
376.80	7.673
377.16	7.623
377.51	7.592
377.87	7.598
378.22	7.630
378.57	7.651
378.93	7.688
379.28	7.758
379.63	7.809
379.99	7.764
380.34	7.762
380.70	7.816
381.05	7.845
381.40	7.926
381.76	7.987
382.11	7.966
382.46	7.975
382.82	7.969
383.17	8.026
383.52	7.996
383.88	8.056
384.23	8.054
384.58	8.016
384.94	8.006
385.29	7.943
385.64	7.910
385.99	7.946
386.35	7.930
386.70	7.905
387.05	7.815
387.41	7.776
387.76	7.745
388.11	7.776
388.47	7.788
388.82	7.805
389.17	7.804
389.52	7.782
389.88	7.763
390.23	7.739
390.58	7.744
390.93	7.758
391.29	7.793
391.64	7.743
391.99	7.670
392.34	7.649
392.70	7.649
393.05	7.588
393.40	7.554
393.75	7.495
394.11	7.453
394.46	7.385
394.81	7.316
395.16	7.263
395.52	7.186
395.87	7.141
396.22	7.037
396.57	6.935
396.92	6.879
397.28	6.846
397.63	6.773
397.98	6.719
398.33	6.630
398.68	6.582
399.04	6.513
399.39	6.488
399.74	6.434
400.09	6.393
400.44	6.348
400.80	6.360
401.15	6.300
401.50	6.304
401.85	6.310
402.20	6.322
402.55	6.282
402.90	6.242
403.26	6.232
403.61	6.212
403.96	6.207
404.31	6.208
404.66	6.171
405.01	6.179
405.36	6.150
405.72	6.112
406.07	6.070
406.42	6.052
406.77	6.076
407.12	6.045
407.47	6.047
407.82	6.028
408.17	5.988
408.53	5.958
408.88	5.926
409.23	5.911
409.58	5.859
409.93	5.841
410.28	5.816
410.63	5.717
410.98	5.685
411.33	5.642
411.68	5.589
412.03	5.585
412.38	5.562
412.73	5.575
413.09	5.576
413.44	5.594
413.79	5.619
414.14	5.617
414.49	5.648
414.84	5.656
415.19	5.687
415.54	5.719
415.89	5.729
416.24	5.721
416.59	5.712
416.94	5.711
417.29	5.716
417.64	5.709
417.99	5.720
418.34	5.714
418.69	5.724
419.04	5.716
419.39	5.715
419.74	5.699
420.09	5.709
420.44	5.702
420.79	5.694
421.14	5.671
421.49	5.649
421.84	5.625
422.19	5.607
422.54	5.578
422.89	5.546
423.24	5.507
423.59	5.455
423.94	5.418
424.29	5.378
424.64	5.327
424.99	5.307
425.34	5.275
425.68	5.224
426.03	5.187
426.38	5.153
426.73	5.111
427.08	5.101
427.43	5.107
427.78	5.110
428.13	5.107
428.48	5.126
428.83	5.128
429.18	5.138
429.53	5.164
429.87	5.176
430.22	5.174
430.57	5.185
430.92	5.190
431.27	5.227
431.62	5.222
431.97	5.220
432.32	5.216
432.67	5.185
433.01	5.171
433.36	5.153
433.71	5.149
434.06	5.137
434.41	5.134
434.76	5.143
435.11	5.111
435.45	5.122
435.80	5.136
436.15	5.148
436.50	5.170
436.85	5.194
437.20	5.215
437.54	5.228
437.89	5.265
438.24	5.278
438.59	5.240
438.94	5.232
439.29	5.216
439.63	5.202
439.98	5.174
440.33	5.175
440.68	5.174
441.03	5.148
441.37	5.126
441.72	5.112
442.07	5.112
442.42	5.132
442.76	5.144
443.11	5.149
443.46	5.145
443.81	5.161
444.16	5.145
444.50	5.131
444.85	5.119
445.20	5.113
445.55	5.075
445.89	5.027
446.24	4.980
446.59	4.938
446.94	4.881
447.28	4.817
447.63	4.741
447.98	4.686
448.32	4.638
448.67	4.609
449.02	4.562
449.37	4.530
449.71	4.524
450.06	4.517
450.41	4.515
450.75	4.540
451.10	4.572
451.45	4.586
451.79	4.598
452.14	4.585
452.49	4.575
452.84	4.583
453.18	4.592
453.53	4.593
453.88	4.616
454.22	4.630
454.57	4.647
454.92	4.662
455.26	4.668
455.61	4.714
455.95	4.758
456.30	4.804
456.65	4.828
456.99	4.853
457.34	4.887
457.69	4.925
458.03	4.953
458.38	4.969
458.73	4.978
459.07	4.998
459.42	4.976
459.76	4.973
460.11	4.943
460.46	4.919
460.80	4.914
461.15	4.888
461.49	4.866
461.84	4.839
462.19	4.816
462.53	4.831
462.88	4.846
463.22	4.854
463.57	4.878
463.91	4.939
464.26	4.993
464.61	5.031
464.95	5.063
465.30	5.094
465.64	5.130
465.99	5.163
466.33	5.168
466.68	5.183
467.02	5.216
467.37	5.225
467.71	5.223
468.06	5.228
468.41	5.223
468.75	5.260
469.10	5.246
469.44	5.243
469.79	5.222
470.13	5.205
470.48	5.178
470.82	5.169
471.17	5.161
471.51	5.151
471.86	5.134
472.20	5.116
472.55	5.088
472.89	5.077
473.23	5.055
473.58	5.047
473.92	5.065
474.27	5.076
474.61	5.083
474.96	5.084
475.30	5.079
475.65	5.085
475.99	5.092
476.34	5.092
476.68	5.096
477.02	5.112
477.37	5.131
477.71	5.144
478.06	5.192
478.40	5.245
478.75	5.360
479.09	5.479
479.43	5.623
479.78	5.783
480.12	5.938
480.47	6.097
480.81	6.246
481.15	6.394
481.50	6.547
481.84	6.707
482.19	6.891
482.53	7.026
482.87	7.140
483.22	7.160
483.56	7.110
483.90	7.020
484.25	6.891
484.59	6.745
484.94	6.625
485.28	6.522
485.62	6.387
485.97	6.221
486.31	6.083
486.65	5.973
487.00	5.937
487.34	5.957
487.68	6.007
488.03	6.091
488.37	6.186
488.71	6.244
489.06	6.257
489.40	6.259
489.74	6.277
490.09	6.281
490.43	6.274
490.77	6.283
491.11	6.279
491.46	6.275
491.80	6.256
492.14	6.252
492.49	6.258
492.83	6.265
493.17	6.283
493.51	6.321
493.86	6.365
494.20	6.413
494.54	6.482
494.88	6.564
495.23	6.656
495.57	6.770
495.91	6.876
496.25	6.949
496.60	7.043
496.94	7.173
497.28	7.267
497.62	7.382
497.97	7.502
498.31	7.627
498.65	7.761
498.99	7.899
499.33	8.059
499.68	8.217
500.02	8.420
500.36	8.623
500.70	8.802
501.04	9.015
501.39	9.224
501.73	9.451
502.07	9.693
502.41	9.952
502.75	10.205
503.09	10.469
503.44	10.749
503.78	11.031
504.12	11.320
504.46	11.646
504.80	11.966
505.14	12.301
505.49	12.638
505.83	12.965
506.17	13.284
506.51	13.632
506.85	13.961
507.19	14.293
507.53	14.631
507.87	14.983
508.22	15.329
508.56	15.673
508.90	16.018
509.24	16.372
509.58	16.737
509.92	17.099
510.26	17.470
510.60	17.846
510.94	18.218
511.28	18.609
511.63	18.985
511.97	19.366
512.31	19.768
512.65	20.209
512.99	20.676
513.33	21.158
513.67	21.672
514.01	22.190
514.35	22.725
514.69	23.219
515.03	23.712
515.37	24.170
515.71	24.624
516.05	25.029
516.39	25.420
516.73	25.753
517.07	26.089
517.41	26.401
517.75	26.696
518.09	26.984
518.43	27.284
518.77	27.564
519.11	27.867
519.45	28.192
519.79	28.541
520.13	28.894
520.47	29.339
520.81	29.765
521.15	30.214
521.49	30.637
521.83	31.034
522.17	31.430
522.51	31.842
522.85	32.283
523.19	32.774
523.53	33.333
523.87	33.948
524.21	34.488
524.55	35.020
524.89	35.496
525.23	35.946
525.57	36.373
525.91	36.765
526.25	37.109
526.58	37.431
526.92	37.711
527.26	37.933
527.60	38.094
527.94	38.229
528.28	38.349
528.62	38.455
528.96	38.549
529.30	38.619
529.64	38.693
529.97	38.765
530.31	38.834
530.65	38.896
530.99	38.993
531.33	39.107
531.67	39.271
532.01	39.426
532.35	39.528
532.68	39.639
533.02	39.729
533.36	39.841
533.70	39.929
534.04	40.024
534.38	40.096
534.71	40.159
535.05	40.218
535.39	40.261
535.73	40.299
536.07	40.451
536.41	40.622
536.74	40.792
537.08	40.985
537.42	41.188
537.76	41.367
538.10	41.603
538.43	41.808
538.77	42.009
539.11	42.169
539.45	42.328
539.79	42.430
540.12	42.534
540.46	42.622
540.80	42.633
541.14	42.660
541.47	42.658
541.81	42.632
542.15	42.586
542.49	42.550
542.82	42.517
543.16	42.460
543.50	42.398
543.84	42.307
544.17	42.282
544.51	42.260
544.85	42.241
545.18	42.256
545.52	42.203
545.86	42.220
546.20	42.174
546.53	42.128
546.87	42.134
547.21	42.133
547.54	42.131
547.88	42.108
548.22	42.117
548.55	42.118
548.89	42.097
549.23	42.155
549.56	42.197
549.90	42.230
550.24	42.277
550.57	42.222
550.91	42.232
551.25	42.272
551.58	42.239
551.92	42.229
552.26	42.192
552.59	42.175
552.93	42.170
553.27	42.105
553.60	42.089
553.94	42.022
554.27	42.050
554.61	42.022
554.95	41.961
555.28	41.951
555.62	41.956
555.95	41.957
556.29	41.964
556.63	41.939
556.96	41.935
557.30	41.934
557.63	41.966
557.97	41.920
558.31	41.886
558.64	41.841
558.98	41.815
559.31	41.751
559.65	41.738
559.98	41.701
560.32	41.642
560.65	41.599
560.99	41.531
561.33	41.461
561.66	41.430
562.00	41.438
562.33	41.424
562.67	41.403
563.00	41.406
563.34	41.378
563.67	41.344
564.01	41.344
564.34	41.296
564.68	41.262
565.01	41.245
565.35	41.194
565.68	41.127
566.02	41.069
566.35	41.052
566.69	40.983
567.02	40.924
567.36	40.849
567.69	40.744
568.03	40.679
568.36	40.586
568.69	40.531
569.03	40.457
569.36	40.416
569.70	40.365
570.03	40.279
570.37	40.218
570.70	40.171
571.04	40.118
571.37	40.087
571.70	40.043
572.04	40.037
572.37	39.978
572.71	39.960
573.04	39.899
573.37	39.830
573.71	39.783
574.04	39.715
574.38	39.609
574.71	39.550
575.04	39.478
575.38	39.416
575.71	39.339
576.05	39.259
576.38	39.165
576.71	39.058
577.05	39.007
577.38	38.890
577.71	38.802
578.05	38.765
578.38	38.701
578.71	38.614
579.05	38.556
579.38	38.461
579.71	38.368
580.05	38.308
580.38	38.276
580.71	38.163
581.05	38.130
581.38	38.093
581.71	38.032
582.05	37.939
582.38	37.890
582.71	37.809
583.04	37.779
583.38	37.761
583.71	37.643
584.04	37.555
584.38	37.534
584.71	37.450
585.04	37.346
585.37	37.268
585.71	37.230
586.04	37.158
586.37	37.067
586.70	37.003
587.04	36.912
587.37	36.925
587.70	36.845
588.03	36.762
588.37	36.691
588.70	36.619
589.03	36.558
589.36	36.462
589.69	36.399
590.03	36.343
590.36	36.218
590.69	36.163
591.02	36.041
591.35	35.980
591.69	35.907
592.02	35.825
592.35	35.767
592.68	35.680
593.01	35.650
593.35	35.592
593.68	35.593
594.01	35.518
594.34	35.431
594.67	35.399
595.00	35.347
595.34	35.301
595.67	35.244
596.00	35.163
596.33	35.120
596.66	35.044
596.99	34.958
597.32	34.841
597.65	34.784
597.99	34.709
598.32	34.605
598.65	34.485
598.98	34.395
599.31	34.303
599.64	34.221
599.97	34.116
600.30	34.020
600.63	33.931
600.96	33.849
601.30	33.803
601.63	33.752
601.96	33.729
602.29	33.686
602.62	33.624
602.95	33.602
603.28	33.591
603.61	33.568
603.94	33.529
604.27	33.479
604.60	33.399
604.93	33.338
605.26	33.255
605.59	33.143
605.92	33.061
606.25	32.972
606.58	32.883
606.91	32.815
607.24	32.707
607.57	32.651
607.90	32.581
608.23	32.565
608.56	32.515
608.89	32.493
609.22	32.476
609.55	32.438
609.88	32.407
610.21	32.351
610.54	32.291
610.87	32.247
611.20	32.162
611.53	32.113
611.86	32.051
612.19	31.996
612.52	31.887
612.85	31.827
613.18	31.779
613.51	31.721
613.84	31.631
614.17	31.569
614.49	31.534
614.82	31.516
615.15	31.440
615.48	31.375
615.81	31.294
616.14	31.269
616.47	31.124
616.80	31.051
617.13	30.970
617.46	30.939
617.78	30.849
618.11	30.763
618.44	30.648
618.77	30.626
619.10	30.529
619.43	30.485
619.76	30.426
620.09	30.379
620.41	30.308
620.74	30.249
621.07	30.163
621.40	30.123
621.73	30.076
622.06	30.080
622.38	30.035
622.71	30.061
623.04	30.022
623.37	29.959
623.70	29.964
624.02	29.977
624.35	29.944
624.68	29.930
625.01	29.888
625.34	29.840
625.66	29.765
625.99	29.722
626.32	29.642
626.65	29.601
626.98	29.558
627.30	29.474
627.63	29.391
627.96	29.336
628.29	29.258
628.61	29.167
628.94	29.092
629.27	29.057
629.60	29.007
629.92	28.949
630.25	28.871
630.58	28.840
630.91	28.798
631.23	28.703
631.56	28.683
631.89	28.651
632.21	28.623
632.54	28.608
632.87	28.490
633.19	28.390
633.52	28.321
633.85	28.312
634.18	28.227
634.50	28.201
634.83	28.155
635.16	28.068
635.48	27.993
635.81	27.951
636.14	27.849
636.46	27.808
636.79	27.785
637.11	27.745
637.44	27.628
637.77	27.554
638.09	27.415
638.42	27.330
638.75	27.259
639.07	27.242
639.40	27.097
639.73	27.057
640.05	27.055
640.38	27.002
640.70	26.879
641.03	26.789
641.36	26.761
641.68	26.785
642.01	26.818
642.33	26.757
642.66	26.610
642.98	26.606
643.31	26.552
643.64	26.524
643.96	26.448
644.29	26.454
644.61	26.448
644.94	26.432
645.26	26.366
645.59	26.349
645.91	26.345
646.24	26.362
646.56	26.337
646.89	26.288
647.22	26.201
647.54	26.146
647.87	26.099
648.19	26.115
648.52	26.047
648.84	26.048
649.17	25.879
649.49	25.803
649.82	25.796
650.14	25.708
650.47	25.677
650.79	25.613
651.11	25.597
651.44	25.546
651.76	25.428
652.09	25.390
652.41	25.312
652.74	25.330
653.06	25.321
653.39	25.215
653.71	25.218
654.04	25.148
654.36	25.104
654.68	25.017
655.01	24.953
655.33	24.866
655.66	24.741
655.98	24.671
656.30	24.628
656.63	24.560
656.95	24.564
657.28	24.528
657.60	24.510
657.92	24.460
658.25	24.409
658.57	24.328
658.90	24.298
659.22	24.303
659.54	24.262
659.87	24.163
660.19	24.057
660.51	23.940
660.84	23.830
661.16	23.671
661.48	23.580
661.81	23.492
662.13	23.466
662.45	23.411
662.78	23.326
663.10	23.216
663.42	23.179
663.75	23.147
664.07	23.019
664.39	22.936
664.72	22.888
665.04	22.859
665.36	22.878
665.69	22.786
666.01	22.715
666.33	22.664
666.65	22.564
666.98	22.500
667.30	22.459
667.62	22.444
667.94	22.432
668.27	22.408
668.59	22.348
668.91	22.168
669.23	22.086
669.56	21.975
669.88	21.919
670.20	21.867
670.52	21.744
670.85	21.615
671.17	21.617
671.49	21.495
671.81	21.384
672.13	21.310
672.46	21.330
672.78	21.323
673.10	21.271
673.42	21.184
673.74	21.149
674.07	21.192
674.39	21.200
674.71	21.106
675.03	21.070
675.35	21.015
675.67	20.992
676.00	21.012
676.32	20.957
676.64	20.899
676.96	20.847
677.28	20.855
677.60	20.780
677.92	20.789
678.25	20.809
678.57	20.765
678.89	20.818
679.21	20.721
679.53	20.611
679.85	20.606
680.17	20.616
680.49	20.538
680.81	20.495
681.13	20.508
681.46	20.374
681.78	20.277
682.10	20.270
682.42	20.248
682.74	20.274
683.06	20.347
683.38	20.242
683.70	20.202
684.02	20.263
684.34	20.208
684.66	20.208
684.98	20.263
685.30	20.278
685.62	20.242
685.94	20.148
686.26	20.059
686.58	19.967
686.90	19.953
687.22	19.896
687.54	19.796
687.86	19.736
688.18	19.593
688.50	19.452
688.82	19.359
689.14	19.344
689.46	19.289
689.78	19.234
690.10	19.117
690.42	18.991
690.74	18.877
691.06	18.793
691.38	18.712
691.70	18.649
692.02	18.524
692.34	18.377
692.66	18.153
692.98	18.006
693.30	18.002
693.62	17.957
693.94	17.984
694.26	18.072
694.57	18.067
694.89	18.124
695.21	18.153
695.53	18.198
695.85	18.332
696.17	18.488
696.49	18.559
696.81	18.549
697.13	18.575
697.44	18.500
697.76	18.447
698.08	18.387
698.40	18.250
698.72	18.121
699.04	17.963
699.36	17.721
699.67	17.388
699.99	17.085
700.31	16.736
700.63	16.417
700.95	16.235
701.27	15.892
701.58	15.568
701.90	15.213
702.22	14.915
702.54	14.746
702.86	14.459
703.17	14.292
703.49	14.177
703.81	14.050
704.13	13.842
704.45	13.774
704.76	13.618
705.08	13.588
705.40	13.707
705.72	13.700
706.03	13.718
706.35	13.659
706.67	13.636
706.99	13.669
707.30	13.650
707.62	13.620
707.94	13.425
708.26	13.470
708.57	13.521
708.89	13.484
709.21	13.441
709.53	13.276
709.84	13.344
710.16	13.319
710.48	13.309
710.79	13.226
711.11	13.306
711.43	13.420
711.74	13.491
712.06	13.490
712.38	13.567
712.69	13.563
713.01	13.774
713.33	13.821
713.64	14.024
713.96	14.095
714.28	14.415
714.59	14.692
714.91	14.871
715.23	15.118
715.54	15.370
715.86	15.414
716.17	15.619
716.49	15.531
716.81	15.556
717.12	15.489
717.44	15.383
717.76	15.158
718.07	14.803
718.39	14.523
718.70	14.054
719.02	13.592
719.33	13.287
719.65	13.009
719.97	12.829
720.28	12.679
720.60	12.556
720.91	12.520
721.23	12.508
721.54	12.504
721.86	12.496
722.17	12.551
722.49	12.676
722.81	12.802
723.12	12.713
723.44	12.734
723.75	12.764
724.07	12.720
724.38	12.619
724.70	12.629
725.01	12.552
725.33	12.529
725.64	12.614
725.96	12.577
726.27	12.507
726.59	12.629
726.90	12.724
727.22	12.660
727.53	12.653
727.84	12.710
728.16	12.569
728.47	12.576
728.79	12.391
729.10	12.147
729.42	11.933
729.73	11.655
730.05	11.242
730.36	10.931
730.67	10.688
730.99	10.294
731.30	10.033
731.62	9.819
731.93	9.457
732.24	9.228
732.56	8.720
732.87	8.346
733.19	7.862
733.50	7.638
733.81	7.205
734.13	6.791
734.44	6.395
734.76	5.889
735.07	5.482
735.38	5.137
735.70	4.706
736.01	4.624
736.32	4.356
736.64	4.457
736.95	4.242
737.26	4.075
737.58	3.810
737.89	3.722
738.20	3.345
738.52	3.045
738.83	2.606
739.14	2.220
739.45	1.675
739.77	1.276
740.08	0.501
740.39	-0.014
740.71	-0.517
741.02	-1.109
741.33	-1.762
741.64	-2.223
741.96	-2.828
742.27	-3.391
742.58	-3.551
742.90	-4.002
743.21	-4.534
743.52	-4.817
743.83	-5.016
744.14	-5.269
744.46	-5.493
744.77	-5.802
745.08	-5.958
745.39	-5.974
745.71	-5.909
746.02	-6.189
746.33	-5.941
746.64	-5.960
746.95	-5.834
747.27	-5.877
747.58	-5.609
747.89	-5.777
748.20	-5.725
748.51	-5.529
748.82	-5.631
749.14	-5.766
749.45	-5.712
749.76	-6.366
750.07	-6.309
750.38	-6.436
750.69	-6.568
751.01	-7.192
751.32	-7.201
751.63	-7.284
751.94	-7.652
752.25	-7.712
752.56	-7.825
752.87	-8.102
753.18	-7.632
753.49	-7.599
753.81	-7.622
754.12	-7.396
754.43	-6.840
754.74	-5.882
755.05	-4.846
755.36	-3.604
755.67	-2.558
755.98	-1.270
756.29	0.055
756.60	1.497
756.91	2.778
757.22	4.428
757.53	5.980
757.84	7.545
758.15	8.985
758.46	10.217
758.77	11.314
759.09	12.439
759.40	13.475
759.71	14.179
760.02	14.730
760.33	15.188
760.64	15.257
760.95	15.298
761.26	15.212
761.57	14.907
761.88	14.596
762.18	14.252
762.49	13.880
762.80	13.200
763.11	12.454
763.42	11.554
763.73	10.583
764.04	9.754
764.35	8.543
764.66	7.253
764.97	5.825
765.28	4.100
765.59	2.167
765.90	-0.287
766.21	-2.413
766.52	-4.421
766.83	-6.126
767.14	-7.796
767.44	-9.480
767.75	-11.026
768.06	-12.521
768.37	-13.763
768.68	-15.157
768.99	-16.161
769.30	-16.810
769.61	-17.605
769.91	-18.027
770.22	-18.990
770.53	-19.526
770.84	-20.468
771.15	-20.674
771.46	-21.266
771.77	-21.778
772.07	-21.318
772.38	-21.928
772.69	-22.468
773.00	-22.582
773.31	-22.954
773.61	-23.365
773.92	-23.736
774.23	-23.597
774.54	-24.622
774.85	-24.631
775.15	-24.615
775.46	-25.153
775.77	-24.366
776.08	-24.047
776.39	-24.169
776.69	-24.241
777.00	-24.046
777.31	-23.649
777.62	-23.706
777.92	-23.012
778.23	-23.541
778.54	-23.335
778.85	-23.369
779.15	-23.688
779.46	-23.503
779.77	-23.857
780.07	-23.874
780.38	-24.521
780.69	-25.026
781.00	-25.175
781.30	-25.198
781.61	-24.220
781.92	-25.037
782.22	-25.155
782.53	-25.221
782.84	-24.919
783.14	-23.830
783.45	-22.988
783.76	-21.543
784.06	-20.853
784.37	-19.305
784.68	-18.334
784.98	-17.943
785.29	-16.411
785.60	-15.065
785.90	-13.657
786.21	-12.760
786.51	-11.573
786.82	-10.395
787.13	-9.934
787.43	-9.413
787.74	-8.902
788.04	-8.625
788.35	-8.348
788.66	-8.513
788.96	-9.025
789.27	-9.370
789.57	-9.921
789.88	-11.071
790.19	-11.906
790.49	-12.406
790.80	-12.934
791.10	-14.078
791.41	-14.009
791.71	-13.656
792.02	-13.613
792.32	-13.140
792.63	-12.929
792.93	-12.339
793.24	-11.577
793.54	-11.291
793.85	-10.488
794.15	-9.139
794.46	-8.697
794.76	-8.885
795.07	-8.984
795.37	-8.750
795.68	-7.675
795.98	-7.979
796.29	-7.685
796.59	-7.845
796.90	-8.180
797.20	-8.233
797.51	-8.661
797.81	-8.331
798.12	-8.460
798.42	-8.585
798.72	-8.266
799.03	-9.363
799.33	-8.644
799.64	-9.314
799.94	-9.256
800.25	-8.893
800.55	-8.714
800.85	-8.749
801.16	-8.755
801.46	-8.148
801.77	-7.693
802.07	-8.186
802.37	-7.219
802.68	-8.278
802.98	-8.119
803.28	-8.038
803.59	-8.207
803.89	-8.551
804.20	-8.691
804.50	-9.488
804.80	-10.089
805.11	-10.627
805.41	-10.423
805.71	-10.658
806.02	-9.810
806.32	-10.062
806.62	-10.112
806.93	-10.266
807.23	-10.401
807.53	-10.008
807.83	-9.081
808.14	-9.050
808.44	-7.989
808.74	-8.202
809.05	-7.621
809.35	-7.045
809.65	-6.711
809.95	-6.146
810.26	-4.507
810.56	-2.724
810.86	-2.032
811.16	-1.518
811.47	-0.359
811.77	-0.167
812.07	1.170
812.37	1.423
812.68	1.864
812.98	3.001
813.28	3.667
813.58	3.274
813.88	3.477
814.19	3.449
814.49	3.975
814.79	4.586
815.09	5.429
815.39	5.897
815.70	5.358
816.00	5.495
816.30	5.444
816.60	6.110
816.90	6.956
817.20	7.846
817.50	9.435
817.81	10.753
818.11	11.991
818.41	12.987
818.71	13.676
819.01	14.708
819.31	15.434
819.61	16.111
819.92	16.472
820.22	16.720
820.52	16.922
820.82	17.089
821.12	17.313
821.42	17.450
821.72	17.457
822.02	17.544
822.32	17.512
822.62	17.446
822.92	17.278
823.22	17.201
823.52	17.111
823.83	17.028
824.13	16.922
824.43	16.641
824.73	16.325
825.03	16.242
825.33	16.113
825.63	15.943
825.93	15.992
826.23	15.843
826.53	15.712
826.83	15.768
827.13	15.510
827.43	15.202
827.73	14.792
828.03	14.526
828.33	14.171
828.63	13.482
828.93	12.756
829.23	11.767
829.53	11.626
829.83	11.045
830.13	10.347
830.42	10.015
830.72	10.080
831.02	10.348
831.32	10.902
831.62	11.295
831.92	11.657
832.22	11.992
832.52	12.516
832.82	12.324
833.12	12.293
833.42	12.393
833.72	12.166
834.01	11.575
834.31	11.608
834.61	10.750
834.91	9.603
835.21	8.863
835.51	8.123
835.81	6.220
836.11	4.924
836.40	2.860
836.70	1.464
837.00	0.043
837.30	-1.207
837.60	-2.847
837.90	-3.048
838.19	-3.255
838.49	-3.661
838.79	-3.292
839.09	-3.025
839.39	-3.090
839.68	-2.333
839.98	-2.836
840.28	-3.117
840.58	-4.451
840.88	-7.428
841.17	-9.022
841.47	-11.321
841.77	-12.964
842.07	-17.846
842.36	-20.626
842.66	-23.271
842.96	-28.041
843.26	-32.720
843.55	-34.865
843.85	-34.519
844.15	-33.728
844.45	-34.188
844.74	-34.187
845.04	-35.392
845.34	-33.998
845.63	-35.025
845.93	-37.997
846.23	-40.032
846.53	-43.305
846.82	-48.030
847.12	-52.595
847.42	-49.358
847.71	-52.617
848.01	-53.021
848.31	-49.072
848.60	-44.940
848.90	-47.124
849.19	-41.976
849.49	-40.977
849.79	-38.833
850.08	-40.173
850.38	-35.844
850.68	-37.796
850.97	-37.502
851.27	-37.250
851.56	-41.869
851.86	-44.045
852.16	-41.833
852.45	-48.486
852.75	-46.089
853.04	-48.829
853.34	-45.172
853.64	-45.522
853.93	-44.322
854.23	-44.002
854.52	-43.060
854.82	-39.579
855.11	-40.908
855.41	-40.614
855.70	-35.998
856.00	-36.467
856.30	-33.519
856.59	-30.360
856.89	-31.925
857.18	-33.596
857.48	-32.192
857.77	-32.899
858.07	-35.923
858.36	-37.272
858.66	-36.232
858.95	-36.834
859.25	-38.145
859.54	-40.098
859.84	-41.740
860.13	-39.564
860.42	-39.288
860.72	-42.151
861.01	-43.225
861.31	-41.173
861.60	-37.655
861.90	-38.917
862.19	-39.980
862.49	-39.391
862.78	-36.088
863.07	-35.457
863.37	-34.028
863.66	-34.019
863.96	-28.927
864.25	-24.283
864.54	-24.965
864.84	-25.784
865.13	-26.453
865.43	-25.586
865.72	-8.339
866.01	-36.636
866.31	-33.620
866.60	-55.972
866.89	-22.335
>>>>>End Spectral Data<<<<<
