OOIBase32 Version 2.0.0.6 Data File
++++++++++++++++++++++++++++++++++++
Date: 01-23-2012, 22:00:22
User: Valued Ocean Optics Customer
Spectrometer Serial Number: USB2E2917
Spectrometer Channel: Master
Integration Time (msec): 5
Spectra Averaged: 10
Boxcar Smoothing: 5
Correct for Electrical Dark: Enabled
Time Normalized: Disabled
Dual-beam Reference: Disabled
Reference Channel: Master
Temperature: Not acquired
Spectrometer Type: S2000
ADC Type: USB2000
Number of Pixels in File: 2048
Graph Title: 
>>>>>Begin Spectral Data<<<<<
180.30	0.000
180.67	0.000
181.03	226.410
181.40	-251.663
181.77	4727.467
182.14	228.750
182.51	161.588
182.88	-2045.021
183.25	55.098
183.62	-122.122
183.99	91.929
184.36	-124.678
184.73	230.899
185.10	21.970
185.46	48.879
185.83	-60.728
186.20	-40.514
186.57	515.557
186.94	-60.886
187.31	59.683
187.68	-192.612
188.05	29.538
188.42	37.015
188.78	56.562
189.15	41.972
189.52	48.039
189.89	43.048
190.26	39.830
190.63	59.626
191.00	60.583
191.37	58.320
191.73	54.016
192.10	66.614
192.47	50.763
192.84	40.342
193.21	40.771
193.58	32.606
193.94	27.902
194.31	18.466
194.68	18.488
195.05	16.463
195.42	12.845
195.79	12.750
196.15	8.251
196.52	11.597
196.89	4.020
197.26	1.685
197.63	-6.499
198.00	-0.192
198.36	4.466
198.73	-3.572
199.10	2.394
199.47	14.770
199.84	13.746
200.20	15.158
200.57	4.220
200.94	5.777
201.31	-2.146
201.68	18.567
202.04	17.121
202.41	26.752
202.78	18.886
203.15	12.592
203.51	-18.972
203.88	-27.484
204.25	-41.377
204.62	-13.490
204.98	-2.491
205.35	3.850
205.72	-2.130
206.09	-6.500
206.46	-13.035
206.82	-4.876
207.19	-9.376
207.56	4.929
207.92	14.010
208.29	14.119
208.66	-1.322
209.03	-7.633
209.39	-12.635
209.76	-16.892
210.13	-13.937
210.50	-18.292
210.86	-7.009
211.23	10.444
211.60	11.974
211.96	11.939
212.33	12.869
212.70	23.572
213.07	27.937
213.43	31.397
213.80	37.881
214.17	32.008
214.53	32.992
214.90	25.654
215.27	15.686
215.63	5.900
216.00	-3.458
216.37	3.047
216.74	-8.991
217.10	-10.492
217.47	-18.716
217.84	-29.625
218.20	-15.135
218.57	-14.081
218.94	-8.997
219.30	-4.362
219.67	-0.434
220.04	6.638
220.40	3.258
220.77	-3.256
221.13	-7.946
221.50	-11.370
221.87	-11.340
222.23	-16.020
222.60	-13.286
222.97	-22.635
223.33	-25.768
223.70	-27.752
224.07	-21.351
224.43	-17.014
224.80	-10.140
225.16	-9.679
225.53	-6.386
225.90	-9.551
226.26	-10.295
226.63	-13.467
226.99	-11.688
227.36	-9.066
227.73	-7.371
228.09	-11.097
228.46	-12.343
228.82	-10.964
229.19	-9.136
229.56	-10.073
229.92	-6.716
230.29	-5.217
230.65	-2.590
231.02	-2.019
231.38	-2.861
231.75	-2.186
232.12	3.435
232.48	5.905
232.85	5.010
233.21	5.696
233.58	5.725
233.94	7.276
234.31	6.108
234.68	5.465
235.04	5.661
235.41	5.295
235.77	4.717
236.14	2.308
236.50	1.137
236.87	1.575
237.23	0.235
237.60	0.661
237.96	-0.301
238.33	0.484
238.69	0.616
239.06	-0.479
239.42	-0.078
239.79	0.470
240.15	0.834
240.52	0.698
240.88	0.478
241.25	0.852
241.61	0.914
241.98	1.274
242.34	0.575
242.71	0.904
243.07	1.538
243.44	1.580
243.80	1.429
244.17	1.352
244.53	1.366
244.90	1.286
245.26	1.424
245.63	1.378
245.99	1.052
246.36	1.573
246.72	1.186
247.09	1.109
247.45	0.699
247.81	0.366
248.18	0.022
248.54	0.151
248.91	0.230
249.27	0.080
249.64	0.004
250.00	0.441
250.36	0.298
250.73	1.122
251.09	1.260
251.46	1.501
251.82	2.462
252.19	2.992
252.55	2.490
252.91	2.385
253.28	1.755
253.64	1.384
254.01	0.863
254.37	0.761
254.73	0.547
255.10	0.787
255.46	0.786
255.83	0.106
256.19	0.222
256.55	0.333
256.92	0.311
257.28	0.655
257.65	1.005
258.01	1.306
258.37	1.093
258.74	1.004
259.10	0.913
259.46	1.036
259.83	1.187
260.19	1.089
260.55	1.123
260.92	1.148
261.28	0.814
261.64	0.618
262.01	0.132
262.37	0.114
262.73	-0.014
263.10	-0.023
263.46	0.022
263.82	0.068
264.19	-0.140
264.55	0.154
264.91	0.397
265.28	0.783
265.64	0.642
266.00	0.540
266.37	0.521
266.73	0.580
267.09	0.517
267.46	0.529
267.82	0.560
268.18	0.965
268.54	0.754
268.91	0.691
269.27	0.534
269.63	0.596
270.00	0.908
270.36	1.017
270.72	0.987
271.08	0.657
271.45	0.547
271.81	0.778
272.17	0.559
272.53	0.686
272.90	0.610
273.26	0.562
273.62	0.365
273.98	-0.113
274.35	-0.331
274.71	-0.032
275.07	0.315
275.43	0.509
275.80	0.402
276.16	0.720
276.52	0.513
276.88	0.488
277.25	0.547
277.61	0.793
277.97	1.057
278.33	0.927
278.69	0.644
279.06	0.779
279.42	0.268
279.78	-0.003
280.14	-0.325
280.50	-0.144
280.87	-0.089
281.23	0.030
281.59	0.045
281.95	0.049
282.31	0.501
282.68	0.651
283.04	0.611
283.40	0.943
283.76	1.005
284.12	1.077
284.48	0.982
284.85	0.946
285.21	0.835
285.57	0.811
285.93	0.817
286.29	0.506
286.65	0.459
287.02	0.513
287.38	0.483
287.74	0.662
288.10	0.609
288.46	0.562
288.82	0.495
289.18	0.553
289.54	0.406
289.91	0.616
290.27	0.829
290.63	0.892
290.99	0.762
291.35	0.915
291.71	1.149
292.07	1.143
292.43	1.291
292.79	1.719
293.16	1.697
293.52	1.755
293.88	1.684
294.24	1.682
294.60	1.568
294.96	1.575
295.32	1.461
295.68	1.065
296.04	1.188
296.40	1.106
296.76	0.904
297.12	0.900
297.49	1.077
297.85	1.179
298.21	1.215
298.57	1.205
298.93	1.236
299.29	1.223
299.65	1.187
300.01	1.163
300.37	1.210
300.73	1.331
301.09	1.457
301.45	1.477
301.81	1.367
302.17	1.187
302.53	1.267
302.89	1.373
303.25	1.325
303.61	1.555
303.97	1.554
304.33	1.443
304.69	1.276
305.05	1.154
305.41	1.011
305.77	0.952
306.13	1.031
306.49	0.978
306.85	0.890
307.21	1.015
307.57	0.936
307.93	0.973
308.29	1.126
308.65	1.135
309.01	1.185
309.37	1.303
309.73	1.288
310.09	1.296
310.45	1.348
310.81	1.409
311.17	1.258
311.53	1.270
311.89	1.345
312.25	1.286
312.61	1.308
312.96	1.350
313.32	1.271
313.68	1.249
314.04	1.310
314.40	1.232
314.76	1.211
315.12	1.336
315.48	1.374
315.84	1.159
316.20	1.262
316.56	1.235
316.92	1.128
317.27	1.049
317.63	1.120
317.99	1.080
318.35	1.053
318.71	0.984
319.07	1.010
319.43	1.012
319.79	0.980
320.15	0.837
320.50	0.691
320.86	0.799
321.22	0.917
321.58	0.898
321.94	0.886
322.30	0.924
322.66	0.955
323.01	0.853
323.37	0.799
323.73	0.897
324.09	1.005
324.45	1.255
324.81	1.228
325.17	1.150
325.52	1.205
325.88	1.212
326.24	1.315
326.60	1.420
326.96	1.475
327.31	1.481
327.67	1.471
328.03	1.334
328.39	1.140
328.75	1.101
329.11	1.179
329.46	1.077
329.82	1.068
330.18	1.089
330.54	1.072
330.90	1.156
331.25	1.276
331.61	1.296
331.97	1.376
332.33	1.559
332.68	1.486
333.04	1.410
333.40	1.528
333.76	1.587
334.11	1.459
334.47	1.374
334.83	1.236
335.19	1.274
335.54	1.312
335.90	1.384
336.26	1.319
336.62	1.402
336.97	1.402
337.33	1.358
337.69	1.397
338.05	1.460
338.40	1.481
338.76	1.504
339.12	1.373
339.48	1.422
339.83	1.336
340.19	1.315
340.55	1.378
340.90	1.419
341.26	1.414
341.62	1.327
341.97	1.406
342.33	1.499
342.69	1.573
343.04	1.653
343.40	1.526
343.76	1.607
344.12	1.740
344.47	1.804
344.83	1.752
345.19	1.809
345.54	1.928
345.90	1.892
346.26	1.773
346.61	1.847
346.97	1.789
347.32	1.902
347.68	1.856
348.04	1.777
348.39	1.657
348.75	1.785
349.11	1.735
349.46	1.669
349.82	1.653
350.18	1.777
350.53	1.710
350.89	1.781
351.24	1.783
351.60	1.789
351.96	1.807
352.31	1.922
352.67	1.903
353.02	1.943
353.38	1.917
353.74	1.907
354.09	1.882
354.45	1.927
354.80	1.917
355.16	1.910
355.52	1.906
355.87	1.841
356.23	1.768
356.58	1.797
356.94	1.795
357.29	1.857
357.65	1.849
358.00	1.873
358.36	1.825
358.72	1.830
359.07	1.834
359.43	1.898
359.78	1.960
360.14	1.968
360.49	1.926
360.85	1.903
361.20	1.890
361.56	1.950
361.91	1.931
362.27	1.961
362.62	1.920
362.98	1.897
363.33	1.852
363.69	1.825
364.04	1.852
364.40	1.850
364.75	1.883
365.11	1.921
365.46	1.894
365.82	1.887
366.17	1.863
366.53	1.917
366.88	1.903
367.24	1.931
367.59	1.962
367.95	1.947
368.30	1.941
368.66	1.946
369.01	1.949
369.37	1.959
369.72	1.954
370.08	2.025
370.43	2.016
370.78	2.054
371.14	2.021
371.49	2.053
371.85	2.085
372.20	2.111
372.56	2.152
372.91	2.121
373.26	2.111
373.62	2.138
373.97	2.135
374.33	2.121
374.68	2.120
375.03	2.202
375.39	2.135
375.74	2.123
376.10	2.136
376.45	2.104
376.80	2.128
377.16	2.145
377.51	2.157
377.87	2.102
378.22	2.137
378.57	2.176
378.93	2.134
379.28	2.172
379.63	2.176
379.99	2.192
380.34	2.198
380.70	2.187
381.05	2.220
381.40	2.196
381.76	2.178
382.11	2.168
382.46	2.082
382.82	2.079
383.17	2.117
383.52	2.113
383.88	2.066
384.23	2.090
384.58	2.073
384.94	2.048
385.29	2.055
385.64	2.122
385.99	2.173
386.35	2.273
386.70	2.278
387.05	2.241
387.41	2.263
387.76	2.293
388.11	2.242
388.47	2.279
388.82	2.265
389.17	2.241
389.52	2.225
389.88	2.200
390.23	2.172
390.58	2.192
390.93	2.200
391.29	2.195
391.64	2.195
391.99	2.211
392.34	2.181
392.70	2.186
393.05	2.169
393.40	2.187
393.75	2.159
394.11	2.161
394.46	2.173
394.81	2.171
395.16	2.136
395.52	2.157
395.87	2.184
396.22	2.214
396.57	2.226
396.92	2.262
397.28	2.272
397.63	2.282
397.98	2.296
398.33	2.305
398.68	2.323
399.04	2.363
399.39	2.363
399.74	2.369
400.09	2.361
400.44	2.350
400.80	2.360
401.15	2.323
401.50	2.317
401.85	2.329
402.20	2.311
402.55	2.307
402.90	2.302
403.26	2.324
403.61	2.304
403.96	2.331
404.31	2.347
404.66	2.374
405.01	2.416
405.36	2.459
405.72	2.421
406.07	2.434
406.42	2.451
406.77	2.468
407.12	2.440
407.47	2.480
407.82	2.442
408.17	2.431
408.53	2.425
408.88	2.443
409.23	2.452
409.58	2.461
409.93	2.462
410.28	2.477
410.63	2.478
410.98	2.496
411.33	2.448
411.68	2.484
412.03	2.503
412.38	2.509
412.73	2.485
413.09	2.454
413.44	2.475
413.79	2.467
414.14	2.435
414.49	2.434
414.84	2.416
415.19	2.440
415.54	2.433
415.89	2.417
416.24	2.402
416.59	2.406
416.94	2.422
417.29	2.408
417.64	2.406
417.99	2.420
418.34	2.435
418.69	2.439
419.04	2.440
419.39	2.426
419.74	2.429
420.09	2.429
420.44	2.429
420.79	2.427
421.14	2.431
421.49	2.431
421.84	2.434
422.19	2.421
422.54	2.437
422.89	2.446
423.24	2.450
423.59	2.466
423.94	2.485
424.29	2.494
424.64	2.479
424.99	2.500
425.34	2.514
425.68	2.509
426.03	2.536
426.38	2.520
426.73	2.532
427.08	2.544
427.43	2.548
427.78	2.543
428.13	2.541
428.48	2.568
428.83	2.559
429.18	2.569
429.53	2.571
429.87	2.555
430.22	2.553
430.57	2.559
430.92	2.578
431.27	2.583
431.62	2.594
431.97	2.582
432.32	2.584
432.67	2.586
433.01	2.571
433.36	2.576
433.71	2.594
434.06	2.611
434.41	2.584
434.76	2.590
435.11	2.575
435.45	2.572
435.80	2.584
436.15	2.576
436.50	2.577
436.85	2.576
437.20	2.561
437.54	2.542
437.89	2.538
438.24	2.542
438.59	2.533
438.94	2.541
439.29	2.553
439.63	2.548
439.98	2.566
440.33	2.571
440.68	2.593
441.03	2.614
441.37	2.618
441.72	2.629
442.07	2.634
442.42	2.643
442.76	2.648
443.11	2.626
443.46	2.629
443.81	2.629
444.16	2.623
444.50	2.616
444.85	2.622
445.20	2.631
445.55	2.619
445.89	2.622
446.24	2.617
446.59	2.616
446.94	2.631
447.28	2.631
447.63	2.635
447.98	2.630
448.32	2.642
448.67	2.628
449.02	2.626
449.37	2.640
449.71	2.648
450.06	2.647
450.41	2.655
450.75	2.652
451.10	2.657
451.45	2.651
451.79	2.665
452.14	2.651
452.49	2.658
452.84	2.662
453.18	2.645
453.53	2.638
453.88	2.637
454.22	2.638
454.57	2.643
454.92	2.647
455.26	2.643
455.61	2.647
455.95	2.656
456.30	2.673
456.65	2.662
456.99	2.662
457.34	2.663
457.69	2.675
458.03	2.670
458.38	2.678
458.73	2.675
459.07	2.701
459.42	2.704
459.76	2.707
460.11	2.690
460.46	2.708
460.80	2.739
461.15	2.741
461.49	2.734
461.84	2.750
462.19	2.747
462.53	2.763
462.88	2.741
463.22	2.750
463.57	2.768
463.91	2.796
464.26	2.799
464.61	2.783
464.95	2.798
465.30	2.801
465.64	2.785
465.99	2.799
466.33	2.805
466.68	2.817
467.02	2.822
467.37	2.826
467.71	2.815
468.06	2.822
468.41	2.834
468.75	2.838
469.10	2.838
469.44	2.861
469.79	2.861
470.13	2.870
470.48	2.843
470.82	2.849
471.17	2.841
471.51	2.847
471.86	2.838
472.20	2.838
472.55	2.859
472.89	2.868
473.23	2.855
473.58	2.868
473.92	2.864
474.27	2.869
474.61	2.860
474.96	2.849
475.30	2.835
475.65	2.842
475.99	2.862
476.34	2.839
476.68	2.838
477.02	2.851
477.37	2.833
477.71	2.830
478.06	2.834
478.40	2.849
478.75	2.858
479.09	2.877
479.43	2.895
479.78	2.899
480.12	2.933
480.47	2.972
480.81	3.001
481.15	3.048
481.50	3.086
481.84	3.133
482.19	3.177
482.53	3.230
482.87	3.253
483.22	3.241
483.56	3.216
483.90	3.170
484.25	3.108
484.59	3.058
484.94	3.006
485.28	2.970
485.62	2.925
485.97	2.877
486.31	2.820
486.65	2.791
487.00	2.800
487.34	2.827
487.68	2.857
488.03	2.891
488.37	2.927
488.71	2.948
489.06	2.949
489.40	2.948
489.74	2.945
490.09	2.948
490.43	2.947
490.77	2.949
491.11	2.954
491.46	2.964
491.80	2.988
492.14	2.977
492.49	2.977
492.83	2.983
493.17	2.993
493.51	3.001
493.86	3.015
494.20	3.019
494.54	3.016
494.88	3.003
495.23	3.004
495.57	2.999
495.91	3.013
496.25	3.003
496.60	3.012
496.94	3.021
497.28	3.024
497.62	3.033
497.97	3.053
498.31	3.058
498.65	3.060
498.99	3.057
499.33	3.050
499.68	3.054
500.02	3.073
500.36	3.050
500.70	3.042
501.04	3.047
501.39	3.024
501.73	3.029
502.07	3.021
502.41	3.030
502.75	3.042
503.09	3.048
503.44	3.065
503.78	3.067
504.12	3.095
504.46	3.115
504.80	3.118
505.14	3.116
505.49	3.096
505.83	3.110
506.17	3.110
506.51	3.100
506.85	3.097
507.19	3.089
507.53	3.090
507.87	3.092
508.22	3.085
508.56	3.073
508.90	3.093
509.24	3.103
509.58	3.106
509.92	3.113
510.26	3.123
510.60	3.138
510.94	3.145
511.28	3.156
511.63	3.172
511.97	3.179
512.31	3.201
512.65	3.202
512.99	3.201
513.33	3.205
513.67	3.215
514.01	3.235
514.35	3.233
514.69	3.225
515.03	3.218
515.37	3.197
515.71	3.201
516.05	3.207
516.39	3.203
516.73	3.229
517.07	3.233
517.41	3.241
517.75	3.230
518.09	3.243
518.43	3.261
518.77	3.268
519.11	3.294
519.45	3.293
519.79	3.302
520.13	3.329
520.47	3.308
520.81	3.315
521.15	3.319
521.49	3.338
521.83	3.323
522.17	3.330
522.51	3.341
522.85	3.327
523.19	3.333
523.53	3.340
523.87	3.338
524.21	3.356
524.55	3.362
524.89	3.359
525.23	3.361
525.57	3.381
525.91	3.384
526.25	3.395
526.58	3.408
526.92	3.412
527.26	3.409
527.60	3.407
527.94	3.408
528.28	3.405
528.62	3.407
528.96	3.399
529.30	3.393
529.64	3.385
529.97	3.378
530.31	3.367
530.65	3.366
530.99	3.366
531.33	3.378
531.67	3.376
532.01	3.384
532.35	3.389
532.68	3.399
533.02	3.397
533.36	3.406
533.70	3.410
534.04	3.420
534.38	3.424
534.71	3.432
535.05	3.429
535.39	3.435
535.73	3.444
536.07	3.444
536.41	3.456
536.74	3.471
537.08	3.463
537.42	3.466
537.76	3.464
538.10	3.467
538.43	3.457
538.77	3.452
539.11	3.454
539.45	3.456
539.79	3.466
540.12	3.469
540.46	3.464
540.80	3.472
541.14	3.470
541.47	3.477
541.81	3.478
542.15	3.494
542.49	3.510
542.82	3.507
543.16	3.510
543.50	3.510
543.84	3.501
544.17	3.510
544.51	3.523
544.85	3.532
545.18	3.536
545.52	3.549
545.86	3.555
546.20	3.556
546.53	3.574
546.87	3.571
547.21	3.572
547.54	3.582
547.88	3.596
548.22	3.598
548.55	3.600
548.89	3.620
549.23	3.634
549.56	3.625
549.90	3.648
550.24	3.649
550.57	3.674
550.91	3.665
551.25	3.669
551.58	3.663
551.92	3.664
552.26	3.676
552.59	3.672
552.93	3.679
553.27	3.716
553.60	3.702
553.94	3.705
554.27	3.696
554.61	3.732
554.95	3.761
555.28	3.775
555.62	3.790
555.95	3.809
556.29	3.824
556.63	3.823
556.96	3.819
557.30	3.831
557.63	3.827
557.97	3.823
558.31	3.829
558.64	3.839
558.98	3.833
559.31	3.834
559.65	3.812
559.98	3.798
560.32	3.800
560.65	3.793
560.99	3.812
561.33	3.826
561.66	3.827
562.00	3.809
562.33	3.786
562.67	3.765
563.00	3.762
563.34	3.757
563.67	3.758
564.01	3.737
564.34	3.702
564.68	3.683
565.01	3.689
565.35	3.684
565.68	3.702
566.02	3.701
566.35	3.723
566.69	3.730
567.02	3.746
567.36	3.756
567.69	3.775
568.03	3.802
568.36	3.809
568.69	3.787
569.03	3.792
569.36	3.779
569.70	3.782
570.03	3.792
570.37	3.788
570.70	3.796
571.04	3.791
571.37	3.788
571.70	3.791
572.04	3.787
572.37	3.809
572.71	3.828
573.04	3.847
573.37	3.857
573.71	3.852
574.04	3.850
574.38	3.849
574.71	3.862
575.04	3.871
575.38	3.882
575.71	3.889
576.05	3.911
576.38	3.916
576.71	3.900
577.05	3.909
577.38	3.936
577.71	3.964
578.05	3.956
578.38	3.958
578.71	3.952
579.05	3.963
579.38	3.984
579.71	3.952
580.05	3.947
580.38	3.952
580.71	3.952
581.05	3.928
581.38	3.922
581.71	3.936
582.05	3.933
582.38	3.970
582.71	3.972
583.04	3.940
583.38	3.946
583.71	3.938
584.04	3.938
584.38	3.922
584.71	3.905
585.04	3.882
585.37	3.880
585.71	3.853
586.04	3.828
586.37	3.816
586.70	3.828
587.04	3.792
587.37	3.809
587.70	3.804
588.03	3.814
588.37	3.815
588.70	3.824
589.03	3.809
589.36	3.827
589.69	3.805
590.03	3.795
590.36	3.785
590.69	3.822
591.02	3.800
591.35	3.794
591.69	3.787
592.02	3.810
592.35	3.779
592.68	3.752
593.01	3.750
593.35	3.763
593.68	3.753
594.01	3.741
594.34	3.734
594.67	3.739
595.00	3.741
595.34	3.721
595.67	3.682
596.00	3.711
596.33	3.729
596.66	3.724
596.99	3.729
597.32	3.732
597.65	3.770
597.99	3.784
598.32	3.786
598.65	3.798
598.98	3.817
599.31	3.834
599.64	3.830
599.97	3.828
600.30	3.813
600.63	3.811
600.96	3.805
601.30	3.779
601.63	3.769
601.96	3.766
602.29	3.763
602.62	3.770
602.95	3.778
603.28	3.755
603.61	3.771
603.94	3.772
604.27	3.759
604.60	3.792
604.93	3.783
605.26	3.782
605.59	3.785
605.92	3.791
606.25	3.774
606.58	3.768
606.91	3.794
607.24	3.804
607.57	3.811
607.90	3.811
608.23	3.787
608.56	3.812
608.89	3.812
609.22	3.803
609.55	3.787
609.88	3.778
610.21	3.787
610.54	3.762
610.87	3.744
611.20	3.763
611.53	3.777
611.86	3.758
612.19	3.747
612.52	3.742
612.85	3.765
613.18	3.766
613.51	3.777
613.84	3.768
614.17	3.797
614.49	3.788
614.82	3.777
615.15	3.777
615.48	3.781
615.81	3.770
616.14	3.763
616.47	3.723
616.80	3.713
617.13	3.711
617.46	3.723
617.78	3.706
618.11	3.708
618.44	3.698
618.77	3.683
619.10	3.702
619.43	3.707
619.76	3.703
620.09	3.712
620.41	3.733
620.74	3.755
621.07	3.770
621.40	3.736
621.73	3.717
622.06	3.715
622.38	3.738
622.71	3.711
623.04	3.692
623.37	3.729
623.70	3.747
624.02	3.725
624.35	3.731
624.68	3.716
625.01	3.776
625.34	3.801
625.66	3.817
625.99	3.824
626.32	3.862
626.65	3.885
626.98	3.882
627.30	3.874
627.63	3.919
627.96	3.922
628.29	3.905
628.61	3.894
628.94	3.907
629.27	3.922
629.60	3.919
629.92	3.891
630.25	3.914
630.58	3.895
630.91	3.910
631.23	3.872
631.56	3.858
631.89	3.909
632.21	3.897
632.54	3.889
632.87	3.887
633.19	3.891
633.52	3.889
633.85	3.884
634.18	3.878
634.50	3.867
634.83	3.897
635.16	3.923
635.48	3.914
635.81	3.902
636.14	3.955
636.46	3.938
636.79	3.948
637.11	3.990
637.44	3.994
637.77	4.042
638.09	4.021
638.42	3.991
638.75	3.993
639.07	3.974
639.40	3.970
639.73	3.951
640.05	4.010
640.38	3.980
640.70	3.983
641.03	4.015
641.36	4.004
641.68	4.038
642.01	4.059
642.33	4.059
642.66	4.094
642.98	4.119
643.31	4.083
643.64	4.031
643.96	4.036
644.29	4.038
644.61	4.031
644.94	4.034
645.26	4.062
645.59	4.075
645.91	4.087
646.24	4.067
646.56	4.074
646.89	4.048
647.22	4.058
647.54	4.081
647.87	4.048
648.19	4.018
648.52	4.033
648.84	4.019
649.17	4.017
649.49	3.987
649.82	3.969
650.14	3.985
650.47	4.064
650.79	4.042
651.11	4.036
651.44	4.044
651.76	4.051
652.09	4.034
652.41	4.026
652.74	4.027
653.06	4.026
653.39	4.079
653.71	4.090
654.04	4.051
654.36	4.107
654.68	4.101
655.01	4.107
655.33	4.114
655.66	4.119
655.98	4.138
656.30	4.139
656.63	4.177
656.95	4.124
657.28	4.105
657.60	4.081
657.92	4.056
658.25	4.082
658.57	4.090
658.90	4.085
659.22	4.072
659.54	4.078
659.87	4.063
660.19	4.035
660.51	4.086
660.84	4.126
661.16	4.147
661.48	4.131
661.81	4.118
662.13	4.145
662.45	4.121
662.78	4.119
663.10	4.103
663.42	4.134
663.75	4.160
664.07	4.196
664.39	4.170
664.72	4.180
665.04	4.207
665.36	4.184
665.69	4.197
666.01	4.225
666.33	4.257
666.65	4.257
666.98	4.257
667.30	4.205
667.62	4.108
667.94	4.102
668.27	4.140
668.59	4.145
668.91	4.148
669.23	4.128
669.56	4.124
669.88	4.084
670.20	4.049
670.52	4.016
670.85	4.112
671.17	4.204
671.49	4.214
671.81	4.204
672.13	4.186
672.46	4.207
672.78	4.097
673.10	4.066
673.42	4.102
673.74	4.143
674.07	4.129
674.39	4.057
674.71	4.008
675.03	4.057
675.35	4.035
675.67	4.047
676.00	4.084
676.32	4.232
676.64	4.234
676.96	4.230
677.28	4.251
677.60	4.328
677.92	4.377
678.25	4.397
678.57	4.360
678.89	4.367
679.21	4.386
679.53	4.398
679.85	4.322
680.17	4.382
680.49	4.383
680.81	4.363
681.13	4.369
681.46	4.388
681.78	4.403
682.10	4.379
682.42	4.381
682.74	4.390
683.06	4.329
683.38	4.375
683.70	4.379
684.02	4.378
684.34	4.364
684.66	4.387
684.98	4.343
685.30	4.382
685.62	4.380
685.94	4.383
686.26	4.356
686.58	4.406
686.90	4.396
687.22	4.378
687.54	4.445
687.86	4.464
688.18	4.404
688.50	4.393
688.82	4.344
689.14	4.385
689.46	4.423
689.78	4.392
690.10	4.338
690.42	4.340
690.74	4.326
691.06	4.269
691.38	4.265
691.70	4.239
692.02	4.252
692.34	4.275
692.66	4.260
692.98	4.227
693.30	4.318
693.62	4.344
693.94	4.339
694.26	4.370
694.57	4.362
694.89	4.392
695.21	4.494
695.53	4.497
695.85	4.522
696.17	4.577
696.49	4.583
696.81	4.583
697.13	4.617
697.44	4.628
697.76	4.621
698.08	4.696
698.40	4.709
698.72	4.667
699.04	4.635
699.36	4.568
699.67	4.500
699.99	4.420
700.31	4.417
700.63	4.415
700.95	4.423
701.27	4.376
701.58	4.319
701.90	4.257
702.22	4.322
702.54	4.324
702.86	4.340
703.17	4.381
703.49	4.527
703.81	4.524
704.13	4.494
704.45	4.521
704.76	4.560
705.08	4.517
705.40	4.535
705.72	4.421
706.03	4.410
706.35	4.455
706.67	4.389
706.99	4.303
707.30	4.243
707.62	4.232
707.94	4.225
708.26	4.164
708.57	4.229
708.89	4.260
709.21	4.242
709.53	4.294
709.84	4.255
710.16	4.282
710.48	4.335
710.79	4.346
711.11	4.417
711.43	4.365
711.74	4.419
712.06	4.457
712.38	4.405
712.69	4.482
713.01	4.505
713.33	4.515
713.64	4.582
713.96	4.606
714.28	4.751
714.59	4.729
714.91	4.826
715.23	4.847
715.54	4.819
715.86	4.944
716.17	5.049
716.49	5.124
716.81	5.153
717.12	4.998
717.44	5.044
717.76	5.013
718.07	5.066
718.39	5.006
718.70	4.990
719.02	4.902
719.33	4.896
719.65	4.791
719.97	4.763
720.28	4.751
720.60	4.897
720.91	4.868
721.23	4.793
721.54	4.762
721.86	4.798
722.17	4.754
722.49	4.781
722.81	4.742
723.12	4.695
723.44	4.606
723.75	4.708
724.07	4.681
724.38	4.664
724.70	4.663
725.01	4.741
725.33	4.804
725.64	4.920
725.96	4.940
726.27	4.973
726.59	4.920
726.90	4.964
727.22	4.983
727.53	5.086
727.84	5.148
728.16	5.048
728.47	4.966
728.79	4.964
729.10	4.912
729.42	4.930
729.73	4.901
730.05	5.088
730.36	5.094
730.67	5.110
730.99	5.017
731.30	4.918
731.62	4.966
731.93	4.987
732.24	4.932
732.56	4.958
732.87	4.854
733.19	4.799
733.50	4.726
733.81	4.691
734.13	4.669
734.44	4.721
734.76	4.798
735.07	4.753
735.38	4.684
735.70	4.814
736.01	4.845
736.32	4.939
736.64	5.076
736.95	5.019
737.26	5.123
737.58	5.099
737.89	5.115
738.20	5.044
738.52	5.094
738.83	5.110
739.14	5.027
739.45	5.022
739.77	5.099
740.08	5.034
740.39	5.046
740.71	5.013
741.02	5.116
741.33	5.151
741.64	5.079
741.96	5.032
742.27	5.012
742.58	4.943
742.90	4.970
743.21	4.919
743.52	4.957
743.83	4.985
744.14	4.953
744.46	4.743
744.77	4.738
745.08	4.883
745.39	4.969
745.71	5.063
746.02	5.117
746.33	5.039
746.64	5.165
746.95	5.191
747.27	5.210
747.58	5.247
747.89	5.460
748.20	5.404
748.51	5.515
748.82	5.684
749.14	5.673
749.45	5.734
749.76	5.823
750.07	5.602
750.38	5.423
750.69	5.642
751.01	5.693
751.32	5.635
751.63	5.529
751.94	5.436
752.25	5.356
752.56	5.351
752.87	5.368
753.18	5.330
753.49	5.398
753.81	5.388
754.12	5.242
754.43	5.342
754.74	5.359
755.05	5.546
755.36	5.630
755.67	5.607
755.98	5.767
756.29	5.750
756.60	5.820
756.91	5.997
757.22	6.245
757.53	6.325
757.84	6.365
758.15	6.463
758.46	6.503
758.77	6.558
759.09	6.672
759.40	6.663
759.71	6.925
760.02	6.982
760.33	6.994
760.64	6.999
760.95	6.990
761.26	6.913
761.57	6.887
761.88	6.846
762.18	6.814
762.49	6.840
762.80	6.771
763.11	6.593
763.42	6.529
763.73	6.497
764.04	6.284
764.35	6.170
764.66	6.016
764.97	5.930
765.28	6.078
765.59	6.147
765.90	6.222
766.21	6.384
766.52	6.181
766.83	6.201
767.14	6.241
767.44	6.561
767.75	6.721
768.06	6.865
768.37	6.873
768.68	6.680
768.99	6.422
769.30	6.286
769.61	6.023
769.91	6.079
770.22	6.046
770.53	5.935
770.84	6.036
771.15	6.053
771.46	6.094
771.77	5.979
772.07	6.133
772.38	6.018
772.69	5.863
773.00	5.884
773.31	6.302
773.61	6.358
773.92	6.406
774.23	6.245
774.54	6.188
774.85	6.049
775.15	6.287
775.46	6.188
775.77	6.465
776.08	6.432
776.39	6.410
776.69	6.402
777.00	6.396
777.31	6.462
777.62	6.603
777.92	6.402
778.23	6.791
778.54	6.325
778.85	6.525
779.15	6.714
779.46	6.785
779.77	6.916
780.07	6.888
780.38	6.870
780.69	6.896
781.00	6.728
781.30	6.666
781.61	6.491
781.92	6.895
782.22	6.779
782.53	6.706
782.84	6.855
783.14	6.942
783.45	6.776
783.76	7.031
784.06	6.900
784.37	7.019
784.68	7.117
784.98	7.209
785.29	7.425
785.60	7.377
785.90	7.514
786.21	7.257
786.51	6.997
786.82	6.808
787.13	6.810
787.43	7.111
787.74	6.952
788.04	7.166
788.35	7.199
788.66	6.886
788.96	7.014
789.27	6.957
789.57	7.369
789.88	7.877
790.19	8.257
790.49	8.307
790.80	8.080
791.10	8.242
791.41	8.051
791.71	8.147
792.02	8.637
792.32	8.337
792.63	8.440
792.93	8.131
793.24	7.570
793.54	7.421
793.85	7.481
794.15	7.445
794.46	7.456
794.76	7.550
795.07	7.238
795.37	7.102
795.68	7.173
795.98	7.092
796.29	7.380
796.59	7.647
796.90	7.654
797.20	7.416
797.51	7.515
797.81	7.535
798.12	7.482
798.42	7.664
798.72	7.502
799.03	7.612
799.33	7.657
799.64	7.418
799.94	7.491
800.25	7.885
800.55	8.184
800.85	8.195
801.16	8.270
801.46	8.537
801.77	8.387
802.07	8.459
802.37	8.264
802.68	8.073
802.98	8.394
803.28	8.562
803.59	7.962
803.89	7.753
804.20	7.859
804.50	8.080
804.80	7.682
805.11	8.191
805.41	8.237
805.71	8.420
806.02	8.587
806.32	8.642
806.62	8.339
806.93	8.552
807.23	8.553
807.53	8.366
807.83	7.851
808.14	7.892
808.44	7.550
808.74	7.536
809.05	7.760
809.35	7.833
809.65	7.432
809.95	7.791
810.26	7.664
810.56	7.690
810.86	7.942
811.16	8.139
811.47	8.494
811.77	8.522
812.07	8.379
812.37	7.951
812.68	7.713
812.98	8.114
813.28	7.881
813.58	8.049
813.88	8.034
814.19	7.835
814.49	7.593
814.79	7.572
815.09	7.528
815.39	7.599
815.70	8.208
816.00	8.390
816.30	8.040
816.60	7.759
816.90	7.982
817.20	7.892
817.50	8.173
817.81	8.434
818.11	8.438
818.41	8.657
818.71	8.802
819.01	8.756
819.31	8.799
819.61	8.806
819.92	8.936
820.22	8.875
820.52	8.931
820.82	8.843
821.12	8.807
821.42	8.826
821.72	8.830
822.02	8.723
822.32	8.639
822.62	8.569
822.92	8.571
823.22	8.492
823.52	8.512
823.83	8.457
824.13	8.460
824.43	8.433
824.73	8.401
825.03	8.272
825.33	8.333
825.63	8.425
825.93	8.469
826.23	8.464
826.53	8.463
826.83	8.477
827.13	8.397
827.43	8.380
827.73	8.555
828.03	8.503
828.33	8.434
828.63	8.415
828.93	8.315
829.23	8.302
829.53	8.210
829.83	8.358
830.13	8.294
830.42	8.509
830.72	8.665
831.02	8.526
831.32	8.523
831.62	8.754
831.92	8.784
832.22	8.964
832.52	8.989
832.82	9.288
833.12	9.139
833.42	8.927
833.72	8.948
834.01	8.891
834.31	8.928
834.61	9.125
834.91	9.215
835.21	9.216
835.51	9.086
835.81	9.143
836.11	9.027
836.40	9.343
836.70	10.156
837.00	10.570
837.30	11.063
837.60	11.480
837.90	11.328
838.19	10.933
838.49	11.113
838.79	11.108
839.09	11.017
839.39	10.844
839.68	10.769
839.98	10.455
840.28	9.815
840.58	9.441
840.88	8.763
841.17	8.858
841.47	9.034
841.77	8.887
842.07	9.396
842.36	9.308
842.66	9.304
842.96	9.638
843.26	8.555
843.55	8.644
843.85	9.344
844.15	9.443
844.45	9.692
844.74	10.202
845.04	10.460
845.34	9.865
845.63	9.343
845.93	10.917
846.23	10.309
846.53	11.117
846.82	11.795
847.12	11.697
847.42	10.545
847.71	9.315
848.01	9.098
848.31	9.212
848.60	8.621
848.90	8.002
849.19	6.924
849.49	7.198
849.79	7.679
850.08	8.026
850.38	7.890
850.68	10.820
850.97	12.804
851.27	12.852
851.56	12.426
851.86	11.532
852.16	13.691
852.45	13.354
852.75	12.186
853.04	11.240
853.34	11.017
853.64	9.380
853.93	8.241
854.23	8.904
854.52	9.042
854.82	9.693
855.11	11.026
855.41	10.227
855.70	9.904
856.00	10.932
856.30	12.359
856.59	12.223
856.89	14.584
857.18	13.478
857.48	11.166
857.77	9.930
858.07	9.250
858.36	9.305
858.66	8.501
858.95	9.036
859.25	9.708
859.54	7.879
859.84	7.460
860.13	5.983
860.42	6.687
860.72	7.637
861.01	9.700
861.31	10.466
861.60	10.133
861.90	9.902
862.19	9.106
862.49	9.443
862.78	12.273
863.07	12.800
863.37	12.399
863.66	11.487
863.96	11.221
864.25	10.313
864.54	10.328
864.84	10.255
865.13	9.272
865.43	8.413
865.72	13.086
866.01	14.778
866.31	3.265
866.60	-12.231
866.89	-3.904
>>>>>End Spectral Data<<<<<
