OOIBase32 Version 2.0.0.6 Data File
++++++++++++++++++++++++++++++++++++
Date: 01-23-2012, 22:00:26
User: Valued Ocean Optics Customer
Spectrometer Serial Number: USB2E2917
Spectrometer Channel: Master
Integration Time (msec): 5
Spectra Averaged: 10
Boxcar Smoothing: 5
Correct for Electrical Dark: Enabled
Time Normalized: Disabled
Dual-beam Reference: Disabled
Reference Channel: Master
Temperature: Not acquired
Spectrometer Type: S2000
ADC Type: USB2000
Number of Pixels in File: 2048
Graph Title: 
>>>>>Begin Spectral Data<<<<<
180.30	0.000
180.67	0.000
181.03	101.333
181.40	-220.684
181.77	6136.467
182.14	59.372
182.51	137.590
182.88	-2327.225
183.25	519.044
183.62	57.071
183.99	94.829
184.36	213.185
184.73	-17.374
185.10	26.560
185.46	38.298
185.83	-4.324
186.20	-27.767
186.57	170.132
186.94	33.509
187.31	104.967
187.68	-307.490
188.05	89.118
188.42	81.936
188.78	95.320
189.15	71.434
189.52	67.452
189.89	52.314
190.26	61.997
190.63	80.194
191.00	73.324
191.37	62.987
191.73	55.039
192.10	55.810
192.47	48.679
192.84	41.674
193.21	45.006
193.58	44.883
193.94	43.859
194.31	31.103
194.68	29.673
195.05	20.874
195.42	16.304
195.79	1.439
196.15	1.684
196.52	5.722
196.89	-9.161
197.26	-5.426
197.63	-7.355
198.00	-4.714
198.36	-0.065
198.73	-7.270
199.10	-0.060
199.47	3.316
199.84	15.853
200.20	26.060
200.57	15.367
200.94	12.135
201.31	-0.080
201.68	16.305
202.04	9.084
202.41	20.804
202.78	14.514
203.15	12.256
203.51	-4.440
203.88	-6.234
204.25	-23.824
204.62	-3.661
204.98	13.007
205.35	29.068
205.72	21.897
206.09	27.487
206.46	19.304
206.82	25.038
207.19	26.909
207.56	32.051
207.92	30.589
208.29	35.235
208.66	21.827
209.03	21.140
209.39	11.986
209.76	6.420
210.13	-1.559
210.50	-5.858
210.86	5.641
211.23	20.167
211.60	24.240
211.96	32.322
212.33	27.609
212.70	35.909
213.07	28.302
213.43	34.874
213.80	37.746
214.17	32.708
214.53	35.858
214.90	29.668
215.27	23.809
215.63	24.773
216.00	22.794
216.37	31.818
216.74	28.292
217.10	31.150
217.47	21.120
217.84	21.346
218.20	34.471
218.57	37.802
218.94	33.792
219.30	32.274
219.67	20.804
220.04	23.069
220.40	12.579
220.77	9.977
221.13	0.953
221.50	-2.332
221.87	-10.527
222.23	-15.298
222.60	-10.570
222.97	-10.260
223.33	-14.606
223.70	-8.765
224.07	-7.237
224.43	-5.814
224.80	-1.915
225.16	1.105
225.53	4.215
225.90	3.886
226.26	0.926
226.63	-0.539
226.99	1.170
227.36	2.077
227.73	0.975
228.09	-0.984
228.46	-0.010
228.82	1.026
229.19	1.800
229.56	-0.494
229.92	1.316
230.29	5.004
230.65	5.000
231.02	3.899
231.38	3.084
231.75	5.414
232.12	7.140
232.48	6.912
232.85	4.327
233.21	4.345
233.58	6.732
233.94	6.921
234.31	4.943
234.68	4.688
235.04	4.297
235.41	6.329
235.77	5.911
236.14	4.416
236.50	3.181
236.87	3.930
237.23	3.822
237.60	3.277
237.96	2.305
238.33	3.507
238.69	3.230
239.06	3.506
239.42	2.843
239.79	2.737
240.15	2.926
240.52	3.053
240.88	3.194
241.25	3.322
241.61	3.417
241.98	3.481
242.34	2.927
242.71	3.449
243.07	3.561
243.44	3.728
243.80	3.695
244.17	4.000
244.53	4.430
244.90	4.098
245.26	3.913
245.63	3.766
245.99	3.925
246.36	4.011
246.72	3.356
247.09	3.294
247.45	3.138
247.81	3.042
248.18	2.632
248.54	2.193
248.91	2.116
249.27	2.425
249.64	2.331
250.00	2.289
250.36	2.001
250.73	2.464
251.09	2.610
251.46	2.710
251.82	2.721
252.19	3.222
252.55	3.310
252.91	3.468
253.28	2.435
253.64	2.335
254.01	2.516
254.37	2.895
254.73	3.229
255.10	3.225
255.46	3.127
255.83	3.107
256.19	3.044
256.55	2.931
256.92	2.844
257.28	3.024
257.65	3.116
258.01	3.276
258.37	3.173
258.74	3.265
259.10	3.161
259.46	3.333
259.83	3.394
260.19	3.197
260.55	3.172
260.92	3.245
261.28	3.216
261.64	3.069
262.01	2.742
262.37	2.765
262.73	2.262
263.10	2.158
263.46	2.231
263.82	2.021
264.19	2.089
264.55	2.311
264.91	2.415
265.28	2.717
265.64	2.766
266.00	2.438
266.37	2.320
266.73	2.681
267.09	2.976
267.46	3.160
267.82	3.238
268.18	3.418
268.54	3.302
268.91	3.533
269.27	3.595
269.63	3.642
270.00	3.868
270.36	3.761
270.72	3.668
271.08	3.496
271.45	3.127
271.81	3.356
272.17	3.364
272.53	3.156
272.90	2.702
273.26	2.461
273.62	2.318
273.98	2.119
274.35	2.001
274.71	2.082
275.07	2.338
275.43	2.679
275.80	2.510
276.16	2.587
276.52	2.705
276.88	2.802
277.25	2.776
277.61	2.903
277.97	3.041
278.33	3.115
278.69	2.774
279.06	2.557
279.42	2.158
279.78	2.035
280.14	2.012
280.50	2.002
280.87	2.056
281.23	2.356
281.59	2.443
281.95	2.439
282.31	2.655
282.68	2.906
283.04	3.057
283.40	3.200
283.76	3.008
284.12	2.984
284.48	3.094
284.85	3.207
285.21	3.005
285.57	3.004
285.93	2.962
286.29	2.882
286.65	2.899
287.02	2.854
287.38	2.787
287.74	3.119
288.10	3.139
288.46	3.113
288.82	2.965
289.18	2.915
289.54	2.880
289.91	3.106
290.27	3.105
290.63	3.176
290.99	3.040
291.35	3.086
291.71	3.073
292.07	2.921
292.43	2.918
292.79	3.349
293.16	3.466
293.52	3.332
293.88	3.256
294.24	3.370
294.60	3.074
294.96	3.140
295.32	3.094
295.68	2.974
296.04	3.109
296.40	3.111
296.76	2.893
297.12	2.904
297.49	3.038
297.85	3.065
298.21	3.024
298.57	3.081
298.93	3.028
299.29	3.129
299.65	3.154
300.01	3.190
300.37	3.131
300.73	3.382
301.09	3.415
301.45	3.437
301.81	3.422
302.17	3.418
302.53	3.471
302.89	3.398
303.25	3.348
303.61	3.462
303.97	3.309
304.33	3.235
304.69	3.036
305.05	3.029
305.41	2.963
305.77	2.982
306.13	2.919
306.49	3.077
306.85	3.278
307.21	3.376
307.57	3.283
307.93	3.294
308.29	3.394
308.65	3.335
309.01	3.333
309.37	3.395
309.73	3.404
310.09	3.369
310.45	3.322
310.81	3.308
311.17	3.104
311.53	3.186
311.89	3.351
312.25	3.317
312.61	3.371
312.96	3.475
313.32	3.419
313.68	3.380
314.04	3.410
314.40	3.332
314.76	3.317
315.12	3.505
315.48	3.483
315.84	3.196
316.20	3.206
316.56	3.172
316.92	2.943
317.27	2.989
317.63	2.955
317.99	2.971
318.35	2.987
318.71	2.905
319.07	2.924
319.43	2.911
319.79	3.001
320.15	2.985
320.50	2.841
320.86	2.958
321.22	2.846
321.58	2.935
321.94	2.911
322.30	2.900
322.66	2.991
323.01	3.010
323.37	2.865
323.73	2.909
324.09	2.961
324.45	3.095
324.81	3.031
325.17	3.060
325.52	3.010
325.88	2.998
326.24	3.024
326.60	3.024
326.96	2.964
327.31	3.006
327.67	2.990
328.03	2.897
328.39	2.739
328.75	2.741
329.11	2.876
329.46	2.868
329.82	2.889
330.18	2.897
330.54	2.866
330.90	2.924
331.25	2.964
331.61	2.921
331.97	2.958
332.33	3.203
332.68	3.144
333.04	3.012
333.40	3.013
333.76	3.020
334.11	2.962
334.47	2.952
334.83	2.823
335.19	2.868
335.54	2.984
335.90	3.060
336.26	2.899
336.62	3.007
336.97	3.043
337.33	3.042
337.69	3.081
338.05	3.148
338.40	3.126
338.76	3.290
339.12	3.245
339.48	3.201
339.83	3.148
340.19	3.225
340.55	3.164
340.90	3.248
341.26	3.236
341.62	3.200
341.97	3.239
342.33	3.322
342.69	3.177
343.04	3.200
343.40	3.201
343.76	3.308
344.12	3.392
344.47	3.524
344.83	3.457
345.19	3.433
345.54	3.497
345.90	3.525
346.26	3.459
346.61	3.573
346.97	3.543
347.32	3.563
347.68	3.520
348.04	3.423
348.39	3.394
348.75	3.519
349.11	3.531
349.46	3.505
349.82	3.464
350.18	3.483
350.53	3.403
350.89	3.454
351.24	3.455
351.60	3.405
351.96	3.415
352.31	3.429
352.67	3.332
353.02	3.352
353.38	3.301
353.74	3.316
354.09	3.278
354.45	3.409
354.80	3.385
355.16	3.345
355.52	3.426
355.87	3.446
356.23	3.459
356.58	3.513
356.94	3.542
357.29	3.588
357.65	3.599
358.00	3.651
358.36	3.580
358.72	3.644
359.07	3.728
359.43	3.729
359.78	3.759
360.14	3.721
360.49	3.715
360.85	3.739
361.20	3.827
361.56	3.833
361.91	3.853
362.27	3.893
362.62	3.857
362.98	3.817
363.33	3.818
363.69	3.778
364.04	3.768
364.40	3.750
364.75	3.766
365.11	3.772
365.46	3.760
365.82	3.787
366.17	3.774
366.53	3.864
366.88	3.853
367.24	3.881
367.59	3.929
367.95	3.994
368.30	3.985
368.66	3.998
369.01	3.931
369.37	3.945
369.72	3.935
370.08	3.981
370.43	3.950
370.78	3.968
371.14	3.965
371.49	4.009
371.85	4.003
372.20	4.038
372.56	4.040
372.91	4.033
373.26	4.009
373.62	3.996
373.97	3.999
374.33	4.000
374.68	3.992
375.03	4.038
375.39	3.992
375.74	4.006
376.10	4.007
376.45	4.021
376.80	4.051
377.16	4.114
377.51	4.137
377.87	4.096
378.22	4.107
378.57	4.191
378.93	4.160
379.28	4.252
379.63	4.258
379.99	4.314
380.34	4.336
380.70	4.375
381.05	4.396
381.40	4.419
381.76	4.463
382.11	4.481
382.46	4.421
382.82	4.421
383.17	4.377
383.52	4.372
383.88	4.325
384.23	4.355
384.58	4.305
384.94	4.261
385.29	4.299
385.64	4.319
385.99	4.313
386.35	4.399
386.70	4.453
387.05	4.423
387.41	4.463
387.76	4.489
388.11	4.447
388.47	4.527
388.82	4.541
389.17	4.515
389.52	4.513
389.88	4.535
390.23	4.505
390.58	4.493
390.93	4.539
391.29	4.542
391.64	4.560
391.99	4.595
392.34	4.570
392.70	4.562
393.05	4.558
393.40	4.534
393.75	4.545
394.11	4.557
394.46	4.561
394.81	4.511
395.16	4.456
395.52	4.427
395.87	4.356
396.22	4.335
396.57	4.358
396.92	4.360
397.28	4.400
397.63	4.377
397.98	4.361
398.33	4.368
398.68	4.409
399.04	4.438
399.39	4.450
399.74	4.488
400.09	4.506
400.44	4.526
400.80	4.527
401.15	4.490
401.50	4.488
401.85	4.516
402.20	4.497
402.55	4.521
402.90	4.526
403.26	4.550
403.61	4.543
403.96	4.579
404.31	4.549
404.66	4.571
405.01	4.606
405.36	4.641
405.72	4.590
406.07	4.613
406.42	4.607
406.77	4.613
407.12	4.599
407.47	4.614
407.82	4.570
408.17	4.574
408.53	4.571
408.88	4.586
409.23	4.581
409.58	4.592
409.93	4.580
410.28	4.595
410.63	4.586
410.98	4.599
411.33	4.593
411.68	4.584
412.03	4.612
412.38	4.605
412.73	4.594
413.09	4.571
413.44	4.598
413.79	4.624
414.14	4.622
414.49	4.636
414.84	4.651
415.19	4.671
415.54	4.723
415.89	4.738
416.24	4.743
416.59	4.750
416.94	4.759
417.29	4.779
417.64	4.759
417.99	4.769
418.34	4.777
418.69	4.774
419.04	4.784
419.39	4.776
419.74	4.772
420.09	4.786
420.44	4.791
420.79	4.801
421.14	4.776
421.49	4.795
421.84	4.803
422.19	4.807
422.54	4.833
422.89	4.829
423.24	4.834
423.59	4.837
423.94	4.834
424.29	4.829
424.64	4.823
424.99	4.851
425.34	4.845
425.68	4.855
426.03	4.875
426.38	4.869
426.73	4.882
427.08	4.875
427.43	4.890
427.78	4.886
428.13	4.914
428.48	4.928
428.83	4.921
429.18	4.918
429.53	4.906
429.87	4.905
430.22	4.875
430.57	4.878
430.92	4.871
431.27	4.879
431.62	4.884
431.97	4.874
432.32	4.868
432.67	4.873
433.01	4.880
433.36	4.893
433.71	4.891
434.06	4.901
434.41	4.917
434.76	4.932
435.11	4.920
435.45	4.932
435.80	4.922
436.15	4.922
436.50	4.928
436.85	4.945
437.20	4.928
437.54	4.933
437.89	4.924
438.24	4.928
438.59	4.940
438.94	4.963
439.29	4.966
439.63	4.975
439.98	5.007
440.33	5.015
440.68	5.021
441.03	5.040
441.37	5.055
441.72	5.076
442.07	5.074
442.42	5.077
442.76	5.069
443.11	5.064
443.46	5.074
443.81	5.069
444.16	5.079
444.50	5.083
444.85	5.092
445.20	5.092
445.55	5.100
445.89	5.094
446.24	5.076
446.59	5.074
446.94	5.082
447.28	5.085
447.63	5.083
447.98	5.087
448.32	5.098
448.67	5.080
449.02	5.102
449.37	5.106
449.71	5.128
450.06	5.150
450.41	5.176
450.75	5.197
451.10	5.202
451.45	5.218
451.79	5.215
452.14	5.205
452.49	5.207
452.84	5.184
453.18	5.177
453.53	5.171
453.88	5.181
454.22	5.163
454.57	5.160
454.92	5.173
455.26	5.167
455.61	5.180
455.95	5.199
456.30	5.228
456.65	5.221
456.99	5.245
457.34	5.255
457.69	5.273
458.03	5.277
458.38	5.291
458.73	5.290
459.07	5.323
459.42	5.339
459.76	5.333
460.11	5.321
460.46	5.341
460.80	5.347
461.15	5.344
461.49	5.327
461.84	5.349
462.19	5.344
462.53	5.362
462.88	5.324
463.22	5.302
463.57	5.316
463.91	5.334
464.26	5.353
464.61	5.355
464.95	5.365
465.30	5.388
465.64	5.390
465.99	5.383
466.33	5.368
466.68	5.401
467.02	5.423
467.37	5.420
467.71	5.409
468.06	5.415
468.41	5.414
468.75	5.423
469.10	5.419
469.44	5.418
469.79	5.418
470.13	5.438
470.48	5.395
470.82	5.396
471.17	5.393
471.51	5.401
471.86	5.377
472.20	5.383
472.55	5.398
472.89	5.397
473.23	5.384
473.58	5.387
473.92	5.379
474.27	5.410
474.61	5.410
474.96	5.418
475.30	5.415
475.65	5.433
475.99	5.416
476.34	5.406
476.68	5.406
477.02	5.432
477.37	5.432
477.71	5.429
478.06	5.442
478.40	5.480
478.75	5.559
479.09	5.636
479.43	5.710
479.78	5.812
480.12	5.898
480.47	6.000
480.81	6.098
481.15	6.213
481.50	6.329
481.84	6.453
482.19	6.572
482.53	6.667
482.87	6.722
483.22	6.717
483.56	6.644
483.90	6.551
484.25	6.425
484.59	6.309
484.94	6.215
485.28	6.124
485.62	6.010
485.97	5.890
486.31	5.771
486.65	5.702
487.00	5.684
487.34	5.723
487.68	5.785
488.03	5.865
488.37	5.919
488.71	5.936
489.06	5.936
489.40	5.927
489.74	5.912
490.09	5.911
490.43	5.900
490.77	5.893
491.11	5.888
491.46	5.876
491.80	5.865
492.14	5.841
492.49	5.830
492.83	5.818
493.17	5.807
493.51	5.797
493.86	5.794
494.20	5.787
494.54	5.774
494.88	5.774
495.23	5.771
495.57	5.787
495.91	5.824
496.25	5.832
496.60	5.833
496.94	5.847
497.28	5.866
497.62	5.876
497.97	5.890
498.31	5.906
498.65	5.895
498.99	5.905
499.33	5.901
499.68	5.893
500.02	5.892
500.36	5.908
500.70	5.898
501.04	5.898
501.39	5.893
501.73	5.896
502.07	5.905
502.41	5.913
502.75	5.929
503.09	5.936
503.44	5.938
503.78	5.959
504.12	5.969
504.46	5.989
504.80	6.007
505.14	6.021
505.49	6.021
505.83	6.051
506.17	6.077
506.51	6.084
506.85	6.095
507.19	6.125
507.53	6.126
507.87	6.142
508.22	6.160
508.56	6.172
508.90	6.187
509.24	6.212
509.58	6.217
509.92	6.223
510.26	6.230
510.60	6.249
510.94	6.246
511.28	6.266
511.63	6.275
511.97	6.296
512.31	6.299
512.65	6.314
512.99	6.322
513.33	6.339
513.67	6.373
514.01	6.406
514.35	6.426
514.69	6.458
515.03	6.492
515.37	6.520
515.71	6.529
516.05	6.557
516.39	6.568
516.73	6.593
517.07	6.605
517.41	6.618
517.75	6.622
518.09	6.625
518.43	6.631
518.77	6.629
519.11	6.639
519.45	6.653
519.79	6.666
520.13	6.688
520.47	6.675
520.81	6.693
521.15	6.693
521.49	6.719
521.83	6.732
522.17	6.755
522.51	6.768
522.85	6.774
523.19	6.820
523.53	6.877
523.87	6.948
524.21	7.026
524.55	7.085
524.89	7.144
525.23	7.198
525.57	7.239
525.91	7.277
526.25	7.327
526.58	7.370
526.92	7.389
527.26	7.393
527.60	7.391
527.94	7.375
528.28	7.366
528.62	7.353
528.96	7.322
529.30	7.312
529.64	7.283
529.97	7.255
530.31	7.229
530.65	7.206
530.99	7.205
531.33	7.193
531.67	7.213
532.01	7.207
532.35	7.214
532.68	7.209
533.02	7.201
533.36	7.200
533.70	7.195
534.04	7.186
534.38	7.181
534.71	7.158
535.05	7.144
535.39	7.130
535.73	7.133
536.07	7.124
536.41	7.160
536.74	7.191
537.08	7.237
537.42	7.265
537.76	7.300
538.10	7.332
538.43	7.367
538.77	7.397
539.11	7.417
539.45	7.448
539.79	7.470
540.12	7.471
540.46	7.471
540.80	7.468
541.14	7.443
541.47	7.431
541.81	7.429
542.15	7.430
542.49	7.413
542.82	7.391
543.16	7.369
543.50	7.336
543.84	7.322
544.17	7.306
544.51	7.295
544.85	7.317
545.18	7.325
545.52	7.310
545.86	7.295
546.20	7.292
546.53	7.292
546.87	7.275
547.21	7.284
547.54	7.275
547.88	7.280
548.22	7.284
548.55	7.295
548.89	7.304
549.23	7.319
549.56	7.312
549.90	7.330
550.24	7.341
550.57	7.367
550.91	7.371
551.25	7.397
551.58	7.417
551.92	7.420
552.26	7.414
552.59	7.414
552.93	7.411
553.27	7.432
553.60	7.409
553.94	7.411
554.27	7.406
554.61	7.428
554.95	7.443
555.28	7.456
555.62	7.464
555.95	7.468
556.29	7.457
556.63	7.487
556.96	7.485
557.30	7.522
557.63	7.533
557.97	7.532
558.31	7.532
558.64	7.533
558.98	7.533
559.31	7.531
559.65	7.548
559.98	7.570
560.32	7.553
560.65	7.567
560.99	7.566
561.33	7.581
561.66	7.614
562.00	7.637
562.33	7.644
562.67	7.631
563.00	7.655
563.34	7.653
563.67	7.651
564.01	7.663
564.34	7.668
564.68	7.686
565.01	7.688
565.35	7.673
565.68	7.669
566.02	7.690
566.35	7.711
566.69	7.708
567.02	7.719
567.36	7.731
567.69	7.746
568.03	7.765
568.36	7.770
568.69	7.778
569.03	7.784
569.36	7.792
569.70	7.770
570.03	7.783
570.37	7.796
570.70	7.819
571.04	7.832
571.37	7.832
571.70	7.819
572.04	7.829
572.37	7.842
572.71	7.855
573.04	7.871
573.37	7.905
573.71	7.897
574.04	7.916
574.38	7.910
574.71	7.915
575.04	7.938
575.38	7.949
575.71	7.934
576.05	7.930
576.38	7.946
576.71	7.920
577.05	7.894
577.38	7.904
577.71	7.896
578.05	7.896
578.38	7.904
578.71	7.888
579.05	7.892
579.38	7.918
579.71	7.923
580.05	7.920
580.38	7.931
580.71	7.938
581.05	7.923
581.38	7.920
581.71	7.937
582.05	7.936
582.38	7.956
582.71	7.983
583.04	7.958
583.38	7.972
583.71	7.979
584.04	8.015
584.38	8.041
584.71	8.054
585.04	8.070
585.37	8.073
585.71	8.100
586.04	8.095
586.37	8.102
586.70	8.137
587.04	8.131
587.37	8.146
587.70	8.146
588.03	8.138
588.37	8.154
588.70	8.133
589.03	8.131
589.36	8.107
589.69	8.101
590.03	8.073
590.36	8.073
590.69	8.104
591.02	8.082
591.35	8.053
591.69	8.055
592.02	8.054
592.35	8.055
592.68	8.052
593.01	8.061
593.35	8.083
593.68	8.099
594.01	8.089
594.34	8.072
594.67	8.080
595.00	8.092
595.34	8.076
595.67	8.063
596.00	8.078
596.33	8.065
596.66	8.020
596.99	7.983
597.32	7.958
597.65	7.967
597.99	7.936
598.32	7.925
598.65	7.949
598.98	7.961
599.31	7.976
599.64	7.977
599.97	8.010
600.30	8.033
600.63	8.052
600.96	8.060
601.30	8.054
601.63	8.086
601.96	8.114
602.29	8.084
602.62	8.113
602.95	8.134
603.28	8.133
603.61	8.127
603.94	8.117
604.27	8.121
604.60	8.121
604.93	8.131
605.26	8.108
605.59	8.086
605.92	8.106
606.25	8.080
606.58	8.067
606.91	8.049
607.24	8.057
607.57	8.098
607.90	8.097
608.23	8.097
608.56	8.097
608.89	8.124
609.22	8.139
609.55	8.131
609.88	8.128
610.21	8.116
610.54	8.140
610.87	8.101
611.20	8.102
611.53	8.088
611.86	8.095
612.19	8.112
612.52	8.091
612.85	8.091
613.18	8.077
613.51	8.075
613.84	8.084
614.17	8.086
614.49	8.105
614.82	8.087
615.15	8.091
615.48	8.092
615.81	8.064
616.14	8.078
616.47	8.065
616.80	8.074
617.13	8.060
617.46	8.056
617.78	8.044
618.11	8.035
618.44	8.029
618.77	8.031
619.10	8.038
619.43	8.039
619.76	8.027
620.09	8.046
620.41	8.046
620.74	8.105
621.07	8.111
621.40	8.097
621.73	8.145
622.06	8.192
622.38	8.208
622.71	8.215
623.04	8.251
623.37	8.300
623.70	8.304
624.02	8.330
624.35	8.319
624.68	8.341
625.01	8.402
625.34	8.401
625.66	8.398
625.99	8.427
626.32	8.450
626.65	8.442
626.98	8.423
627.30	8.433
627.63	8.440
627.96	8.447
628.29	8.426
628.61	8.413
628.94	8.411
629.27	8.424
629.60	8.450
629.92	8.445
630.25	8.469
630.58	8.439
630.91	8.434
631.23	8.425
631.56	8.427
631.89	8.490
632.21	8.485
632.54	8.456
632.87	8.457
633.19	8.456
633.52	8.440
633.85	8.427
634.18	8.424
634.50	8.425
634.83	8.438
635.16	8.446
635.48	8.422
635.81	8.403
636.14	8.427
636.46	8.376
636.79	8.354
637.11	8.383
637.44	8.415
637.77	8.439
638.09	8.436
638.42	8.401
638.75	8.393
639.07	8.404
639.40	8.410
639.73	8.421
640.05	8.507
640.38	8.507
640.70	8.501
641.03	8.507
641.36	8.520
641.68	8.490
642.01	8.490
642.33	8.471
642.66	8.466
642.98	8.503
643.31	8.511
643.64	8.460
643.96	8.459
644.29	8.473
644.61	8.447
644.94	8.465
645.26	8.529
645.59	8.548
645.91	8.594
646.24	8.601
646.56	8.590
646.89	8.583
647.22	8.620
647.54	8.615
647.87	8.605
648.19	8.596
648.52	8.644
648.84	8.660
649.17	8.682
649.49	8.681
649.82	8.705
650.14	8.722
650.47	8.775
650.79	8.779
651.11	8.795
651.44	8.813
651.76	8.825
652.09	8.763
652.41	8.762
652.74	8.787
653.06	8.821
653.39	8.823
653.71	8.865
654.04	8.878
654.36	8.861
654.68	8.871
655.01	8.886
655.33	8.910
655.66	8.953
655.98	8.905
656.30	8.923
656.63	8.900
656.95	8.906
657.28	8.881
657.60	8.826
657.92	8.798
658.25	8.823
658.57	8.815
658.90	8.831
659.22	8.825
659.54	8.854
659.87	8.770
660.19	8.730
660.51	8.733
660.84	8.727
661.16	8.775
661.48	8.802
661.81	8.738
662.13	8.675
662.45	8.636
662.78	8.591
663.10	8.569
663.42	8.673
663.75	8.679
664.07	8.689
664.39	8.710
664.72	8.689
665.04	8.684
665.36	8.709
665.69	8.795
666.01	8.812
666.33	8.882
666.65	8.947
666.98	8.932
667.30	8.953
667.62	8.874
667.94	8.851
668.27	8.839
668.59	8.845
668.91	8.861
669.23	8.890
669.56	8.889
669.88	8.867
670.20	8.810
670.52	8.775
670.85	8.832
671.17	8.920
671.49	8.945
671.81	9.025
672.13	9.076
672.46	9.114
672.78	9.057
673.10	9.064
673.42	9.079
673.74	9.174
674.07	9.236
674.39	9.229
674.71	9.202
675.03	9.261
675.35	9.240
675.67	9.319
676.00	9.311
676.32	9.388
676.64	9.439
676.96	9.474
677.28	9.457
677.60	9.485
677.92	9.541
678.25	9.614
678.57	9.561
678.89	9.578
679.21	9.536
679.53	9.588
679.85	9.625
680.17	9.648
680.49	9.696
680.81	9.771
681.13	9.818
681.46	9.864
681.78	9.921
682.10	10.061
682.42	10.158
682.74	10.263
683.06	10.327
683.38	10.381
683.70	10.493
684.02	10.509
684.34	10.551
684.66	10.623
684.98	10.665
685.30	10.811
685.62	10.820
685.94	10.847
686.26	10.882
686.58	10.909
686.90	10.982
687.22	10.965
687.54	11.056
687.86	11.076
688.18	11.052
688.50	11.053
688.82	10.974
689.14	11.020
689.46	11.070
689.78	11.044
690.10	11.026
690.42	11.024
690.74	10.999
691.06	10.980
691.38	10.976
691.70	10.998
692.02	10.995
692.34	11.054
692.66	11.081
692.98	11.028
693.30	11.143
693.62	11.234
693.94	11.146
694.26	11.250
694.57	11.312
694.89	11.389
695.21	11.457
695.53	11.532
695.85	11.513
696.17	11.534
696.49	11.578
696.81	11.568
697.13	11.567
697.44	11.629
697.76	11.585
698.08	11.577
698.40	11.526
698.72	11.499
699.04	11.416
699.36	11.380
699.67	11.312
699.99	11.226
700.31	11.194
700.63	11.153
700.95	11.141
701.27	11.114
701.58	11.015
701.90	10.950
702.22	10.897
702.54	10.838
702.86	10.799
703.17	10.828
703.49	10.934
703.81	10.947
704.13	10.979
704.45	10.973
704.76	10.987
705.08	11.048
705.40	11.036
705.72	11.108
706.03	11.204
706.35	11.330
706.67	11.327
706.99	11.317
707.30	11.289
707.62	11.314
707.94	11.364
708.26	11.367
708.57	11.481
708.89	11.634
709.21	11.593
709.53	11.641
709.84	11.562
710.16	11.593
710.48	11.708
710.79	11.699
711.11	11.794
711.43	11.792
711.74	11.843
712.06	11.840
712.38	11.907
712.69	12.053
713.01	12.180
713.33	12.318
713.64	12.382
713.96	12.435
714.28	12.637
714.59	12.676
714.91	12.849
715.23	13.053
715.54	13.131
715.86	13.134
716.17	13.251
716.49	13.279
716.81	13.330
717.12	13.328
717.44	13.294
717.76	13.288
718.07	13.339
718.39	13.243
718.70	13.174
719.02	13.056
719.33	13.105
719.65	13.004
719.97	13.030
720.28	12.984
720.60	13.080
720.91	13.102
721.23	13.131
721.54	13.045
721.86	13.139
722.17	13.112
722.49	13.231
722.81	13.218
723.12	13.231
723.44	13.191
723.75	13.169
724.07	13.218
724.38	13.199
724.70	13.168
725.01	13.321
725.33	13.296
725.64	13.418
725.96	13.436
726.27	13.450
726.59	13.467
726.90	13.455
727.22	13.576
727.53	13.607
727.84	13.636
728.16	13.627
728.47	13.471
728.79	13.560
729.10	13.567
729.42	13.548
729.73	13.555
730.05	13.591
730.36	13.594
730.67	13.510
730.99	13.421
731.30	13.305
731.62	13.209
731.93	13.210
732.24	13.039
732.56	12.890
732.87	12.747
733.19	12.737
733.50	12.602
733.81	12.507
734.13	12.509
734.44	12.566
734.76	12.722
735.07	12.673
735.38	12.738
735.70	12.752
736.01	12.692
736.32	12.842
736.64	12.822
736.95	12.811
737.26	12.869
737.58	12.695
737.89	12.669
738.20	12.568
738.52	12.685
738.83	12.514
739.14	12.603
739.45	12.649
739.77	12.680
740.08	12.601
740.39	12.561
740.71	12.530
741.02	12.738
741.33	12.729
741.64	12.653
741.96	12.429
742.27	12.421
742.58	12.228
742.90	12.289
743.21	12.150
743.52	12.100
743.83	12.355
744.14	12.352
744.46	12.108
744.77	12.134
745.08	12.328
745.39	12.498
745.71	12.547
746.02	12.772
746.33	12.739
746.64	12.760
746.95	12.827
747.27	12.687
747.58	12.801
747.89	13.021
748.20	12.834
748.51	12.753
748.82	12.768
749.14	12.828
749.45	12.696
749.76	12.705
750.07	12.590
750.38	12.539
750.69	12.620
751.01	12.567
751.32	12.676
751.63	12.653
751.94	12.501
752.25	12.515
752.56	12.567
752.87	12.708
753.18	12.638
753.49	12.781
753.81	12.765
754.12	12.658
754.43	12.759
754.74	12.764
755.05	13.021
755.36	13.353
755.67	13.622
755.98	13.860
756.29	13.902
756.60	14.245
756.91	14.556
757.22	15.093
757.53	15.387
757.84	15.604
758.15	15.892
758.46	16.154
758.77	16.412
759.09	16.620
759.40	16.736
759.71	17.119
760.02	17.211
760.33	17.269
760.64	17.374
760.95	17.416
761.26	17.508
761.57	17.609
761.88	17.599
762.18	17.530
762.49	17.439
762.80	17.382
763.11	17.078
763.42	16.925
763.73	16.830
764.04	16.431
764.35	16.276
764.66	16.069
764.97	15.693
765.28	15.481
765.59	15.242
765.90	14.937
766.21	14.847
766.52	14.758
766.83	14.621
767.14	14.472
767.44	14.423
767.75	14.100
768.06	13.888
768.37	13.620
768.68	13.389
768.99	13.256
769.30	13.208
769.61	12.795
769.91	12.528
770.22	12.478
770.53	12.268
770.84	12.629
771.15	12.904
771.46	12.842
771.77	12.657
772.07	12.797
772.38	12.710
772.69	12.529
773.00	12.486
773.31	12.950
773.61	12.856
773.92	12.935
774.23	12.558
774.54	12.585
774.85	12.487
775.15	12.678
775.46	12.553
775.77	12.766
776.08	12.795
776.39	12.850
776.69	12.635
777.00	12.812
777.31	12.711
777.62	12.666
777.92	12.510
778.23	12.744
778.54	12.780
778.85	12.631
779.15	12.546
779.46	12.962
779.77	12.940
780.07	12.912
780.38	12.734
780.69	12.660
781.00	12.511
781.30	12.383
781.61	12.352
781.92	12.646
782.22	12.760
782.53	12.840
782.84	12.630
783.14	12.918
783.45	13.020
783.76	13.526
784.06	13.868
784.37	14.193
784.68	14.336
784.98	14.677
785.29	14.857
785.60	15.322
785.90	15.485
786.21	15.757
786.51	15.858
786.82	15.883
787.13	16.006
787.43	16.272
787.74	16.442
788.04	16.880
788.35	16.615
788.66	16.363
788.96	16.014
789.27	16.189
789.57	16.178
789.88	16.249
790.19	16.396
790.49	15.957
790.80	15.988
791.10	16.068
791.41	15.874
791.71	15.803
792.02	16.063
792.32	16.231
792.63	16.076
792.93	16.139
793.24	15.811
793.54	15.767
793.85	16.057
794.15	16.061
794.46	16.037
794.76	16.130
795.07	16.315
795.37	16.141
795.68	16.135
795.98	16.199
796.29	16.096
796.59	16.326
796.90	16.096
797.20	15.889
797.51	15.986
797.81	15.729
798.12	15.588
798.42	15.657
798.72	15.631
799.03	15.720
799.33	15.841
799.64	16.136
799.94	16.185
800.25	16.525
800.55	16.750
800.85	16.310
801.16	16.488
801.46	16.582
801.77	16.503
802.07	16.542
802.37	16.537
802.68	16.110
802.98	15.724
803.28	15.568
803.59	15.644
803.89	15.743
804.20	16.128
804.50	16.285
804.80	16.348
805.11	16.492
805.41	16.515
805.71	16.723
806.02	16.871
806.32	17.497
806.62	17.763
806.93	17.592
807.23	17.695
807.53	17.678
807.83	17.970
808.14	17.750
808.44	17.964
808.74	18.551
809.05	18.662
809.35	19.003
809.65	18.847
809.95	19.027
810.26	19.291
810.56	19.646
810.86	19.632
811.16	19.261
811.47	19.901
811.77	20.095
812.07	19.665
812.37	19.504
812.68	19.359
812.98	19.619
813.28	19.732
813.58	19.582
813.88	19.049
814.19	18.627
814.49	18.769
814.79	18.879
815.09	18.734
815.39	19.043
815.70	19.147
816.00	19.633
816.30	19.307
816.60	19.380
816.90	20.090
817.20	20.670
817.50	21.458
817.81	21.779
818.11	21.990
818.41	22.276
818.71	22.484
819.01	22.817
819.31	22.777
819.61	22.890
819.92	22.954
820.22	22.953
820.52	22.960
820.82	22.901
821.12	22.875
821.42	22.869
821.72	22.867
822.02	22.739
822.32	22.604
822.62	22.603
822.92	22.608
823.22	22.521
823.52	22.411
823.83	22.345
824.13	22.274
824.43	22.261
824.73	22.144
825.03	22.062
825.33	22.164
825.63	22.197
825.93	22.082
826.23	22.001
826.53	22.008
826.83	22.059
827.13	22.001
827.43	22.003
827.73	21.901
828.03	21.793
828.33	21.606
828.63	21.422
828.93	21.308
829.23	21.300
829.53	21.220
829.83	21.358
830.13	21.181
830.42	21.041
830.72	21.195
831.02	21.270
831.32	21.535
831.62	21.715
831.92	21.796
832.22	21.971
832.52	21.914
832.82	22.023
833.12	21.877
833.42	21.902
833.72	22.004
834.01	22.037
834.31	21.895
834.61	21.869
834.91	21.979
835.21	21.965
835.51	21.666
835.81	21.800
836.11	21.682
836.40	21.652
836.70	21.760
837.00	21.601
837.30	21.399
837.60	22.112
837.90	21.919
838.19	21.336
838.49	21.174
838.79	20.820
839.09	20.688
839.39	20.150
839.68	19.825
839.98	19.722
840.28	19.617
840.58	19.110
840.88	18.460
841.17	18.062
841.47	18.051
841.77	18.575
842.07	19.072
842.36	19.083
842.66	18.629
842.96	19.755
843.26	19.102
843.55	18.132
843.85	18.139
844.15	17.243
844.45	17.431
844.74	16.531
845.04	15.638
845.34	15.765
845.63	14.604
845.93	15.793
846.23	14.270
846.53	14.986
846.82	15.558
847.12	16.122
847.42	15.536
847.71	15.902
848.01	16.827
848.31	16.168
848.60	13.847
848.90	13.562
849.19	12.459
849.49	13.497
849.79	13.598
850.08	15.492
850.38	15.062
850.68	16.137
850.97	15.452
851.27	15.350
851.56	15.421
851.86	17.343
852.16	18.277
852.45	19.232
852.75	17.777
853.04	17.199
853.34	16.310
853.64	15.810
853.93	15.540
854.23	16.098
854.52	16.023
854.82	17.775
855.11	16.511
855.41	16.798
855.70	15.786
856.00	16.481
856.30	16.136
856.59	15.747
856.89	17.138
857.18	16.466
857.48	15.987
857.77	14.942
858.07	13.391
858.36	14.395
858.66	13.632
858.95	15.376
859.25	15.595
859.54	15.819
859.84	16.215
860.13	16.530
860.42	18.124
860.72	19.125
861.01	20.823
861.31	21.462
861.60	21.796
861.90	21.046
862.19	19.300
862.49	18.868
862.78	20.086
863.07	19.481
863.37	18.026
863.66	16.778
863.96	15.712
864.25	15.595
864.54	16.360
864.84	14.728
865.13	14.614
865.43	15.331
865.72	21.626
866.01	28.254
866.31	0.291
866.60	1.820
866.89	20.559
>>>>>End Spectral Data<<<<<
