OOIBase32 Version 2.0.0.6 Data File
++++++++++++++++++++++++++++++++++++
Date: 01-22-2012, 12:55:28
User: Valued Ocean Optics Customer
Spectrometer Serial Number: USB2E2917
Spectrometer Channel: Master
Integration Time (msec): 5
Spectra Averaged: 10
Boxcar Smoothing: 5
Correct for Electrical Dark: Enabled
Time Normalized: Disabled
Dual-beam Reference: Disabled
Reference Channel: Master
Temperature: Not acquired
Spectrometer Type: S2000
ADC Type: USB2000
Number of Pixels in File: 2048
Graph Title: 
>>>>>Begin Spectral Data<<<<<
180.30	0.000
180.67	0.000
181.03	88.550
181.40	18.780
181.77	87.572
182.14	-130.219
182.51	9.396
182.88	131.314
183.25	-20.336
183.62	146.859
183.99	54.221
184.36	-73.349
184.73	36.440
185.10	-0.168
185.46	-249.983
185.83	-546.463
186.20	26.633
186.57	12.044
186.94	-2957.916
187.31	46.868
187.68	-209.448
188.05	177.131
188.42	133.570
188.78	185.361
189.15	-15.629
189.52	59.171
189.89	75.497
190.26	49.072
190.63	67.687
191.00	47.988
191.37	39.448
191.73	46.857
192.10	55.325
192.47	77.378
192.84	70.667
193.21	80.794
193.58	64.551
193.94	73.479
194.31	89.491
194.68	68.331
195.05	35.295
195.42	32.144
195.79	38.860
196.15	34.021
196.52	8.100
196.89	-11.143
197.26	-23.039
197.63	-24.414
198.00	-26.352
198.36	-43.456
198.73	-32.951
199.10	-11.243
199.47	3.188
199.84	-37.888
200.20	-34.762
200.57	-57.150
200.94	-41.730
201.31	-59.244
201.68	-57.450
202.04	-64.173
202.41	-62.962
202.78	-38.873
203.15	-49.121
203.51	-81.171
203.88	-59.689
204.25	-51.889
204.62	-26.261
204.98	-15.875
205.35	-18.113
205.72	-28.219
206.09	-12.782
206.46	4.392
206.82	12.695
207.19	21.828
207.56	37.179
207.92	32.522
208.29	37.464
208.66	44.684
209.03	43.462
209.39	50.420
209.76	55.332
210.13	39.797
210.50	37.529
210.86	34.995
211.23	40.585
211.60	39.762
211.96	29.777
212.33	17.325
212.70	18.312
213.07	7.471
213.43	-3.990
213.80	1.466
214.17	4.602
214.53	4.182
214.90	-3.275
215.27	-11.953
215.63	-28.345
216.00	-42.688
216.37	-47.158
216.74	-40.758
217.10	-17.515
217.47	-9.428
217.84	-3.971
218.20	-6.361
218.57	-4.609
218.94	12.402
219.30	16.501
219.67	25.538
220.04	44.147
220.40	42.842
220.77	47.713
221.13	37.060
221.50	30.746
221.87	29.047
222.23	35.845
222.60	36.472
222.97	23.029
223.33	20.626
223.70	22.344
224.07	18.343
224.43	20.618
224.80	16.858
225.16	16.943
225.53	12.944
225.90	9.566
226.26	6.966
226.63	5.320
226.99	4.751
227.36	5.993
227.73	4.214
228.09	4.083
228.46	5.052
228.82	5.867
229.19	6.266
229.56	8.681
229.92	10.309
230.29	12.765
230.65	14.216
231.02	16.016
231.38	15.095
231.75	16.281
232.12	16.125
232.48	14.815
232.85	12.215
233.21	11.827
233.58	10.178
233.94	9.880
234.31	8.072
234.68	7.774
235.04	6.453
235.41	7.629
235.77	6.029
236.14	4.840
236.50	3.476
236.87	4.419
237.23	4.128
237.60	4.452
237.96	3.679
238.33	3.946
238.69	3.514
239.06	3.763
239.42	3.616
239.79	4.790
240.15	4.487
240.52	3.892
240.88	3.822
241.25	3.429
241.61	3.463
241.98	4.404
242.34	4.313
242.71	4.472
243.07	4.390
243.44	4.602
243.80	4.115
244.17	4.358
244.53	4.693
244.90	4.584
245.26	4.931
245.63	5.288
245.99	5.013
246.36	4.835
246.72	4.919
247.09	5.078
247.45	5.035
247.81	5.154
248.18	5.226
248.54	5.552
248.91	5.670
249.27	5.649
249.64	5.723
250.00	5.411
250.36	5.393
250.73	5.290
251.09	4.842
251.46	4.453
251.82	4.072
252.19	4.085
252.55	3.428
252.91	3.876
253.28	3.360
253.64	2.693
254.01	2.986
254.37	3.275
254.73	3.241
255.10	3.666
255.46	3.833
255.83	4.289
256.19	4.328
256.55	4.565
256.92	4.408
257.28	4.524
257.65	4.557
258.01	4.742
258.37	4.683
258.74	4.672
259.10	4.634
259.46	4.699
259.83	4.658
260.19	4.700
260.55	4.530
260.92	4.456
261.28	4.673
261.64	4.564
262.01	4.261
262.37	4.520
262.73	4.519
263.10	4.377
263.46	4.143
263.82	4.122
264.19	3.944
264.55	4.133
264.91	4.243
265.28	3.978
265.64	4.349
266.00	4.353
266.37	4.168
266.73	4.492
267.09	4.595
267.46	4.480
267.82	4.273
268.18	4.323
268.54	4.087
268.91	4.212
269.27	4.363
269.63	4.414
270.00	4.375
270.36	4.364
270.72	4.115
271.08	3.981
271.45	4.402
271.81	4.627
272.17	4.648
272.53	4.766
272.90	4.448
273.26	4.102
273.62	4.080
273.98	4.115
274.35	4.087
274.71	4.285
275.07	4.405
275.43	4.139
275.80	3.998
276.16	3.918
276.52	3.775
276.88	4.073
277.25	4.343
277.61	4.026
277.97	3.937
278.33	3.854
278.69	3.585
279.06	3.714
279.42	3.810
279.78	3.970
280.14	4.018
280.50	4.209
280.87	4.079
281.23	4.198
281.59	4.366
281.95	4.402
282.31	4.417
282.68	4.508
283.04	4.452
283.40	4.312
283.76	4.189
284.12	4.308
284.48	4.410
284.85	4.493
285.21	4.247
285.57	4.046
285.93	3.965
286.29	4.076
286.65	3.941
287.02	4.106
287.38	4.071
287.74	4.177
288.10	4.023
288.46	3.813
288.82	3.834
289.18	3.897
289.54	4.175
289.91	4.387
290.27	4.311
290.63	4.533
290.99	4.216
291.35	4.347
291.71	4.147
292.07	4.281
292.43	4.375
292.79	4.314
293.16	4.379
293.52	4.407
293.88	4.343
294.24	4.344
294.60	4.352
294.96	4.475
295.32	4.380
295.68	4.459
296.04	4.424
296.40	4.413
296.76	4.385
297.12	4.358
297.49	4.208
297.85	4.131
298.21	4.032
298.57	3.980
298.93	3.804
299.29	3.995
299.65	4.019
300.01	4.003
300.37	4.021
300.73	4.222
301.09	4.206
301.45	4.294
301.81	4.285
302.17	4.412
302.53	4.564
302.89	4.773
303.25	4.558
303.61	4.681
303.97	4.730
304.33	4.731
304.69	4.635
305.05	4.795
305.41	4.804
305.77	4.929
306.13	4.820
306.49	4.619
306.85	4.506
307.21	4.546
307.57	4.457
307.93	4.471
308.29	4.439
308.65	4.420
309.01	4.363
309.37	4.288
309.73	4.162
310.09	4.238
310.45	4.161
310.81	4.266
311.17	4.298
311.53	4.384
311.89	4.413
312.25	4.555
312.61	4.587
312.96	4.573
313.32	4.611
313.68	4.788
314.04	4.765
314.40	4.924
314.76	4.760
315.12	4.799
315.48	4.780
315.84	4.669
316.20	4.625
316.56	4.436
316.92	4.421
317.27	4.459
317.63	4.253
317.99	4.223
318.35	4.193
318.71	4.285
319.07	4.087
319.43	4.122
319.79	4.183
320.15	4.147
320.50	4.187
320.86	4.125
321.22	4.006
321.58	4.104
321.94	4.011
322.30	3.827
322.66	3.763
323.01	3.725
323.37	3.615
323.73	3.543
324.09	3.402
324.45	3.392
324.81	3.293
325.17	3.280
325.52	3.226
325.88	3.372
326.24	3.440
326.60	3.425
326.96	3.544
327.31	3.510
327.67	3.552
328.03	3.615
328.39	3.589
328.75	3.656
329.11	3.748
329.46	3.819
329.82	3.648
330.18	3.646
330.54	3.620
330.90	3.723
331.25	3.697
331.61	3.704
331.97	3.686
332.33	3.839
332.68	3.854
333.04	3.899
333.40	3.861
333.76	3.997
334.11	4.025
334.47	4.044
334.83	3.815
335.19	3.848
335.54	3.656
335.90	3.681
336.26	3.457
336.62	3.449
336.97	3.273
337.33	3.232
337.69	3.152
338.05	3.137
338.40	3.139
338.76	3.255
339.12	3.167
339.48	3.322
339.83	3.403
340.19	3.452
340.55	3.506
340.90	3.619
341.26	3.683
341.62	3.704
341.97	3.752
342.33	3.783
342.69	3.840
343.04	3.897
343.40	3.826
343.76	3.818
344.12	3.892
344.47	3.850
344.83	3.899
345.19	3.801
345.54	3.800
345.90	3.725
346.26	3.714
346.61	3.631
346.97	3.595
347.32	3.615
347.68	3.492
348.04	3.429
348.39	3.401
348.75	3.316
349.11	3.302
349.46	3.283
349.82	3.307
350.18	3.303
350.53	3.314
350.89	3.271
351.24	3.274
351.60	3.301
351.96	3.324
352.31	3.352
352.67	3.313
353.02	3.340
353.38	3.341
353.74	3.458
354.09	3.506
354.45	3.548
354.80	3.568
355.16	3.571
355.52	3.582
355.87	3.632
356.23	3.697
356.58	3.832
356.94	3.855
357.29	3.865
357.65	3.814
358.00	3.837
358.36	3.862
358.72	3.938
359.07	3.986
359.43	3.965
359.78	3.965
360.14	4.000
360.49	3.956
360.85	3.996
361.20	4.011
361.56	4.051
361.91	3.976
362.27	3.905
362.62	3.836
362.98	3.729
363.33	3.723
363.69	3.653
364.04	3.509
364.40	3.483
364.75	3.431
365.11	3.361
365.46	3.281
365.82	3.286
366.17	3.318
366.53	3.366
366.88	3.367
367.24	3.420
367.59	3.433
367.95	3.543
368.30	3.548
368.66	3.629
369.01	3.676
369.37	3.665
369.72	3.717
370.08	3.758
370.43	3.728
370.78	3.824
371.14	3.828
371.49	3.864
371.85	3.849
372.20	3.833
372.56	3.740
372.91	3.715
373.26	3.691
373.62	3.648
373.97	3.554
374.33	3.582
374.68	3.504
375.03	3.464
375.39	3.431
375.74	3.386
376.10	3.371
376.45	3.406
376.80	3.437
377.16	3.520
377.51	3.537
377.87	3.620
378.22	3.669
378.57	3.766
378.93	3.845
379.28	3.922
379.63	4.010
379.99	4.072
380.34	4.146
380.70	4.217
381.05	4.229
381.40	4.256
381.76	4.260
382.11	4.271
382.46	4.222
382.82	4.163
383.17	4.123
383.52	4.053
383.88	4.061
384.23	3.994
384.58	3.983
384.94	3.971
385.29	3.950
385.64	3.902
385.99	3.866
386.35	3.871
386.70	3.847
387.05	3.837
387.41	3.815
387.76	3.771
388.11	3.805
388.47	3.762
388.82	3.778
389.17	3.802
389.52	3.809
389.88	3.835
390.23	3.857
390.58	3.897
390.93	3.926
391.29	3.998
391.64	4.039
391.99	4.031
392.34	3.996
392.70	3.956
393.05	3.899
393.40	3.861
393.75	3.751
394.11	3.669
394.46	3.589
394.81	3.516
395.16	3.352
395.52	3.231
395.87	3.123
396.22	3.024
396.57	2.890
396.92	2.763
397.28	2.646
397.63	2.549
397.98	2.420
398.33	2.294
398.68	2.166
399.04	2.085
399.39	2.025
399.74	1.978
400.09	1.969
400.44	1.950
400.80	1.949
401.15	1.986
401.50	2.006
401.85	2.056
402.20	2.078
402.55	2.118
402.90	2.149
403.26	2.155
403.61	2.117
403.96	2.074
404.31	2.056
404.66	2.017
405.01	1.994
405.36	1.931
405.72	1.871
406.07	1.845
406.42	1.794
406.77	1.754
407.12	1.695
407.47	1.646
407.82	1.644
408.17	1.588
408.53	1.547
408.88	1.468
409.23	1.476
409.58	1.450
409.93	1.401
410.28	1.404
410.63	1.380
410.98	1.392
411.33	1.361
411.68	1.348
412.03	1.394
412.38	1.451
412.73	1.501
413.09	1.544
413.44	1.615
413.79	1.713
414.14	1.735
414.49	1.854
414.84	1.947
415.19	2.087
415.54	2.211
415.89	2.336
416.24	2.414
416.59	2.516
416.94	2.587
417.29	2.656
417.64	2.720
417.99	2.794
418.34	2.819
418.69	2.859
419.04	2.890
419.39	2.905
419.74	2.913
420.09	2.930
420.44	2.929
420.79	2.931
421.14	2.930
421.49	2.922
421.84	2.923
422.19	2.893
422.54	2.854
422.89	2.823
423.24	2.761
423.59	2.682
423.94	2.620
424.29	2.538
424.64	2.447
424.99	2.360
425.34	2.254
425.68	2.151
426.03	2.073
426.38	1.993
426.73	1.901
427.08	1.845
427.43	1.843
427.78	1.840
428.13	1.864
428.48	1.911
428.83	1.932
429.18	1.977
429.53	1.986
429.87	2.017
430.22	2.032
430.57	2.069
430.92	2.081
431.27	2.058
431.62	2.040
431.97	1.994
432.32	1.947
432.67	1.911
433.01	1.859
433.36	1.818
433.71	1.754
434.06	1.721
434.41	1.695
434.76	1.683
435.11	1.681
435.45	1.699
435.80	1.765
436.15	1.821
436.50	1.869
436.85	1.917
437.20	1.948
437.54	2.002
437.89	2.001
438.24	2.005
438.59	2.007
438.94	1.997
439.29	1.953
439.63	1.894
439.98	1.836
440.33	1.784
440.68	1.748
441.03	1.743
441.37	1.749
441.72	1.779
442.07	1.792
442.42	1.810
442.76	1.860
443.11	1.920
443.46	1.966
443.81	2.023
444.16	2.048
444.50	2.066
444.85	2.047
445.20	2.011
445.55	1.958
445.89	1.902
446.24	1.816
446.59	1.705
446.94	1.584
447.28	1.454
447.63	1.299
447.98	1.189
448.32	1.078
448.67	1.001
449.02	0.913
449.37	0.844
449.71	0.794
450.06	0.804
450.41	0.796
450.75	0.821
451.10	0.825
451.45	0.841
451.79	0.833
452.14	0.798
452.49	0.766
452.84	0.752
453.18	0.763
453.53	0.781
453.88	0.784
454.22	0.828
454.57	0.875
454.92	0.954
455.26	1.012
455.61	1.096
455.95	1.224
456.30	1.313
456.65	1.403
456.99	1.479
457.34	1.541
457.69	1.605
458.03	1.623
458.38	1.635
458.73	1.624
459.07	1.609
459.42	1.559
459.76	1.478
460.11	1.407
460.46	1.323
460.80	1.211
461.15	1.103
461.49	0.990
461.84	0.916
462.19	0.828
462.53	0.770
462.88	0.752
463.22	0.778
463.57	0.795
463.91	0.824
464.26	0.834
464.61	0.880
464.95	0.897
465.30	0.941
465.64	0.968
465.99	0.992
466.33	1.010
466.68	0.979
467.02	0.945
467.37	0.901
467.71	0.876
468.06	0.869
468.41	0.837
468.75	0.835
469.10	0.784
469.44	0.755
469.79	0.717
470.13	0.668
470.48	0.627
470.82	0.581
471.17	0.560
471.51	0.532
471.86	0.507
472.20	0.470
472.55	0.418
472.89	0.392
473.23	0.334
473.58	0.309
473.92	0.297
474.27	0.312
474.61	0.320
474.96	0.318
475.30	0.304
475.65	0.286
475.99	0.298
476.34	0.315
476.68	0.326
477.02	0.375
477.37	0.422
477.71	0.474
478.06	0.577
478.40	0.774
478.75	1.058
479.09	1.383
479.43	1.679
479.78	1.985
480.12	2.272
480.47	2.549
480.81	2.793
481.15	3.019
481.50	3.246
481.84	3.467
482.19	3.671
482.53	3.828
482.87	3.914
483.22	3.947
483.56	3.904
483.90	3.822
484.25	3.706
484.59	3.581
484.94	3.443
485.28	3.289
485.62	3.111
485.97	2.927
486.31	2.759
486.65	2.645
487.00	2.554
487.34	2.500
487.68	2.451
488.03	2.422
488.37	2.403
488.71	2.384
489.06	2.369
489.40	2.356
489.74	2.329
490.09	2.277
490.43	2.204
490.77	2.125
491.11	2.025
491.46	1.940
491.80	1.839
492.14	1.726
492.49	1.617
492.83	1.508
493.17	1.391
493.51	1.282
493.86	1.204
494.20	1.159
494.54	1.168
494.88	1.218
495.23	1.278
495.57	1.366
495.91	1.447
496.25	1.535
496.60	1.583
496.94	1.657
497.28	1.720
497.62	1.793
497.97	1.844
498.31	1.921
498.65	2.000
498.99	2.082
499.33	2.156
499.68	2.262
500.02	2.349
500.36	2.494
500.70	2.616
501.04	2.756
501.39	2.920
501.73	3.094
502.07	3.248
502.41	3.439
502.75	3.641
503.09	3.864
503.44	4.078
503.78	4.329
504.12	4.584
504.46	4.863
504.80	5.143
505.14	5.415
505.49	5.676
505.83	5.948
506.17	6.238
506.51	6.533
506.85	6.817
507.19	7.096
507.53	7.382
507.87	7.644
508.22	7.913
508.56	8.194
508.90	8.474
509.24	8.788
509.58	9.116
509.92	9.426
510.26	9.726
510.60	10.047
510.94	10.392
511.28	10.719
511.63	11.065
511.97	11.431
512.31	11.813
512.65	12.212
512.99	12.633
513.33	13.113
513.67	13.576
514.01	14.101
514.35	14.614
514.69	15.119
515.03	15.646
515.37	16.141
515.71	16.593
516.05	17.026
516.39	17.429
516.73	17.812
517.07	18.129
517.41	18.457
517.75	18.758
518.09	19.046
518.43	19.306
518.77	19.567
519.11	19.827
519.45	20.122
519.79	20.450
520.13	20.810
520.47	21.198
520.81	21.641
521.15	22.114
521.49	22.602
521.83	23.084
522.17	23.565
522.51	24.059
522.85	24.598
523.19	25.218
523.53	25.903
523.87	26.640
524.21	27.359
524.55	28.023
524.89	28.643
525.23	29.246
525.57	29.832
525.91	30.390
526.25	30.903
526.58	31.417
526.92	31.803
527.26	32.059
527.60	32.113
527.94	32.176
528.28	32.239
528.62	32.308
528.96	32.356
529.30	32.359
529.64	32.349
529.97	32.324
530.31	32.266
530.65	32.265
530.99	32.381
531.33	32.713
531.67	32.976
532.01	33.243
532.35	33.420
532.68	33.535
533.02	33.644
533.36	33.766
533.70	33.867
534.04	33.955
534.38	34.077
534.71	34.162
535.05	34.250
535.39	34.372
535.73	34.466
536.07	34.632
536.41	34.854
536.74	35.128
537.08	35.400
537.42	35.702
537.76	36.005
538.10	36.296
538.43	36.579
538.77	36.846
539.11	37.081
539.45	37.299
539.79	37.490
540.12	37.634
540.46	37.732
540.80	37.775
541.14	37.807
541.47	37.832
541.81	37.822
542.15	37.811
542.49	37.756
542.82	37.691
543.16	37.647
543.50	37.568
543.84	37.510
544.17	37.459
544.51	37.468
544.85	37.464
545.18	37.459
545.52	37.462
545.86	37.482
546.20	37.498
546.53	37.505
546.87	37.477
547.21	37.500
547.54	37.505
547.88	37.555
548.22	37.578
548.55	37.596
548.89	37.646
549.23	37.669
549.56	37.678
549.90	37.694
550.24	37.723
550.57	37.781
550.91	37.801
551.25	37.855
551.58	37.852
551.92	37.906
552.26	37.952
552.59	37.949
552.93	37.994
553.27	37.999
553.60	38.037
553.94	38.100
554.27	38.133
554.61	38.146
554.95	38.147
555.28	38.190
555.62	38.159
555.95	38.160
556.29	38.188
556.63	38.202
556.96	38.242
557.30	38.293
557.63	38.306
557.97	38.313
558.31	38.338
558.64	38.390
558.98	38.377
559.31	38.378
559.65	38.421
559.98	38.401
560.32	38.397
560.65	38.397
560.99	38.403
561.33	38.399
561.66	38.440
562.00	38.481
562.33	38.484
562.67	38.532
563.00	38.603
563.34	38.611
563.67	38.651
564.01	38.705
564.34	38.759
564.68	38.798
565.01	38.849
565.35	38.837
565.68	38.807
566.02	38.822
566.35	38.801
566.69	38.787
567.02	38.788
567.36	38.803
567.69	38.797
568.03	38.781
568.36	38.725
568.69	38.685
569.03	38.632
569.36	38.637
569.70	38.639
570.03	38.659
570.37	38.637
570.70	38.601
571.04	38.567
571.37	38.513
571.70	38.461
572.04	38.441
572.37	38.383
572.71	38.380
573.04	38.340
573.37	38.266
573.71	38.221
574.04	38.141
574.38	38.034
574.71	37.910
575.04	37.829
575.38	37.707
575.71	37.619
576.05	37.522
576.38	37.411
576.71	37.277
577.05	37.155
577.38	36.980
577.71	36.834
578.05	36.744
578.38	36.616
578.71	36.479
579.05	36.380
579.38	36.252
579.71	36.129
580.05	36.011
580.38	35.892
580.71	35.740
581.05	35.593
581.38	35.454
581.71	35.241
582.05	35.157
582.38	35.084
582.71	34.956
583.04	34.830
583.38	34.731
583.71	34.634
584.04	34.615
584.38	34.589
584.71	34.613
585.04	34.646
585.37	34.747
585.71	34.751
586.04	34.743
586.37	34.774
586.70	34.777
587.04	34.804
587.37	34.813
587.70	34.768
588.03	34.715
588.37	34.619
588.70	34.474
589.03	34.382
589.36	34.251
589.69	34.137
590.03	34.003
590.36	33.836
590.69	33.674
591.02	33.526
591.35	33.337
591.69	33.202
592.02	33.129
592.35	33.082
592.68	33.001
593.01	32.965
593.35	32.904
593.68	32.836
594.01	32.819
594.34	32.765
594.67	32.679
595.00	32.646
595.34	32.513
595.67	32.370
596.00	32.225
596.33	32.032
596.66	31.780
596.99	31.507
597.32	31.274
597.65	30.996
597.99	30.695
598.32	30.421
598.65	30.133
598.98	29.973
599.31	29.786
599.64	29.711
599.97	29.658
600.30	29.672
600.63	29.756
600.96	29.806
601.30	29.866
601.63	29.941
601.96	29.985
602.29	29.976
602.62	29.926
602.95	29.875
603.28	29.775
603.61	29.670
603.94	29.466
604.27	29.241
604.60	29.055
604.93	28.838
605.26	28.618
605.59	28.417
605.92	28.283
606.25	28.164
606.58	28.040
606.91	27.884
607.24	27.781
607.57	27.776
607.90	27.736
608.23	27.626
608.56	27.513
608.89	27.385
609.22	27.203
609.55	26.933
609.88	26.664
610.21	26.355
610.54	26.050
610.87	25.690
611.20	25.331
611.53	24.958
611.86	24.594
612.19	24.309
612.52	24.012
612.85	23.730
613.18	23.581
613.51	23.441
613.84	23.353
614.17	23.248
614.49	23.156
614.82	23.042
615.15	22.947
615.48	22.873
615.81	22.735
616.14	22.670
616.47	22.627
616.80	22.520
617.13	22.400
617.46	22.289
617.78	22.153
618.11	22.018
618.44	21.842
618.77	21.689
619.10	21.541
619.43	21.395
619.76	21.303
620.09	21.184
620.41	21.105
620.74	21.064
621.07	21.011
621.40	21.041
621.73	21.122
622.06	21.243
622.38	21.390
622.71	21.518
623.04	21.724
623.37	21.880
623.70	22.091
624.02	22.277
624.35	22.405
624.68	22.571
625.01	22.647
625.34	22.701
625.66	22.795
625.99	22.790
626.32	22.816
626.65	22.721
626.98	22.585
627.30	22.370
627.63	22.184
627.96	21.993
628.29	21.711
628.61	21.442
628.94	21.173
629.27	20.868
629.60	20.605
629.92	20.275
630.25	20.099
630.58	19.887
630.91	19.812
631.23	19.701
631.56	19.558
631.89	19.421
632.21	19.365
632.54	19.279
632.87	19.147
633.19	18.970
633.52	18.876
633.85	18.642
634.18	18.382
634.50	18.034
634.83	17.689
635.16	17.388
635.48	17.086
635.81	16.731
636.14	16.351
636.46	16.027
636.79	15.732
637.11	15.290
637.44	15.019
637.77	14.808
638.09	14.683
638.42	14.498
638.75	14.285
639.07	14.039
639.40	13.807
639.73	13.606
640.05	13.373
640.38	13.174
640.70	13.128
641.03	12.993
641.36	12.892
641.68	12.790
642.01	12.748
642.33	12.707
642.66	12.819
642.98	12.935
643.31	13.083
643.64	13.243
643.96	13.452
644.29	13.629
644.61	13.784
644.94	13.968
645.26	14.078
645.59	14.165
645.91	14.300
646.24	14.399
646.56	14.421
646.89	14.421
647.22	14.462
647.54	14.378
647.87	14.321
648.19	14.279
648.52	14.111
648.84	14.017
649.17	13.884
649.49	13.711
649.82	13.529
650.14	13.370
650.47	13.221
650.79	12.965
651.11	12.819
651.44	12.587
651.76	12.371
652.09	12.285
652.41	12.088
652.74	12.005
653.06	11.966
653.39	11.829
653.71	11.794
654.04	11.863
654.36	11.999
654.68	12.155
655.01	12.284
655.33	12.335
655.66	12.420
655.98	12.514
656.30	12.549
656.63	12.513
656.95	12.496
657.28	12.437
657.60	12.247
657.92	12.000
658.25	11.669
658.57	11.272
658.90	10.914
659.22	10.324
659.54	9.760
659.87	9.094
660.19	8.432
660.51	7.750
660.84	6.980
661.16	6.172
661.48	5.385
661.81	4.599
662.13	4.145
662.45	3.626
662.78	3.320
663.10	2.914
663.42	2.702
663.75	2.374
664.07	2.284
664.39	2.172
664.72	2.174
665.04	2.244
665.36	2.294
665.69	2.234
666.01	2.255
666.33	2.165
666.65	2.246
666.98	2.231
667.30	2.298
667.62	2.120
667.94	1.935
668.27	1.700
668.59	1.365
668.91	1.056
669.23	0.708
669.56	0.339
669.88	0.019
670.20	-0.450
670.52	-0.854
670.85	-1.204
671.17	-1.541
671.49	-1.919
671.81	-2.187
672.13	-2.548
672.46	-2.852
672.78	-3.108
673.10	-3.326
673.42	-3.339
673.74	-3.421
674.07	-3.504
674.39	-3.484
674.71	-3.232
675.03	-2.834
675.35	-2.618
675.67	-1.993
676.00	-1.431
676.32	-0.935
676.64	-0.475
676.96	-0.021
677.28	0.563
677.60	1.024
677.92	1.430
678.25	1.659
678.57	1.898
678.89	2.156
679.21	2.087
679.53	2.071
679.85	1.965
680.17	1.852
680.49	1.540
680.81	1.277
681.13	1.059
681.46	0.956
681.78	0.874
682.10	0.853
682.42	0.932
682.74	1.256
683.06	1.487
683.38	1.981
683.70	2.601
684.02	3.462
684.34	4.161
684.66	4.968
684.98	5.590
685.30	6.216
685.62	6.712
685.94	7.088
686.26	7.281
686.58	7.572
686.90	7.598
687.22	7.422
687.54	7.013
687.86	6.658
688.18	6.086
688.50	5.512
688.82	4.798
689.14	4.110
689.46	3.421
689.78	2.884
690.10	2.142
690.42	1.524
690.74	1.029
691.06	0.633
691.38	0.034
691.70	-0.375
692.02	-1.027
692.34	-1.453
692.66	-1.685
692.98	-1.962
693.30	-2.133
693.62	-1.849
693.94	-1.486
694.26	-1.035
694.57	-0.519
694.89	0.275
695.21	1.063
695.53	2.044
695.85	2.914
696.17	3.638
696.49	4.359
696.81	4.910
697.13	5.210
697.44	5.469
697.76	5.523
698.08	5.364
698.40	4.868
698.72	4.264
699.04	3.423
699.36	2.237
699.67	0.927
699.99	-0.528
700.31	-2.133
700.63	-3.820
700.95	-5.879
701.27	-7.736
701.58	-9.507
701.90	-10.905
702.22	-12.409
702.54	-13.569
702.86	-14.166
703.17	-14.907
703.49	-15.525
703.81	-15.899
704.13	-16.235
704.45	-16.276
704.76	-16.486
705.08	-16.522
705.40	-16.391
705.72	-16.168
706.03	-15.822
706.35	-15.721
706.67	-15.426
706.99	-15.059
707.30	-14.770
707.62	-14.575
707.94	-14.455
708.26	-14.173
708.57	-13.847
708.89	-13.542
709.21	-13.185
709.53	-12.964
709.84	-12.647
710.16	-12.323
710.48	-12.027
710.79	-11.700
711.11	-11.204
711.43	-10.377
711.74	-9.617
712.06	-8.788
712.38	-7.870
712.69	-6.949
713.01	-5.956
713.33	-4.744
713.64	-3.660
713.96	-2.442
714.28	-1.252
714.59	-0.060
714.91	1.027
715.23	2.043
715.54	2.988
715.86	3.631
716.17	4.096
716.49	4.407
716.81	4.453
717.12	4.389
717.44	4.048
717.76	3.648
718.07	2.890
718.39	1.932
718.70	0.896
719.02	-0.403
719.33	-1.610
719.65	-2.519
719.97	-3.257
720.28	-3.809
720.60	-4.367
720.91	-4.386
721.23	-4.451
721.54	-4.187
721.86	-3.835
722.17	-3.304
722.49	-2.672
722.81	-1.865
723.12	-1.253
723.44	-0.807
723.75	-0.321
724.07	0.338
724.38	0.634
724.70	0.825
725.01	0.982
725.33	1.197
725.64	1.284
725.96	1.532
726.27	1.542
726.59	1.630
726.90	1.730
727.22	1.727
727.53	1.456
727.84	1.402
728.16	1.104
728.47	0.671
728.79	0.058
729.10	-0.452
729.42	-0.990
729.73	-1.554
730.05	-2.392
730.36	-3.411
730.67	-4.609
730.99	-5.658
731.30	-6.900
731.62	-7.849
731.93	-8.957
732.24	-10.006
732.56	-11.248
732.87	-12.696
733.19	-13.975
733.50	-15.210
733.81	-16.202
734.13	-17.044
734.44	-17.924
734.76	-19.003
735.07	-20.241
735.38	-20.751
735.70	-21.476
736.01	-22.039
736.32	-22.356
736.64	-23.237
736.95	-23.612
737.26	-24.204
737.58	-25.063
737.89	-25.850
738.20	-26.864
738.52	-27.397
738.83	-28.608
739.14	-29.837
739.45	-31.236
739.77	-33.233
740.08	-34.627
740.39	-36.370
740.71	-38.210
741.02	-39.913
741.33	-41.745
741.64	-42.669
741.96	-44.313
742.27	-46.209
742.58	-47.576
742.90	-48.820
743.21	-50.066
743.52	-51.144
743.83	-52.364
744.14	-53.448
744.46	-54.144
744.77	-53.794
745.08	-54.198
745.39	-54.495
745.71	-54.122
746.02	-54.065
746.33	-53.980
746.64	-53.195
746.95	-52.414
747.27	-51.550
747.58	-50.944
747.89	-50.546
748.20	-50.676
748.51	-50.655
748.82	-50.888
749.14	-50.618
749.45	-50.546
749.76	-50.758
750.07	-50.479
750.38	-50.774
750.69	-51.063
751.01	-51.197
751.32	-51.330
751.63	-51.698
751.94	-52.397
752.25	-52.410
752.56	-52.991
752.87	-52.923
753.18	-52.546
753.49	-52.754
753.81	-52.593
754.12	-51.294
754.43	-49.124
754.74	-46.125
755.05	-42.545
755.36	-38.007
755.67	-33.290
755.98	-28.216
756.29	-23.003
756.60	-17.894
756.91	-12.989
757.22	-7.930
757.53	-3.515
757.84	0.554
758.15	4.087
758.46	7.293
758.77	9.860
759.09	12.011
759.40	13.689
759.71	14.768
760.02	15.651
760.33	16.445
760.64	16.730
760.95	16.973
761.26	16.753
761.57	16.329
761.88	15.906
762.18	15.362
762.49	14.500
762.80	13.536
763.11	12.399
763.42	11.064
763.73	9.345
764.04	7.317
764.35	4.785
764.66	1.847
764.97	-1.498
765.28	-5.453
765.59	-9.888
765.90	-14.773
766.21	-19.994
766.52	-25.505
766.83	-31.136
767.14	-36.750
767.44	-42.422
767.75	-47.751
768.06	-52.410
768.37	-56.691
768.68	-61.482
768.99	-65.436
769.30	-69.201
769.61	-74.068
769.91	-76.835
770.22	-79.673
770.53	-82.735
770.84	-84.243
771.15	-86.912
771.46	-89.544
771.77	-91.982
772.07	-93.344
772.38	-96.559
772.69	-99.633
773.00	-100.106
773.31	-101.784
773.61	-104.648
773.92	-106.300
774.23	-108.362
774.54	-108.995
774.85	-109.365
775.15	-109.683
775.46	-109.149
775.77	-106.943
776.08	-106.215
776.39	-105.572
776.69	-107.253
777.00	-104.990
777.31	-104.181
777.62	-104.422
777.92	-102.832
778.23	-102.053
778.54	-101.259
778.85	-101.510
779.15	-102.609
779.46	-101.899
779.77	-103.671
780.07	-101.802
780.38	-103.112
780.69	-103.671
781.00	-102.941
781.30	-104.185
781.61	-105.071
781.92	-104.453
782.22	-103.080
782.53	-101.655
782.84	-100.044
783.14	-97.236
783.45	-93.794
783.76	-90.028
784.06	-85.228
784.37	-79.360
784.68	-73.980
784.98	-68.427
785.29	-63.793
785.60	-59.920
785.90	-55.577
786.21	-51.403
786.51	-47.780
786.82	-44.991
787.13	-42.685
787.43	-41.236
787.74	-41.042
788.04	-40.031
788.35	-40.139
788.66	-39.869
788.96	-40.149
789.27	-41.566
789.57	-43.818
789.88	-44.947
790.19	-46.827
790.49	-47.972
790.80	-48.951
791.10	-49.319
791.41	-50.126
791.71	-50.179
792.02	-50.975
792.32	-50.652
792.63	-49.387
792.93	-47.137
793.24	-45.256
793.54	-43.851
793.85	-42.959
794.15	-40.725
794.46	-39.112
794.76	-37.682
795.07	-36.556
795.37	-35.493
795.68	-34.512
795.98	-33.285
796.29	-33.060
796.59	-33.178
796.90	-32.733
797.20	-32.025
797.51	-32.368
797.81	-32.617
798.12	-33.484
798.42	-33.548
798.72	-33.799
799.03	-34.681
799.33	-36.252
799.64	-36.300
799.94	-37.380
800.25	-38.268
800.55	-38.850
800.85	-39.529
801.16	-40.601
801.46	-41.047
801.77	-41.716
802.07	-40.495
802.37	-40.429
802.68	-39.683
802.98	-39.884
803.28	-38.892
803.59	-39.440
803.89	-39.875
804.20	-39.640
804.50	-38.333
804.80	-37.305
805.11	-36.410
805.41	-36.566
805.71	-35.702
806.02	-36.175
806.32	-36.881
806.62	-36.432
806.93	-35.117
807.23	-34.076
807.53	-33.875
807.83	-34.156
808.14	-33.980
808.44	-34.133
808.74	-33.717
809.05	-33.136
809.35	-30.619
809.65	-27.747
809.95	-26.117
810.26	-24.326
810.56	-22.736
810.86	-20.939
811.16	-18.894
811.47	-16.977
811.77	-15.020
812.07	-13.568
812.37	-11.747
812.68	-10.825
812.98	-8.814
813.28	-7.445
813.58	-6.054
813.88	-4.597
814.19	-3.253
814.49	-2.444
814.79	-1.341
815.09	-0.539
815.39	0.470
815.70	1.079
816.00	2.073
816.30	2.293
816.60	3.082
816.90	3.970
817.20	5.456
817.50	7.347
817.81	9.709
818.11	11.577
818.41	13.707
818.71	15.088
819.01	16.481
819.31	17.469
819.61	18.320
819.92	18.887
820.22	19.371
820.52	19.760
820.82	20.063
821.12	20.321
821.42	20.543
821.72	20.553
822.02	20.632
822.32	20.568
822.62	20.461
822.92	20.264
823.22	20.143
823.52	19.961
823.83	19.744
824.13	19.555
824.43	19.254
824.73	18.769
825.03	18.440
825.33	18.145
825.63	17.881
825.93	17.730
826.23	17.554
826.53	17.344
826.83	16.991
827.13	16.671
827.43	16.208
827.73	15.790
828.03	15.444
828.33	14.708
828.63	13.895
828.93	12.813
829.23	11.571
829.53	10.842
829.83	9.751
830.13	9.246
830.42	8.810
830.72	8.696
831.02	8.915
831.32	9.522
831.62	9.949
831.92	10.326
832.22	10.699
832.52	11.118
832.82	11.370
833.12	11.466
833.42	11.763
833.72	11.592
834.01	11.299
834.31	10.334
834.61	9.103
834.91	8.319
835.21	7.323
835.51	6.459
835.81	5.175
836.11	2.671
836.40	0.335
836.70	-2.393
837.00	-5.183
837.30	-6.864
837.60	-7.708
837.90	-8.199
838.19	-9.200
838.49	-9.871
838.79	-11.774
839.09	-12.659
839.39	-12.909
839.68	-12.391
839.98	-13.154
840.28	-13.711
840.58	-15.429
840.88	-17.740
841.17	-19.819
841.47	-23.352
841.77	-25.974
842.07	-28.587
842.36	-33.929
842.66	-39.702
842.96	-48.399
843.26	-60.078
843.55	-67.835
843.85	-78.366
844.15	-82.813
844.45	-94.420
844.74	-98.002
845.04	-111.912
845.34	-117.406
845.63	-125.471
845.93	-134.504
846.23	-139.142
846.53	-125.628
846.82	-129.212
847.12	-122.471
847.42	-129.443
847.71	-121.393
848.01	-128.877
848.31	-122.403
848.60	-126.455
848.90	-121.342
849.19	-115.760
849.49	-109.731
849.79	-111.112
850.08	-109.176
850.38	-120.507
850.68	-118.673
850.97	-119.619
851.27	-117.555
851.56	-115.476
851.86	-115.088
852.16	-112.592
852.45	-113.761
852.75	-116.060
853.04	-122.278
853.34	-123.942
853.64	-119.431
853.93	-121.095
854.23	-119.317
854.52	-120.420
854.82	-114.856
855.11	-114.357
855.41	-118.977
855.70	-118.486
856.00	-114.306
856.30	-118.793
856.59	-119.421
856.89	-115.640
857.18	-107.077
857.48	-111.911
857.77	-105.975
858.07	-109.465
858.36	-101.824
858.66	-108.936
858.95	-100.979
859.25	-97.847
859.54	-84.850
859.84	-84.483
860.13	-90.179
860.42	-96.084
860.72	-90.972
861.01	-94.001
861.31	-92.410
861.60	-91.810
861.90	-79.337
862.19	-79.511
862.49	-78.734
862.78	-79.508
863.07	-77.030
863.37	-71.429
863.66	-71.378
863.96	-69.279
864.25	-64.936
864.54	-64.902
864.84	-61.650
865.13	-64.438
865.43	-63.806
865.72	-58.125
866.01	-81.243
866.31	-27.327
866.60	-88.918
866.89	-50.958
>>>>>End Spectral Data<<<<<
