OOIBase32 Version 2.0.0.6 Data File
++++++++++++++++++++++++++++++++++++
Date: 01-20-2012, 23:20:50
User: Valued Ocean Optics Customer
Spectrometer Serial Number: USB2E2917
Spectrometer Channel: Master
Integration Time (msec): 3
Spectra Averaged: 10
Boxcar Smoothing: 5
Correct for Electrical Dark: Enabled
Time Normalized: Disabled
Dual-beam Reference: Disabled
Reference Channel: Master
Temperature: Not acquired
Spectrometer Type: S2000
ADC Type: USB2000
Number of Pixels in File: 2048
Graph Title: 
>>>>>Begin Spectral Data<<<<<
180.30	0.000
180.67	0.000
181.03	147.286
181.40	-620.737
181.77	443.493
182.14	-1176.567
182.51	-21.235
182.88	12.268
183.25	35.261
183.62	901.209
183.99	2.542
184.36	27.137
184.73	114.827
185.10	29.195
185.46	-181.932
185.83	-215.101
186.20	71.879
186.57	190.738
186.94	-5.472
187.31	91.443
187.68	23.816
188.05	12.172
188.42	57.180
188.78	75.492
189.15	47.826
189.52	64.480
189.89	56.408
190.26	49.324
190.63	55.675
191.00	60.714
191.37	38.422
191.73	20.845
192.10	30.259
192.47	11.872
192.84	3.584
193.21	13.569
193.58	-18.431
193.94	-12.985
194.31	-20.671
194.68	-44.680
195.05	-22.831
195.42	-6.929
195.79	-6.788
196.15	-42.272
196.52	-13.363
196.89	-16.540
197.26	-38.154
197.63	-36.879
198.00	-119.756
198.36	-246.773
198.73	2527.008
199.10	-9807.649
199.47	944.752
199.84	-457.743
200.20	-180.748
200.57	-343.587
200.94	-1728.157
201.31	-751.269
201.68	-295.177
202.04	-75.368
202.41	-54.272
202.78	-57.851
203.15	-44.321
203.51	-57.563
203.88	-80.263
204.25	-82.816
204.62	-87.838
204.98	-58.487
205.35	-34.775
205.72	-27.006
206.09	-18.365
206.46	-12.162
206.82	6.275
207.19	-22.768
207.56	-20.536
207.92	-12.374
208.29	-15.659
208.66	0.130
209.03	0.007
209.39	4.770
209.76	-1.650
210.13	-17.328
210.50	0.007
210.86	18.326
211.23	27.968
211.60	28.916
211.96	31.478
212.33	14.834
212.70	22.491
213.07	28.101
213.43	25.271
213.80	17.645
214.17	14.319
214.53	7.209
214.90	3.265
215.27	13.975
215.63	16.833
216.00	22.699
216.37	23.943
216.74	14.301
217.10	14.839
217.47	28.458
217.84	32.151
218.20	34.058
218.57	21.688
218.94	16.669
219.30	8.838
219.67	3.629
220.04	7.013
220.40	12.736
220.77	7.285
221.13	4.217
221.50	-4.275
221.87	-9.374
222.23	-12.030
222.60	-10.133
222.97	-6.561
223.33	3.780
223.70	9.204
224.07	1.117
224.43	3.490
224.80	6.887
225.16	4.855
225.53	3.111
225.90	3.656
226.26	4.276
226.63	7.166
226.99	7.237
227.36	6.136
227.73	4.333
228.09	4.210
228.46	2.150
228.82	1.437
229.19	2.866
229.56	2.779
229.92	3.726
230.29	3.929
230.65	2.092
231.02	1.556
231.38	1.888
231.75	2.223
232.12	3.853
232.48	5.583
232.85	6.873
233.21	5.982
233.58	7.686
233.94	6.975
234.31	7.470
234.68	7.970
235.04	7.011
235.41	6.105
235.77	5.890
236.14	5.200
236.50	5.751
236.87	4.905
237.23	4.209
237.60	3.573
237.96	3.087
238.33	3.194
238.69	3.039
239.06	4.037
239.42	5.010
239.79	4.155
240.15	4.295
240.52	4.159
240.88	3.652
241.25	3.774
241.61	3.294
241.98	3.556
242.34	3.543
242.71	3.720
243.07	3.323
243.44	2.943
243.80	3.463
244.17	3.789
244.53	3.827
244.90	4.161
245.26	4.333
245.63	4.720
245.99	4.637
246.36	4.725
246.72	4.509
247.09	4.463
247.45	4.291
247.81	4.080
248.18	3.948
248.54	3.634
248.91	3.879
249.27	3.920
249.64	3.659
250.00	3.674
250.36	3.759
250.73	4.523
251.09	5.081
251.46	4.854
251.82	4.842
252.19	4.327
252.55	4.650
252.91	4.336
253.28	4.170
253.64	4.458
254.01	4.318
254.37	4.267
254.73	3.921
255.10	4.132
255.46	4.635
255.83	4.677
256.19	4.731
256.55	4.750
256.92	4.664
257.28	4.659
257.65	4.338
258.01	4.425
258.37	4.344
258.74	4.350
259.10	3.997
259.46	3.959
259.83	4.006
260.19	4.221
260.55	4.173
260.92	4.287
261.28	3.987
261.64	4.228
262.01	4.304
262.37	4.202
262.73	4.042
263.10	4.246
263.46	4.113
263.82	4.512
264.19	4.279
264.55	4.375
264.91	4.357
265.28	4.524
265.64	4.268
266.00	4.216
266.37	4.126
266.73	3.998
267.09	3.844
267.46	4.068
267.82	3.906
268.18	3.888
268.54	3.783
268.91	3.734
269.27	3.630
269.63	3.464
270.00	3.159
270.36	3.298
270.72	3.374
271.08	3.759
271.45	3.771
271.81	3.807
272.17	3.919
272.53	4.017
272.90	3.952
273.26	3.933
273.62	3.999
273.98	4.163
274.35	4.481
274.71	4.686
275.07	4.134
275.43	3.828
275.80	3.533
276.16	3.156
276.52	3.110
276.88	2.932
277.25	3.219
277.61	3.395
277.97	3.470
278.33	3.300
278.69	3.071
279.06	3.108
279.42	3.603
279.78	3.887
280.14	4.121
280.50	3.903
280.87	4.008
281.23	3.911
281.59	3.847
281.95	3.764
282.31	3.416
282.68	3.506
283.04	3.843
283.40	3.738
283.76	3.794
284.12	3.743
284.48	3.920
284.85	4.024
285.21	4.332
285.57	4.278
285.93	4.323
286.29	4.361
286.65	4.254
287.02	4.159
287.38	4.070
287.74	3.875
288.10	3.798
288.46	4.013
288.82	4.092
289.18	3.880
289.54	4.035
289.91	3.905
290.27	4.121
290.63	4.349
290.99	4.246
291.35	4.058
291.71	3.924
292.07	4.139
292.43	4.018
292.79	3.851
293.16	3.776
293.52	3.709
293.88	3.858
294.24	4.017
294.60	3.908
294.96	3.943
295.32	4.097
295.68	4.391
296.04	4.215
296.40	3.957
296.76	3.831
297.12	3.796
297.49	3.819
297.85	3.589
298.21	3.468
298.57	3.515
298.93	3.695
299.29	3.763
299.65	3.727
300.01	3.802
300.37	3.918
300.73	4.086
301.09	4.337
301.45	4.277
301.81	4.411
302.17	4.356
302.53	4.398
302.89	4.456
303.25	4.393
303.61	4.434
303.97	4.555
304.33	4.538
304.69	4.445
305.05	4.162
305.41	4.257
305.77	4.390
306.13	4.310
306.49	4.278
306.85	4.162
307.21	4.168
307.57	3.961
307.93	3.846
308.29	3.883
308.65	3.948
309.01	3.953
309.37	3.982
309.73	4.080
310.09	4.211
310.45	4.125
310.81	4.144
311.17	4.153
311.53	4.184
311.89	4.129
312.25	4.162
312.61	4.133
312.96	4.231
313.32	4.268
313.68	4.282
314.04	4.225
314.40	4.326
314.76	4.146
315.12	4.218
315.48	4.340
315.84	4.356
316.20	4.303
316.56	4.315
316.92	4.405
317.27	4.374
317.63	4.236
317.99	4.449
318.35	4.408
318.71	4.645
319.07	4.582
319.43	4.503
319.79	4.603
320.15	4.599
320.50	4.765
320.86	4.804
321.22	4.867
321.58	4.947
321.94	4.784
322.30	4.854
322.66	4.855
323.01	4.900
323.37	4.983
323.73	5.109
324.09	5.268
324.45	5.380
324.81	5.439
325.17	5.488
325.52	5.660
325.88	5.900
326.24	5.973
326.60	6.038
326.96	6.216
327.31	6.387
327.67	6.509
328.03	6.664
328.39	6.620
328.75	6.595
329.11	6.770
329.46	6.748
329.82	6.699
330.18	6.903
330.54	6.945
330.90	6.858
331.25	6.963
331.61	6.976
331.97	7.004
332.33	6.993
332.68	7.083
333.04	6.969
333.40	6.965
333.76	7.050
334.11	6.991
334.47	6.981
334.83	7.179
335.19	7.082
335.54	7.070
335.90	6.992
336.26	7.101
336.62	7.188
336.97	7.380
337.33	7.442
337.69	7.386
338.05	7.350
338.40	7.401
338.76	7.155
339.12	7.255
339.48	7.234
339.83	7.242
340.19	7.216
340.55	7.176
340.90	7.038
341.26	6.964
341.62	6.947
341.97	6.925
342.33	6.860
342.69	6.937
343.04	6.929
343.40	6.986
343.76	6.989
344.12	7.049
344.47	6.968
344.83	6.969
345.19	6.982
345.54	6.939
345.90	6.943
346.26	6.915
346.61	6.869
346.97	6.812
347.32	6.741
347.68	6.748
348.04	6.709
348.39	6.751
348.75	6.762
349.11	6.777
349.46	6.859
349.82	6.855
350.18	6.880
350.53	6.922
350.89	6.982
351.24	7.076
351.60	7.077
351.96	7.059
352.31	7.015
352.67	7.074
353.02	7.117
353.38	6.997
353.74	6.997
354.09	7.118
354.45	7.205
354.80	7.169
355.16	7.145
355.52	7.186
355.87	7.182
356.23	7.227
356.58	7.201
356.94	7.125
357.29	7.225
357.65	7.240
358.00	7.162
358.36	7.136
358.72	7.185
359.07	7.214
359.43	7.178
359.78	7.242
360.14	7.233
360.49	7.239
360.85	7.314
361.20	7.323
361.56	7.366
361.91	7.350
362.27	7.336
362.62	7.355
362.98	7.307
363.33	7.310
363.69	7.267
364.04	7.354
364.40	7.340
364.75	7.366
365.11	7.372
365.46	7.372
365.82	7.446
366.17	7.483
366.53	7.472
366.88	7.497
367.24	7.512
367.59	7.530
367.95	7.496
368.30	7.485
368.66	7.430
369.01	7.444
369.37	7.508
369.72	7.578
370.08	7.574
370.43	7.599
370.78	7.625
371.14	7.670
371.49	7.683
371.85	7.728
372.20	7.763
372.56	7.781
372.91	7.800
373.26	7.823
373.62	7.772
373.97	7.806
374.33	7.780
374.68	7.760
375.03	7.764
375.39	7.809
375.74	7.833
376.10	7.850
376.45	7.859
376.80	7.903
377.16	7.894
377.51	7.941
377.87	7.887
378.22	7.878
378.57	7.946
378.93	7.997
379.28	8.020
379.63	8.033
379.99	8.102
380.34	8.167
380.70	8.151
381.05	8.146
381.40	8.133
381.76	8.225
382.11	8.263
382.46	8.259
382.82	8.249
383.17	8.308
383.52	8.308
383.88	8.309
384.23	8.353
384.58	8.431
384.94	8.518
385.29	8.544
385.64	8.553
385.99	8.590
386.35	8.598
386.70	8.659
387.05	8.568
387.41	8.583
387.76	8.633
388.11	8.640
388.47	8.585
388.82	8.613
389.17	8.681
389.52	8.716
389.88	8.727
390.23	8.797
390.58	8.765
390.93	8.812
391.29	8.808
391.64	8.822
391.99	8.821
392.34	8.848
392.70	8.785
393.05	8.742
393.40	8.700
393.75	8.733
394.11	8.718
394.46	8.783
394.81	8.785
395.16	8.810
395.52	8.792
395.87	8.789
396.22	8.824
396.57	8.839
396.92	8.803
397.28	8.873
397.63	8.901
397.98	8.908
398.33	8.914
398.68	8.977
399.04	9.004
399.39	8.966
399.74	8.953
400.09	8.961
400.44	8.945
400.80	8.969
401.15	8.960
401.50	8.910
401.85	8.892
402.20	8.833
402.55	8.795
402.90	8.758
403.26	8.772
403.61	8.767
403.96	8.749
404.31	8.759
404.66	8.749
405.01	8.765
405.36	8.797
405.72	8.778
406.07	8.816
406.42	8.860
406.77	8.872
407.12	8.851
407.47	8.906
407.82	8.869
408.17	8.873
408.53	8.853
408.88	8.856
409.23	8.841
409.58	8.864
409.93	8.855
410.28	8.811
410.63	8.829
410.98	8.826
411.33	8.761
411.68	8.796
412.03	8.799
412.38	8.832
412.73	8.784
413.09	8.751
413.44	8.750
413.79	8.714
414.14	8.714
414.49	8.680
414.84	8.711
415.19	8.732
415.54	8.719
415.89	8.700
416.24	8.690
416.59	8.689
416.94	8.675
417.29	8.664
417.64	8.652
417.99	8.645
418.34	8.632
418.69	8.596
419.04	8.574
419.39	8.551
419.74	8.550
420.09	8.535
420.44	8.517
420.79	8.511
421.14	8.499
421.49	8.491
421.84	8.457
422.19	8.450
422.54	8.446
422.89	8.438
423.24	8.432
423.59	8.420
423.94	8.423
424.29	8.419
424.64	8.425
424.99	8.421
425.34	8.413
425.68	8.454
426.03	8.474
426.38	8.494
426.73	8.503
427.08	8.514
427.43	8.495
427.78	8.475
428.13	8.477
428.48	8.488
428.83	8.485
429.18	8.515
429.53	8.485
429.87	8.458
430.22	8.433
430.57	8.455
430.92	8.454
431.27	8.479
431.62	8.489
431.97	8.489
432.32	8.481
432.67	8.467
433.01	8.450
433.36	8.470
433.71	8.494
434.06	8.531
434.41	8.523
434.76	8.520
435.11	8.506
435.45	8.514
435.80	8.530
436.15	8.525
436.50	8.519
436.85	8.515
437.20	8.517
437.54	8.496
437.89	8.477
438.24	8.465
438.59	8.457
438.94	8.437
439.29	8.437
439.63	8.407
439.98	8.397
440.33	8.413
440.68	8.420
441.03	8.382
441.37	8.363
441.72	8.330
442.07	8.330
442.42	8.339
442.76	8.358
443.11	8.338
443.46	8.348
443.81	8.339
444.16	8.319
444.50	8.314
444.85	8.328
445.20	8.332
445.55	8.349
445.89	8.326
446.24	8.320
446.59	8.304
446.94	8.281
447.28	8.272
447.63	8.265
447.98	8.257
448.32	8.228
448.67	8.178
449.02	8.178
449.37	8.174
449.71	8.190
450.06	8.170
450.41	8.157
450.75	8.162
451.10	8.123
451.45	8.136
451.79	8.143
452.14	8.143
452.49	8.171
452.84	8.157
453.18	8.160
453.53	8.158
453.88	8.181
454.22	8.187
454.57	8.196
454.92	8.228
455.26	8.209
455.61	8.235
455.95	8.247
456.30	8.252
456.65	8.273
456.99	8.290
457.34	8.297
457.69	8.298
458.03	8.313
458.38	8.339
458.73	8.352
459.07	8.390
459.42	8.394
459.76	8.418
460.11	8.442
460.46	8.463
460.80	8.466
461.15	8.483
461.49	8.508
461.84	8.518
462.19	8.516
462.53	8.522
462.88	8.535
463.22	8.556
463.57	8.582
463.91	8.602
464.26	8.636
464.61	8.656
464.95	8.672
465.30	8.686
465.64	8.721
465.99	8.757
466.33	8.782
466.68	8.800
467.02	8.823
467.37	8.829
467.71	8.826
468.06	8.817
468.41	8.848
468.75	8.858
469.10	8.896
469.44	8.908
469.79	8.920
470.13	8.945
470.48	8.940
470.82	8.946
471.17	8.968
471.51	8.976
471.86	9.002
472.20	8.988
472.55	8.997
472.89	8.978
473.23	8.983
473.58	8.983
473.92	8.974
474.27	8.966
474.61	8.948
474.96	8.963
475.30	8.971
475.65	8.979
475.99	8.966
476.34	8.959
476.68	8.949
477.02	8.966
477.37	8.969
477.71	8.951
478.06	8.971
478.40	8.977
478.75	8.977
479.09	9.020
479.43	9.032
479.78	9.064
480.12	9.097
480.47	9.143
480.81	9.176
481.15	9.200
481.50	9.233
481.84	9.270
482.19	9.298
482.53	9.330
482.87	9.343
483.22	9.366
483.56	9.397
483.90	9.406
484.25	9.399
484.59	9.393
484.94	9.390
485.28	9.398
485.62	9.383
485.97	9.384
486.31	9.373
486.65	9.384
487.00	9.392
487.34	9.392
487.68	9.411
488.03	9.431
488.37	9.458
488.71	9.486
489.06	9.514
489.40	9.548
489.74	9.570
490.09	9.599
490.43	9.619
490.77	9.651
491.11	9.683
491.46	9.713
491.80	9.759
492.14	9.792
492.49	9.849
492.83	9.882
493.17	9.919
493.51	9.990
493.86	10.054
494.20	10.115
494.54	10.173
494.88	10.203
495.23	10.254
495.57	10.307
495.91	10.355
496.25	10.391
496.60	10.449
496.94	10.524
497.28	10.588
497.62	10.653
497.97	10.737
498.31	10.795
498.65	10.896
498.99	10.971
499.33	11.044
499.68	11.147
500.02	11.238
500.36	11.335
500.70	11.407
501.04	11.469
501.39	11.567
501.73	11.623
502.07	11.710
502.41	11.809
502.75	11.915
503.09	12.003
503.44	12.064
503.78	12.131
504.12	12.198
504.46	12.294
504.80	12.389
505.14	12.455
505.49	12.512
505.83	12.578
506.17	12.630
506.51	12.706
506.85	12.755
507.19	12.817
507.53	12.918
507.87	13.007
508.22	13.085
508.56	13.161
508.90	13.220
509.24	13.309
509.58	13.397
509.92	13.463
510.26	13.525
510.60	13.629
510.94	13.722
511.28	13.761
511.63	13.824
511.97	13.858
512.31	13.944
512.65	14.024
512.99	14.110
513.33	14.159
513.67	14.218
514.01	14.285
514.35	14.342
514.69	14.362
515.03	14.434
515.37	14.498
515.71	14.587
516.05	14.616
516.39	14.661
516.73	14.679
517.07	14.729
517.41	14.767
517.75	14.821
518.09	14.858
518.43	14.955
518.77	15.009
519.11	15.032
519.45	15.040
519.79	15.087
520.13	15.157
520.47	15.234
520.81	15.296
521.15	15.364
521.49	15.417
521.83	15.468
522.17	15.490
522.51	15.515
522.85	15.558
523.19	15.616
523.53	15.655
523.87	15.708
524.21	15.776
524.55	15.834
524.89	15.888
525.23	15.951
525.57	16.005
525.91	16.087
526.25	16.146
526.58	16.208
526.92	16.246
527.26	16.283
527.60	16.300
527.94	16.318
528.28	16.339
528.62	16.367
528.96	16.372
529.30	16.391
529.64	16.378
529.97	16.392
530.31	16.389
530.65	16.404
530.99	16.427
531.33	16.444
531.67	16.453
532.01	16.480
532.35	16.487
532.68	16.513
533.02	16.531
533.36	16.539
533.70	16.547
534.04	16.567
534.38	16.561
534.71	16.582
535.05	16.613
535.39	16.645
535.73	16.642
536.07	16.660
536.41	16.650
536.74	16.675
537.08	16.721
537.42	16.704
537.76	16.722
538.10	16.774
538.43	16.816
538.77	16.863
539.11	16.879
539.45	16.912
539.79	16.944
540.12	16.990
540.46	17.005
540.80	17.021
541.14	17.069
541.47	17.090
541.81	17.111
542.15	17.104
542.49	17.107
542.82	17.150
543.16	17.177
543.50	17.174
543.84	17.152
544.17	17.165
544.51	17.186
544.85	17.212
545.18	17.241
545.52	17.280
545.86	17.314
546.20	17.330
546.53	17.335
546.87	17.355
547.21	17.392
547.54	17.455
547.88	17.479
548.22	17.483
548.55	17.507
548.89	17.539
549.23	17.541
549.56	17.567
549.90	17.568
550.24	17.581
550.57	17.572
550.91	17.604
551.25	17.604
551.58	17.601
551.92	17.598
552.26	17.612
552.59	17.596
552.93	17.574
553.27	17.599
553.60	17.619
553.94	17.646
554.27	17.664
554.61	17.671
554.95	17.674
555.28	17.705
555.62	17.725
555.95	17.697
556.29	17.715
556.63	17.777
556.96	17.760
557.30	17.806
557.63	17.781
557.97	17.792
558.31	17.803
558.64	17.827
558.98	17.856
559.31	17.855
559.65	17.906
559.98	17.906
560.32	17.883
560.65	17.864
560.99	17.841
561.33	17.856
561.66	17.855
562.00	17.859
562.33	17.858
562.67	17.834
563.00	17.834
563.34	17.836
563.67	17.852
564.01	17.842
564.34	17.868
564.68	17.875
565.01	17.865
565.35	17.855
565.68	17.875
566.02	17.847
566.35	17.840
566.69	17.818
567.02	17.791
567.36	17.780
567.69	17.805
568.03	17.793
568.36	17.810
568.69	17.819
569.03	17.835
569.36	17.789
569.70	17.788
570.03	17.794
570.37	17.797
570.70	17.800
571.04	17.790
571.37	17.760
571.70	17.770
572.04	17.743
572.37	17.725
572.71	17.699
573.04	17.695
573.37	17.708
573.71	17.707
574.04	17.720
574.38	17.733
574.71	17.713
575.04	17.720
575.38	17.694
575.71	17.674
576.05	17.693
576.38	17.730
576.71	17.709
577.05	17.722
577.38	17.667
577.71	17.672
578.05	17.659
578.38	17.678
578.71	17.644
579.05	17.636
579.38	17.630
579.71	17.590
580.05	17.534
580.38	17.524
580.71	17.455
581.05	17.451
581.38	17.387
581.71	17.338
582.05	17.334
582.38	17.319
582.71	17.299
583.04	17.250
583.38	17.234
583.71	17.252
584.04	17.254
584.38	17.250
584.71	17.295
585.04	17.305
585.37	17.297
585.71	17.249
586.04	17.262
586.37	17.269
586.70	17.284
587.04	17.290
587.37	17.270
587.70	17.234
588.03	17.209
588.37	17.131
588.70	17.106
589.03	17.077
589.36	17.058
589.69	17.050
590.03	17.030
590.36	17.013
590.69	16.937
591.02	16.864
591.35	16.858
591.69	16.851
592.02	16.879
592.35	16.828
592.68	16.824
593.01	16.814
593.35	16.743
593.68	16.731
594.01	16.688
594.34	16.678
594.67	16.665
595.00	16.647
595.34	16.631
595.67	16.576
596.00	16.602
596.33	16.549
596.66	16.528
596.99	16.549
597.32	16.470
597.65	16.443
597.99	16.460
598.32	16.452
598.65	16.413
598.98	16.365
599.31	16.297
599.64	16.224
599.97	16.196
600.30	16.119
600.63	16.042
600.96	16.030
601.30	16.026
601.63	15.990
601.96	15.950
602.29	15.932
602.62	15.901
602.95	15.930
603.28	15.925
603.61	15.907
603.94	15.893
604.27	15.923
604.60	15.920
604.93	15.862
605.26	15.832
605.59	15.809
605.92	15.754
606.25	15.756
606.58	15.697
606.91	15.645
607.24	15.595
607.57	15.609
607.90	15.560
608.23	15.525
608.56	15.537
608.89	15.536
609.22	15.515
609.55	15.514
609.88	15.489
610.21	15.475
610.54	15.454
610.87	15.471
611.20	15.410
611.53	15.340
611.86	15.277
612.19	15.264
612.52	15.196
612.85	15.179
613.18	15.152
613.51	15.148
613.84	15.101
614.17	15.125
614.49	15.106
614.82	15.063
615.15	15.106
615.48	15.188
615.81	15.122
616.14	15.112
616.47	15.099
616.80	15.085
617.13	15.086
617.46	15.096
617.78	15.065
618.11	15.031
618.44	15.014
618.77	14.944
619.10	14.796
619.43	14.792
619.76	14.748
620.09	14.707
620.41	14.642
620.74	14.555
621.07	14.517
621.40	14.431
621.73	14.397
622.06	14.357
622.38	14.319
622.71	14.321
623.04	14.266
623.37	14.217
623.70	14.156
624.02	14.134
624.35	14.091
624.68	14.065
625.01	14.085
625.34	14.083
625.66	14.111
625.99	14.126
626.32	14.140
626.65	14.168
626.98	14.209
627.30	14.221
627.63	14.252
627.96	14.232
628.29	14.208
628.61	14.177
628.94	14.132
629.27	14.128
629.60	14.082
629.92	14.007
630.25	13.927
630.58	13.864
630.91	13.880
631.23	13.837
631.56	13.802
631.89	13.801
632.21	13.826
632.54	13.814
632.87	13.719
633.19	13.703
633.52	13.680
633.85	13.645
634.18	13.648
634.50	13.601
634.83	13.560
635.16	13.550
635.48	13.451
635.81	13.366
636.14	13.343
636.46	13.357
636.79	13.282
637.11	13.310
637.44	13.331
637.77	13.276
638.09	13.219
638.42	13.211
638.75	13.204
639.07	13.273
639.40	13.292
639.73	13.240
640.05	13.249
640.38	13.335
640.70	13.306
641.03	13.263
641.36	13.265
641.68	13.246
642.01	13.238
642.33	13.211
642.66	13.162
642.98	13.178
643.31	13.150
643.64	13.124
643.96	13.023
644.29	12.992
644.61	13.011
644.94	12.951
645.26	12.916
645.59	12.896
645.91	12.859
646.24	12.864
646.56	12.816
646.89	12.822
647.22	12.798
647.54	12.800
647.87	12.822
648.19	12.758
648.52	12.719
648.84	12.682
649.17	12.649
649.49	12.652
649.82	12.618
650.14	12.550
650.47	12.537
650.79	12.494
651.11	12.501
651.44	12.423
651.76	12.455
652.09	12.483
652.41	12.470
652.74	12.489
653.06	12.449
653.39	12.439
653.71	12.459
654.04	12.442
654.36	12.407
654.68	12.381
655.01	12.356
655.33	12.341
655.66	12.353
655.98	12.379
656.30	12.328
656.63	12.361
656.95	12.335
657.28	12.274
657.60	12.219
657.92	12.242
658.25	12.204
658.57	12.206
658.90	12.149
659.22	12.111
659.54	12.111
659.87	12.165
660.19	12.141
660.51	12.142
660.84	12.158
661.16	12.230
661.48	12.153
661.81	12.131
662.13	12.122
662.45	12.088
662.78	12.085
663.10	12.098
663.42	11.982
663.75	11.976
664.07	11.942
664.39	11.935
664.72	11.909
665.04	11.946
665.36	11.958
665.69	11.930
666.01	12.006
666.33	11.925
666.65	11.836
666.98	11.837
667.30	11.816
667.62	11.873
667.94	11.883
668.27	11.805
668.59	11.762
668.91	11.718
669.23	11.735
669.56	11.731
669.88	11.763
670.20	11.764
670.52	11.760
670.85	11.751
671.17	11.596
671.49	11.524
671.81	11.504
672.13	11.493
672.46	11.521
672.78	11.477
673.10	11.475
673.42	11.518
673.74	11.547
674.07	11.576
674.39	11.547
674.71	11.578
675.03	11.591
675.35	11.603
675.67	11.585
676.00	11.565
676.32	11.531
676.64	11.445
676.96	11.417
677.28	11.490
677.60	11.408
677.92	11.448
678.25	11.511
678.57	11.485
678.89	11.488
679.21	11.479
679.53	11.487
679.85	11.523
680.17	11.577
680.49	11.618
680.81	11.548
681.13	11.664
681.46	11.693
681.78	11.678
682.10	11.735
682.42	11.667
682.74	11.667
683.06	11.711
683.38	11.755
683.70	11.770
684.02	11.729
684.34	11.689
684.66	11.708
684.98	11.720
685.30	11.752
685.62	11.792
685.94	11.850
686.26	11.929
686.58	11.943
686.90	11.940
687.22	11.957
687.54	11.900
687.86	11.872
688.18	11.767
688.50	11.778
688.82	11.765
689.14	11.722
689.46	11.799
689.78	11.767
690.10	11.739
690.42	11.721
690.74	11.634
691.06	11.694
691.38	11.700
691.70	11.662
692.02	11.534
692.34	11.515
692.66	11.511
692.98	11.541
693.30	11.527
693.62	11.378
693.94	11.372
694.26	11.388
694.57	11.291
694.89	11.309
695.21	11.407
695.53	11.476
695.85	11.390
696.17	11.372
696.49	11.246
696.81	11.287
697.13	11.411
697.44	11.440
697.76	11.347
698.08	11.432
698.40	11.503
698.72	11.548
699.04	11.540
699.36	11.572
699.67	11.517
699.99	11.634
700.31	11.582
700.63	11.539
700.95	11.487
701.27	11.645
701.58	11.475
701.90	11.563
702.22	11.485
702.54	11.439
702.86	11.461
703.17	11.498
703.49	11.462
703.81	11.457
704.13	11.393
704.45	11.313
704.76	11.251
705.08	11.369
705.40	11.272
705.72	11.152
706.03	11.155
706.35	11.185
706.67	11.163
706.99	11.145
707.30	11.138
707.62	11.085
707.94	11.155
708.26	11.228
708.57	11.200
708.89	11.044
709.21	11.026
709.53	11.000
709.84	10.924
710.16	10.819
710.48	10.869
710.79	10.823
711.11	10.874
711.43	10.914
711.74	10.843
712.06	10.930
712.38	11.059
712.69	11.157
713.01	11.177
713.33	11.192
713.64	11.384
713.96	11.387
714.28	11.452
714.59	11.511
714.91	11.519
715.23	11.536
715.54	11.538
715.86	11.482
716.17	11.586
716.49	11.669
716.81	11.773
717.12	11.694
717.44	11.697
717.76	11.647
718.07	11.562
718.39	11.533
718.70	11.515
719.02	11.503
719.33	11.588
719.65	11.515
719.97	11.397
720.28	11.412
720.60	11.447
720.91	11.489
721.23	11.593
721.54	11.747
721.86	11.760
722.17	11.664
722.49	11.627
722.81	11.610
723.12	11.585
723.44	11.560
723.75	11.505
724.07	11.665
724.38	11.674
724.70	11.648
725.01	11.670
725.33	11.629
725.64	11.810
725.96	11.816
726.27	11.999
726.59	12.127
726.90	12.149
727.22	12.199
727.53	12.122
727.84	12.108
728.16	12.023
728.47	11.971
728.79	12.118
729.10	12.114
729.42	12.258
729.73	12.011
730.05	11.751
730.36	11.700
730.67	11.593
730.99	11.568
731.30	11.499
731.62	11.593
731.93	11.474
732.24	11.384
732.56	11.311
732.87	11.211
733.19	11.242
733.50	11.229
733.81	11.320
734.13	11.361
734.44	11.352
734.76	11.449
735.07	11.262
735.38	11.124
735.70	11.053
736.01	11.070
736.32	11.064
736.64	11.076
736.95	11.171
737.26	11.171
737.58	11.264
737.89	11.161
738.20	11.006
738.52	11.001
738.83	11.210
739.14	11.213
739.45	11.046
739.77	10.946
740.08	10.848
740.39	10.856
740.71	10.771
741.02	10.657
741.33	10.799
741.64	10.868
741.96	11.047
742.27	11.161
742.58	11.058
742.90	11.060
743.21	10.995
743.52	11.044
743.83	11.024
744.14	11.109
744.46	11.094
744.77	11.032
745.08	11.180
745.39	11.295
745.71	11.097
746.02	11.155
746.33	11.309
746.64	11.474
746.95	11.457
747.27	11.630
747.58	11.646
747.89	11.580
748.20	11.487
748.51	11.298
748.82	10.913
749.14	10.857
749.45	10.856
749.76	11.022
750.07	11.009
750.38	11.017
750.69	11.057
751.01	11.056
751.32	11.101
751.63	11.301
751.94	11.221
752.25	11.413
752.56	11.451
752.87	11.356
753.18	11.288
753.49	11.196
753.81	11.342
754.12	11.086
754.43	10.868
754.74	10.719
755.05	10.429
755.36	10.413
755.67	10.344
755.98	10.585
756.29	10.763
756.60	10.673
756.91	10.573
757.22	10.384
757.53	10.504
757.84	10.695
758.15	10.914
758.46	11.152
758.77	11.240
759.09	11.543
759.40	11.464
759.71	11.381
760.02	11.388
760.33	11.555
760.64	11.561
760.95	11.533
761.26	11.629
761.57	11.633
761.88	11.553
762.18	11.500
762.49	11.484
762.80	11.371
763.11	11.458
763.42	11.364
763.73	11.145
764.04	11.262
764.35	11.184
764.66	10.959
764.97	10.919
765.28	10.997
765.59	10.988
765.90	10.727
766.21	10.864
766.52	10.599
766.83	10.608
767.14	10.771
767.44	10.739
767.75	10.798
768.06	10.836
768.37	10.746
768.68	10.345
768.99	10.335
769.30	10.311
769.61	10.195
769.91	10.365
770.22	10.382
770.53	10.477
770.84	10.478
771.15	10.559
771.46	10.747
771.77	10.643
772.07	10.960
772.38	10.848
772.69	10.761
773.00	10.724
773.31	10.733
773.61	10.535
773.92	10.341
774.23	10.094
774.54	10.108
774.85	10.002
775.15	10.155
775.46	10.085
775.77	10.357
776.08	10.735
776.39	10.995
776.69	11.037
777.00	11.112
777.31	11.371
777.62	11.382
777.92	11.278
778.23	11.314
778.54	11.389
778.85	11.529
779.15	11.318
779.46	11.131
779.77	10.718
780.07	10.401
780.38	10.351
780.69	10.231
781.00	10.127
781.30	9.780
781.61	9.632
781.92	9.530
782.22	9.355
782.53	9.447
782.84	9.601
783.14	9.833
783.45	10.346
783.76	10.846
784.06	10.584
784.37	11.133
784.68	11.409
784.98	11.688
785.29	11.582
785.60	11.716
785.90	11.590
786.21	11.776
786.51	11.592
786.82	11.534
787.13	11.335
787.43	11.071
787.74	10.747
788.04	10.876
788.35	10.741
788.66	10.691
788.96	10.557
789.27	10.527
789.57	10.208
789.88	10.300
790.19	10.412
790.49	10.311
790.80	10.915
791.10	10.918
791.41	10.848
791.71	10.873
792.02	10.847
792.32	10.983
792.63	10.967
792.93	10.885
793.24	11.314
793.54	11.074
793.85	11.440
794.15	11.518
794.46	11.518
794.76	11.751
795.07	11.817
795.37	12.313
795.68	12.240
795.98	12.295
796.29	12.409
796.59	12.062
796.90	12.189
797.20	11.996
797.51	11.797
797.81	11.868
798.12	11.631
798.42	11.609
798.72	11.142
799.03	11.626
799.33	11.989
799.64	11.835
799.94	12.083
800.25	11.883
800.55	12.093
800.85	12.420
801.16	12.584
801.46	12.630
801.77	12.785
802.07	12.871
802.37	12.400
802.68	12.373
802.98	12.691
803.28	12.147
803.59	12.496
803.89	12.249
804.20	12.232
804.50	12.044
804.80	12.218
805.11	12.058
805.41	12.203
805.71	12.027
806.02	11.862
806.32	11.851
806.62	12.702
806.93	12.440
807.23	12.709
807.53	12.259
807.83	12.487
808.14	12.225
808.44	12.163
808.74	11.822
809.05	12.335
809.35	12.344
809.65	12.480
809.95	12.383
810.26	12.202
810.56	11.832
810.86	12.251
811.16	12.348
811.47	12.667
811.77	12.482
812.07	12.361
812.37	12.078
812.68	12.317
812.98	11.879
813.28	11.537
813.58	11.615
813.88	11.182
814.19	11.469
814.49	11.552
814.79	11.735
815.09	12.130
815.39	12.633
815.70	12.550
816.00	12.364
816.30	12.739
816.60	12.695
816.90	12.703
817.20	13.038
817.50	13.233
817.81	12.914
818.11	12.767
818.41	12.677
818.71	12.816
819.01	12.776
819.31	12.859
819.61	12.925
819.92	12.876
820.22	12.900
820.52	12.938
820.82	12.871
821.12	12.865
821.42	12.929
821.72	13.013
822.02	12.917
822.32	12.977
822.62	13.063
822.92	13.109
823.22	13.197
823.52	13.181
823.83	13.173
824.13	13.181
824.43	13.262
824.73	13.283
825.03	13.382
825.33	13.532
825.63	13.542
825.93	13.448
826.23	13.269
826.53	13.252
826.83	13.395
827.13	13.378
827.43	13.227
827.73	13.340
828.03	13.331
828.33	13.106
828.63	12.930
828.93	12.575
829.23	12.593
829.53	12.697
829.83	12.627
830.13	12.631
830.42	12.722
830.72	13.089
831.02	12.973
831.32	12.880
831.62	12.831
831.92	13.270
832.22	13.799
832.52	13.602
832.82	13.174
833.12	13.115
833.42	12.913
833.72	12.701
834.01	12.564
834.31	12.327
834.61	12.195
834.91	12.300
835.21	12.063
835.51	12.066
835.81	11.798
836.11	12.619
836.40	12.861
836.70	13.181
837.00	13.770
837.30	13.839
837.60	14.124
837.90	14.434
838.19	14.671
838.49	14.313
838.79	13.805
839.09	14.132
839.39	13.520
839.68	13.444
839.98	13.299
840.28	13.337
840.58	12.843
840.88	13.050
841.17	13.209
841.47	11.527
841.77	12.249
842.07	12.603
842.36	11.273
842.66	10.622
842.96	10.235
843.26	9.431
843.55	9.633
843.85	9.147
844.15	8.543
844.45	7.711
844.74	8.861
845.04	8.141
845.34	7.145
845.63	8.440
845.93	9.414
846.23	8.625
846.53	9.556
846.82	8.803
847.12	12.113
847.42	11.890
847.71	10.989
848.01	9.817
848.31	11.401
848.60	12.161
848.90	11.889
849.19	11.936
849.49	12.911
849.79	13.660
850.08	14.367
850.38	13.362
850.68	13.486
850.97	15.090
851.27	16.697
851.56	13.768
851.86	13.163
852.16	14.587
852.45	12.380
852.75	13.261
853.04	11.724
853.34	11.371
853.64	9.696
853.93	9.731
854.23	7.169
854.52	8.698
854.82	9.612
855.11	9.848
855.41	8.597
855.70	10.962
856.00	10.609
856.30	10.448
856.59	10.210
856.89	11.558
857.18	11.004
857.48	12.298
857.77	10.078
858.07	10.418
858.36	9.305
858.66	10.315
858.95	8.579
859.25	7.016
859.54	7.509
859.84	8.134
860.13	6.622
860.42	8.991
860.72	10.912
861.01	12.037
861.31	10.760
861.60	12.347
861.90	12.737
862.19	14.002
862.49	13.424
862.78	11.606
863.07	11.133
863.37	11.097
863.66	7.784
863.96	7.197
864.25	5.425
864.54	7.742
864.84	5.971
865.13	6.139
865.43	6.032
865.72	-6.429
866.01	21.687
866.31	-0.719
866.60	20.379
866.89	13.089
>>>>>End Spectral Data<<<<<
