OOIBase32 Version 2.0.0.6 Data File
++++++++++++++++++++++++++++++++++++
Date: 01-20-2012, 23:21:52
User: Valued Ocean Optics Customer
Spectrometer Serial Number: USB2E2917
Spectrometer Channel: Master
Integration Time (msec): 3
Spectra Averaged: 10
Boxcar Smoothing: 5
Correct for Electrical Dark: Enabled
Time Normalized: Disabled
Dual-beam Reference: Disabled
Reference Channel: Master
Temperature: Not acquired
Spectrometer Type: S2000
ADC Type: USB2000
Number of Pixels in File: 2048
Graph Title: 
>>>>>Begin Spectral Data<<<<<
180.30	0.000
180.67	0.000
181.03	17.813
181.40	-814.515
181.77	-83.108
182.14	-2572.838
182.51	68.998
182.88	-64.712
183.25	99.496
183.62	580.629
183.99	-17.404
184.36	49.503
184.73	-51.042
185.10	54.857
185.46	-92.343
185.83	-6.455
186.20	163.707
186.57	16.139
186.94	5.941
187.31	-163.764
187.68	205.476
188.05	141.420
188.42	87.593
188.78	58.256
189.15	52.681
189.52	30.078
189.89	6.324
190.26	3.094
190.63	-5.523
191.00	0.439
191.37	-1.625
191.73	0.450
192.10	4.743
192.47	0.996
192.84	-12.842
193.21	-16.993
193.58	-36.030
193.94	-36.571
194.31	-41.310
194.68	-38.198
195.05	-27.217
195.42	-29.320
195.79	-40.720
196.15	-60.688
196.52	-31.139
196.89	-23.912
197.26	-1.336
197.63	13.074
198.00	4.922
198.36	20.716
198.73	1017.399
199.10	-4424.747
199.47	350.633
199.84	3.515
200.20	-32.437
200.57	-69.169
200.94	-462.552
201.31	-278.344
201.68	-139.623
202.04	-20.793
202.41	-12.916
202.78	-15.269
203.15	-5.220
203.51	-4.877
203.88	-46.753
204.25	-30.519
204.62	-39.133
204.98	-6.695
205.35	2.749
205.72	20.797
206.09	29.761
206.46	35.045
206.82	53.324
207.19	40.473
207.56	39.947
207.92	58.984
208.29	72.123
208.66	66.034
209.03	51.576
209.39	50.565
209.76	25.719
210.13	21.614
210.50	26.547
210.86	36.848
211.23	41.209
211.60	36.392
211.96	29.032
212.33	26.209
212.70	35.650
213.07	42.880
213.43	49.732
213.80	53.012
214.17	47.501
214.53	58.759
214.90	43.223
215.27	40.456
215.63	48.992
216.00	52.008
216.37	39.091
216.74	37.399
217.10	36.586
217.47	38.264
217.84	45.032
218.20	43.206
218.57	31.860
218.94	37.598
219.30	32.911
219.67	26.684
220.04	22.055
220.40	22.516
220.77	13.677
221.13	15.460
221.50	11.147
221.87	4.023
222.23	0.508
222.60	0.739
222.97	5.356
223.33	15.440
223.70	15.257
224.07	11.736
224.43	15.489
224.80	14.178
225.16	12.377
225.53	11.312
225.90	11.216
226.26	10.920
226.63	12.072
226.99	9.794
227.36	8.561
227.73	8.153
228.09	7.770
228.46	6.814
228.82	7.758
229.19	7.287
229.56	6.237
229.92	7.395
230.29	8.961
230.65	7.643
231.02	8.681
231.38	8.656
231.75	7.651
232.12	7.994
232.48	8.472
232.85	7.927
233.21	7.735
233.58	8.969
233.94	9.716
234.31	8.117
234.68	6.900
235.04	6.424
235.41	4.627
235.77	4.900
236.14	5.946
236.50	5.073
236.87	4.983
237.23	5.635
237.60	3.708
237.96	1.601
238.33	2.601
238.69	2.764
239.06	2.110
239.42	4.406
239.79	4.426
240.15	4.057
240.52	3.615
240.88	3.534
241.25	3.528
241.61	3.804
241.98	4.593
242.34	4.564
242.71	5.003
243.07	5.538
243.44	4.958
243.80	5.159
244.17	5.742
244.53	6.298
244.90	6.335
245.26	6.310
245.63	6.258
245.99	6.112
246.36	6.016
246.72	5.780
247.09	5.629
247.45	5.452
247.81	5.568
248.18	5.385
248.54	5.189
248.91	5.242
249.27	4.931
249.64	5.207
250.00	5.073
250.36	5.209
250.73	5.990
251.09	6.417
251.46	6.439
251.82	5.878
252.19	5.140
252.55	5.161
252.91	4.886
253.28	4.949
253.64	5.024
254.01	4.949
254.37	5.242
254.73	4.476
255.10	3.981
255.46	4.114
255.83	3.871
256.19	4.367
256.55	4.317
256.92	4.262
257.28	4.110
257.65	4.127
258.01	4.236
258.37	4.111
258.74	4.220
259.10	4.239
259.46	4.297
259.83	4.522
260.19	4.486
260.55	4.384
260.92	4.505
261.28	4.579
261.64	4.360
262.01	4.153
262.37	4.187
262.73	4.225
263.10	4.301
263.46	4.008
263.82	4.250
264.19	4.342
264.55	4.578
264.91	4.632
265.28	4.962
265.64	5.094
266.00	5.379
266.37	5.296
266.73	5.129
267.09	4.775
267.46	5.006
267.82	4.986
268.18	4.782
268.54	4.781
268.91	4.913
269.27	4.878
269.63	4.698
270.00	4.599
270.36	4.460
270.72	4.378
271.08	4.641
271.45	4.482
271.81	4.370
272.17	4.434
272.53	4.385
272.90	4.209
273.26	3.907
273.62	3.881
273.98	3.816
274.35	4.091
274.71	4.128
275.07	3.847
275.43	3.769
275.80	3.746
276.16	3.516
276.52	3.311
276.88	3.083
277.25	3.551
277.61	3.571
277.97	3.404
278.33	3.472
278.69	3.454
279.06	3.439
279.42	3.782
279.78	3.730
280.14	3.769
280.50	3.704
280.87	3.880
281.23	3.619
281.59	3.852
281.95	3.942
282.31	3.744
282.68	3.936
283.04	4.153
283.40	4.137
283.76	4.373
284.12	4.417
284.48	4.512
284.85	4.551
285.21	4.858
285.57	4.549
285.93	4.578
286.29	4.642
286.65	4.512
287.02	4.606
287.38	4.390
287.74	4.196
288.10	4.254
288.46	4.322
288.82	4.246
289.18	3.921
289.54	3.946
289.91	3.801
290.27	4.050
290.63	4.103
290.99	4.196
291.35	4.623
291.71	4.765
292.07	4.765
292.43	5.002
292.79	5.100
293.16	5.175
293.52	5.594
293.88	5.843
294.24	5.820
294.60	6.078
294.96	6.130
295.32	6.195
295.68	6.323
296.04	6.530
296.40	6.663
296.76	6.823
297.12	7.156
297.49	7.357
297.85	7.355
298.21	7.538
298.57	7.779
298.93	8.269
299.29	8.399
299.65	8.750
300.01	9.205
300.37	9.585
300.73	9.994
301.09	10.391
301.45	10.501
301.81	10.870
302.17	11.171
302.53	11.362
302.89	11.411
303.25	11.820
303.61	12.203
303.97	12.221
304.33	12.227
304.69	12.473
305.05	12.356
305.41	12.660
305.77	12.983
306.13	12.957
306.49	13.082
306.85	13.173
307.21	13.218
307.57	13.176
307.93	13.273
308.29	13.482
308.65	13.530
309.01	13.854
309.37	14.043
309.73	14.144
310.09	14.282
310.45	14.370
310.81	14.513
311.17	14.667
311.53	14.644
311.89	14.749
312.25	14.839
312.61	14.770
312.96	14.548
313.32	14.467
313.68	14.599
314.04	14.829
314.40	14.870
314.76	14.842
315.12	14.775
315.48	14.822
315.84	14.741
316.20	14.713
316.56	14.921
316.92	15.169
317.27	15.245
317.63	15.145
317.99	14.966
318.35	15.079
318.71	15.044
319.07	15.069
319.43	15.199
319.79	15.241
320.15	15.316
320.50	15.328
320.86	15.350
321.22	15.291
321.58	15.321
321.94	15.342
322.30	15.193
322.66	15.201
323.01	15.102
323.37	14.853
323.73	14.877
324.09	14.689
324.45	14.629
324.81	14.589
325.17	14.636
325.52	14.574
325.88	14.591
326.24	14.519
326.60	14.443
326.96	14.541
327.31	14.680
327.67	14.740
328.03	14.902
328.39	14.934
328.75	14.898
329.11	14.812
329.46	14.733
329.82	14.572
330.18	14.602
330.54	14.616
330.90	14.591
331.25	14.629
331.61	14.619
331.97	14.433
332.33	14.273
332.68	14.304
333.04	14.156
333.40	14.177
333.76	14.285
334.11	14.317
334.47	14.231
334.83	14.212
335.19	14.176
335.54	14.057
335.90	14.013
336.26	14.036
336.62	13.883
336.97	14.055
337.33	14.093
337.69	13.954
338.05	14.010
338.40	14.051
338.76	14.013
339.12	14.048
339.48	14.088
339.83	14.098
340.19	14.027
340.55	14.065
340.90	14.052
341.26	14.101
341.62	14.090
341.97	13.857
342.33	13.810
342.69	13.753
343.04	13.644
343.40	13.610
343.76	13.560
344.12	13.501
344.47	13.465
344.83	13.380
345.19	13.215
345.54	13.217
345.90	13.239
346.26	13.161
346.61	13.094
346.97	12.986
347.32	12.878
347.68	12.881
348.04	12.970
348.39	12.979
348.75	12.870
349.11	12.880
349.46	12.863
349.82	12.807
350.18	12.795
350.53	12.777
350.89	12.882
351.24	13.016
351.60	13.016
351.96	12.930
352.31	12.830
352.67	12.912
353.02	12.938
353.38	12.877
353.74	12.927
354.09	12.950
354.45	12.966
354.80	12.880
355.16	12.769
355.52	12.782
355.87	12.779
356.23	12.874
356.58	12.821
356.94	12.698
357.29	12.644
357.65	12.681
358.00	12.686
358.36	12.615
358.72	12.568
359.07	12.609
359.43	12.505
359.78	12.501
360.14	12.330
360.49	12.272
360.85	12.303
361.20	12.405
361.56	12.328
361.91	12.243
362.27	12.257
362.62	12.255
362.98	12.151
363.33	12.158
363.69	12.069
364.04	12.176
364.40	12.218
364.75	12.181
365.11	12.139
365.46	12.137
365.82	12.169
366.17	12.159
366.53	12.137
366.88	12.127
367.24	12.138
367.59	12.191
367.95	12.160
368.30	12.136
368.66	12.141
369.01	12.121
369.37	12.151
369.72	12.111
370.08	12.044
370.43	12.064
370.78	12.096
371.14	12.099
371.49	12.026
371.85	11.994
372.20	11.903
372.56	11.814
372.91	11.800
373.26	11.703
373.62	11.678
373.97	11.724
374.33	11.660
374.68	11.574
375.03	11.501
375.39	11.502
375.74	11.523
376.10	11.515
376.45	11.573
376.80	11.544
377.16	11.534
377.51	11.518
377.87	11.440
378.22	11.394
378.57	11.464
378.93	11.481
379.28	11.477
379.63	11.448
379.99	11.430
380.34	11.403
380.70	11.344
381.05	11.309
381.40	11.327
381.76	11.341
382.11	11.369
382.46	11.268
382.82	11.212
383.17	11.187
383.52	11.112
383.88	11.104
384.23	11.079
384.58	11.076
384.94	11.110
385.29	11.034
385.64	11.008
385.99	10.989
386.35	10.976
386.70	10.970
387.05	10.884
387.41	10.870
387.76	10.899
388.11	10.836
388.47	10.789
388.82	10.749
389.17	10.768
389.52	10.712
389.88	10.650
390.23	10.636
390.58	10.636
390.93	10.636
391.29	10.607
391.64	10.505
391.99	10.485
392.34	10.419
392.70	10.354
393.05	10.293
393.40	10.264
393.75	10.277
394.11	10.236
394.46	10.183
394.81	10.189
395.16	10.196
395.52	10.182
395.87	10.145
396.22	10.191
396.57	10.210
396.92	10.180
397.28	10.194
397.63	10.195
397.98	10.211
398.33	10.232
398.68	10.211
399.04	10.193
399.39	10.194
399.74	10.140
400.09	10.116
400.44	10.078
400.80	10.059
401.15	10.032
401.50	10.003
401.85	9.993
402.20	9.905
402.55	9.876
402.90	9.807
403.26	9.801
403.61	9.843
403.96	9.848
404.31	9.865
404.66	9.836
405.01	9.801
405.36	9.760
405.72	9.716
406.07	9.731
406.42	9.713
406.77	9.708
407.12	9.676
407.47	9.667
407.82	9.599
408.17	9.500
408.53	9.475
408.88	9.480
409.23	9.475
409.58	9.444
409.93	9.396
410.28	9.342
410.63	9.351
410.98	9.310
411.33	9.248
411.68	9.237
412.03	9.266
412.38	9.267
412.73	9.232
413.09	9.184
413.44	9.167
413.79	9.166
414.14	9.201
414.49	9.169
414.84	9.175
415.19	9.183
415.54	9.160
415.89	9.137
416.24	9.125
416.59	9.091
416.94	9.082
417.29	9.072
417.64	9.050
417.99	9.013
418.34	9.010
418.69	8.958
419.04	8.943
419.39	8.940
419.74	8.938
420.09	8.932
420.44	8.941
420.79	8.957
421.14	8.947
421.49	8.930
421.84	8.922
422.19	8.877
422.54	8.899
422.89	8.885
423.24	8.859
423.59	8.836
423.94	8.833
424.29	8.825
424.64	8.799
424.99	8.785
425.34	8.804
425.68	8.825
426.03	8.866
426.38	8.868
426.73	8.911
427.08	8.940
427.43	8.944
427.78	8.934
428.13	8.951
428.48	8.952
428.83	8.946
429.18	8.963
429.53	8.940
429.87	8.922
430.22	8.908
430.57	8.887
430.92	8.887
431.27	8.882
431.62	8.893
431.97	8.880
432.32	8.864
432.67	8.866
433.01	8.830
433.36	8.821
433.71	8.861
434.06	8.855
434.41	8.850
434.76	8.838
435.11	8.819
435.45	8.777
435.80	8.788
436.15	8.787
436.50	8.786
436.85	8.793
437.20	8.802
437.54	8.745
437.89	8.757
438.24	8.734
438.59	8.720
438.94	8.714
439.29	8.731
439.63	8.696
439.98	8.698
440.33	8.676
440.68	8.672
441.03	8.627
441.37	8.635
441.72	8.609
442.07	8.610
442.42	8.604
442.76	8.609
443.11	8.602
443.46	8.611
443.81	8.597
444.16	8.614
444.50	8.611
444.85	8.642
445.20	8.632
445.55	8.633
445.89	8.620
446.24	8.631
446.59	8.640
446.94	8.616
447.28	8.602
447.63	8.589
447.98	8.580
448.32	8.555
448.67	8.506
449.02	8.495
449.37	8.504
449.71	8.501
450.06	8.477
450.41	8.479
450.75	8.481
451.10	8.461
451.45	8.449
451.79	8.413
452.14	8.392
452.49	8.400
452.84	8.383
453.18	8.346
453.53	8.339
453.88	8.351
454.22	8.325
454.57	8.341
454.92	8.315
455.26	8.316
455.61	8.316
455.95	8.324
456.30	8.306
456.65	8.298
456.99	8.315
457.34	8.311
457.69	8.285
458.03	8.267
458.38	8.257
458.73	8.253
459.07	8.268
459.42	8.269
459.76	8.266
460.11	8.282
460.46	8.311
460.80	8.294
461.15	8.279
461.49	8.266
461.84	8.269
462.19	8.246
462.53	8.287
462.88	8.248
463.22	8.221
463.57	8.187
463.91	8.170
464.26	8.180
464.61	8.149
464.95	8.141
465.30	8.155
465.64	8.147
465.99	8.140
466.33	8.111
466.68	8.113
467.02	8.131
467.37	8.144
467.71	8.113
468.06	8.070
468.41	8.082
468.75	8.059
469.10	8.046
469.44	8.055
469.79	8.055
470.13	8.042
470.48	8.036
470.82	8.008
471.17	8.004
471.51	8.005
471.86	8.007
472.20	7.980
472.55	7.975
472.89	7.975
473.23	7.971
473.58	7.953
473.92	7.954
474.27	7.911
474.61	7.915
474.96	7.904
475.30	7.916
475.65	7.905
475.99	7.909
476.34	7.911
476.68	7.878
477.02	7.865
477.37	7.851
477.71	7.835
478.06	7.866
478.40	7.850
478.75	7.855
479.09	7.872
479.43	7.897
479.78	7.916
480.12	7.934
480.47	7.949
480.81	7.962
481.15	7.993
481.50	8.009
481.84	8.026
482.19	8.044
482.53	8.061
482.87	8.060
483.22	8.056
483.56	8.053
483.90	8.037
484.25	8.021
484.59	7.997
484.94	7.964
485.28	7.948
485.62	7.913
485.97	7.890
486.31	7.861
486.65	7.842
487.00	7.829
487.34	7.815
487.68	7.806
488.03	7.804
488.37	7.795
488.71	7.786
489.06	7.766
489.40	7.754
489.74	7.726
490.09	7.702
490.43	7.682
490.77	7.656
491.11	7.630
491.46	7.616
491.80	7.607
492.14	7.586
492.49	7.562
492.83	7.538
493.17	7.511
493.51	7.494
493.86	7.472
494.20	7.447
494.54	7.430
494.88	7.401
495.23	7.383
495.57	7.348
495.91	7.356
496.25	7.358
496.60	7.356
496.94	7.364
497.28	7.385
497.62	7.383
497.97	7.399
498.31	7.395
498.65	7.429
498.99	7.431
499.33	7.441
499.68	7.422
500.02	7.422
500.36	7.398
500.70	7.377
501.04	7.354
501.39	7.359
501.73	7.321
502.07	7.295
502.41	7.283
502.75	7.284
503.09	7.286
503.44	7.274
503.78	7.279
504.12	7.279
504.46	7.282
504.80	7.277
505.14	7.259
505.49	7.251
505.83	7.260
506.17	7.235
506.51	7.222
506.85	7.208
507.19	7.215
507.53	7.207
507.87	7.210
508.22	7.191
508.56	7.176
508.90	7.144
509.24	7.131
509.58	7.115
509.92	7.103
510.26	7.096
510.60	7.107
510.94	7.101
511.28	7.080
511.63	7.057
511.97	7.049
512.31	7.052
512.65	7.068
512.99	7.073
513.33	7.069
513.67	7.043
514.01	7.051
514.35	7.028
514.69	7.026
515.03	7.017
515.37	7.029
515.71	7.040
516.05	7.027
516.39	7.025
516.73	7.029
517.07	7.028
517.41	7.051
517.75	7.043
518.09	7.037
518.43	7.018
518.77	7.021
519.11	7.005
519.45	6.978
519.79	6.966
520.13	6.950
520.47	6.929
520.81	6.920
521.15	6.903
521.49	6.901
521.83	6.909
522.17	6.887
522.51	6.871
522.85	6.867
523.19	6.884
523.53	6.908
523.87	6.950
524.21	6.983
524.55	7.002
524.89	7.012
525.23	7.012
525.57	7.022
525.91	7.053
526.25	7.077
526.58	7.079
526.92	7.076
527.26	7.068
527.60	7.043
527.94	7.026
528.28	7.004
528.62	6.994
528.96	6.985
529.30	6.966
529.64	6.939
529.97	6.914
530.31	6.901
530.65	6.885
530.99	6.871
531.33	6.861
531.67	6.847
532.01	6.858
532.35	6.850
532.68	6.818
533.02	6.792
533.36	6.778
533.70	6.758
534.04	6.746
534.38	6.728
534.71	6.723
535.05	6.710
535.39	6.704
535.73	6.666
536.07	6.650
536.41	6.668
536.74	6.670
537.08	6.679
537.42	6.666
537.76	6.666
538.10	6.683
538.43	6.672
538.77	6.694
539.11	6.683
539.45	6.673
539.79	6.679
540.12	6.701
540.46	6.712
540.80	6.690
541.14	6.696
541.47	6.692
541.81	6.682
542.15	6.676
542.49	6.651
542.82	6.652
543.16	6.651
543.50	6.612
543.84	6.568
544.17	6.552
544.51	6.553
544.85	6.537
545.18	6.531
545.52	6.520
545.86	6.497
546.20	6.488
546.53	6.464
546.87	6.482
547.21	6.526
547.54	6.521
547.88	6.502
548.22	6.511
548.55	6.503
548.89	6.488
549.23	6.494
549.56	6.500
549.90	6.487
550.24	6.511
550.57	6.495
550.91	6.470
551.25	6.458
551.58	6.436
551.92	6.415
552.26	6.413
552.59	6.409
552.93	6.379
553.27	6.390
553.60	6.395
553.94	6.398
554.27	6.398
554.61	6.369
554.95	6.375
555.28	6.383
555.62	6.390
555.95	6.399
556.29	6.392
556.63	6.403
556.96	6.396
557.30	6.389
557.63	6.340
557.97	6.294
558.31	6.309
558.64	6.290
558.98	6.305
559.31	6.285
559.65	6.286
559.98	6.289
560.32	6.275
560.65	6.265
560.99	6.271
561.33	6.296
561.66	6.325
562.00	6.319
562.33	6.311
562.67	6.312
563.00	6.347
563.34	6.374
563.67	6.373
564.01	6.388
564.34	6.374
564.68	6.364
565.01	6.358
565.35	6.348
565.68	6.357
566.02	6.363
566.35	6.345
566.69	6.309
567.02	6.268
567.36	6.275
567.69	6.270
568.03	6.312
568.36	6.308
568.69	6.324
569.03	6.348
569.36	6.323
569.70	6.330
570.03	6.327
570.37	6.345
570.70	6.346
571.04	6.340
571.37	6.344
571.70	6.324
572.04	6.350
572.37	6.322
572.71	6.300
573.04	6.319
573.37	6.314
573.71	6.336
574.04	6.348
574.38	6.335
574.71	6.333
575.04	6.320
575.38	6.283
575.71	6.239
576.05	6.233
576.38	6.236
576.71	6.227
577.05	6.252
577.38	6.241
577.71	6.233
578.05	6.258
578.38	6.247
578.71	6.275
579.05	6.264
579.38	6.306
579.71	6.311
580.05	6.291
580.38	6.293
580.71	6.238
581.05	6.203
581.38	6.186
581.71	6.175
582.05	6.167
582.38	6.108
582.71	6.161
583.04	6.104
583.38	6.086
583.71	6.126
584.04	6.153
584.38	6.168
584.71	6.195
585.04	6.196
585.37	6.185
585.71	6.186
586.04	6.220
586.37	6.213
586.70	6.239
587.04	6.239
587.37	6.234
587.70	6.220
588.03	6.216
588.37	6.199
588.70	6.208
589.03	6.213
589.36	6.232
589.69	6.234
590.03	6.215
590.36	6.236
590.69	6.238
591.02	6.213
591.35	6.185
591.69	6.196
592.02	6.235
592.35	6.241
592.68	6.261
593.01	6.229
593.35	6.216
593.68	6.231
594.01	6.234
594.34	6.245
594.67	6.232
595.00	6.258
595.34	6.255
595.67	6.214
596.00	6.190
596.33	6.163
596.66	6.202
596.99	6.208
597.32	6.195
597.65	6.159
597.99	6.168
598.32	6.180
598.65	6.150
598.98	6.170
599.31	6.208
599.64	6.176
599.97	6.185
600.30	6.154
600.63	6.134
600.96	6.115
601.30	6.123
601.63	6.130
601.96	6.138
602.29	6.145
602.62	6.137
602.95	6.104
603.28	6.151
603.61	6.136
603.94	6.135
604.27	6.160
604.60	6.204
604.93	6.205
605.26	6.217
605.59	6.213
605.92	6.212
606.25	6.183
606.58	6.212
606.91	6.205
607.24	6.224
607.57	6.248
607.90	6.233
608.23	6.229
608.56	6.272
608.89	6.255
609.22	6.245
609.55	6.249
609.88	6.256
610.21	6.220
610.54	6.184
610.87	6.183
611.20	6.164
611.53	6.171
611.86	6.154
612.19	6.094
612.52	6.049
612.85	6.068
613.18	6.060
613.51	6.099
613.84	6.133
614.17	6.174
614.49	6.136
614.82	6.097
615.15	6.084
615.48	6.092
615.81	6.107
616.14	6.121
616.47	6.121
616.80	6.151
617.13	6.149
617.46	6.135
617.78	6.136
618.11	6.177
618.44	6.226
618.77	6.224
619.10	6.175
619.43	6.160
619.76	6.151
620.09	6.126
620.41	6.116
620.74	6.035
621.07	6.053
621.40	5.994
621.73	6.029
622.06	5.999
622.38	6.003
622.71	6.036
623.04	6.044
623.37	6.055
623.70	6.062
624.02	6.059
624.35	6.146
624.68	6.167
625.01	6.182
625.34	6.117
625.66	6.126
625.99	6.149
626.32	6.150
626.65	6.191
626.98	6.216
627.30	6.214
627.63	6.219
627.96	6.172
628.29	6.138
628.61	6.164
628.94	6.192
629.27	6.236
629.60	6.201
629.92	6.198
630.25	6.140
630.58	6.121
630.91	6.154
631.23	6.116
631.56	6.138
631.89	6.130
632.21	6.139
632.54	6.133
632.87	6.040
633.19	6.018
633.52	6.000
633.85	6.024
634.18	6.017
634.50	6.009
634.83	6.008
635.16	5.972
635.48	5.924
635.81	5.897
636.14	5.919
636.46	5.945
636.79	5.939
637.11	5.946
637.44	5.909
637.77	5.922
638.09	5.862
638.42	5.881
638.75	5.873
639.07	5.951
639.40	6.011
639.73	5.982
640.05	6.003
640.38	6.100
640.70	6.119
641.03	6.122
641.36	6.124
641.68	6.149
642.01	6.179
642.33	6.174
642.66	6.101
642.98	6.056
643.31	6.035
643.64	6.068
643.96	5.989
644.29	5.971
644.61	6.007
644.94	5.969
645.26	5.945
645.59	5.924
645.91	5.961
646.24	6.011
646.56	6.036
646.89	6.073
647.22	6.079
647.54	6.141
647.87	6.173
648.19	6.165
648.52	6.200
648.84	6.199
649.17	6.155
649.49	6.130
649.82	6.091
650.14	6.014
650.47	5.938
650.79	5.918
651.11	5.812
651.44	5.762
651.76	5.714
652.09	5.684
652.41	5.741
652.74	5.741
653.06	5.733
653.39	5.753
653.71	5.853
654.04	5.952
654.36	5.908
654.68	5.996
655.01	5.975
655.33	5.986
655.66	6.071
655.98	6.029
656.30	6.067
656.63	6.088
656.95	6.153
657.28	6.060
657.60	5.989
657.92	6.013
658.25	6.003
658.57	6.015
658.90	6.008
659.22	5.990
659.54	5.973
659.87	6.019
660.19	6.061
660.51	6.015
660.84	6.044
661.16	6.095
661.48	6.044
661.81	5.977
662.13	5.897
662.45	5.878
662.78	5.864
663.10	5.912
663.42	5.870
663.75	5.813
664.07	5.805
664.39	5.789
664.72	5.814
665.04	5.884
665.36	5.923
665.69	6.016
666.01	6.039
666.33	5.943
666.65	5.920
666.98	5.908
667.30	5.886
667.62	5.874
667.94	5.878
668.27	5.846
668.59	5.832
668.91	5.746
669.23	5.702
669.56	5.706
669.88	5.745
670.20	5.743
670.52	5.719
670.85	5.724
671.17	5.729
671.49	5.788
671.81	5.779
672.13	5.753
672.46	5.864
672.78	5.902
673.10	5.945
673.42	5.970
673.74	5.968
674.07	5.989
674.39	5.976
674.71	5.929
675.03	5.895
675.35	5.862
675.67	5.924
676.00	5.877
676.32	5.911
676.64	5.898
676.96	5.836
677.28	5.882
677.60	5.905
677.92	5.892
678.25	5.913
678.57	5.896
678.89	5.909
679.21	5.869
679.53	5.894
679.85	5.856
680.17	5.787
680.49	5.867
680.81	5.776
681.13	5.777
681.46	5.794
681.78	5.834
682.10	5.885
682.42	5.848
682.74	5.838
683.06	5.822
683.38	5.855
683.70	5.870
684.02	5.816
684.34	5.892
684.66	5.876
684.98	5.956
685.30	5.996
685.62	6.000
685.94	6.075
686.26	6.089
686.58	6.084
686.90	6.041
687.22	6.074
687.54	6.029
687.86	5.979
688.18	5.962
688.50	5.915
688.82	5.880
689.14	5.877
689.46	5.848
689.78	5.808
690.10	5.828
690.42	5.929
690.74	5.981
691.06	6.037
691.38	6.001
691.70	5.967
692.02	6.008
692.34	5.992
692.66	5.924
692.98	5.890
693.30	5.933
693.62	5.902
693.94	5.827
694.26	5.758
694.57	5.731
694.89	5.837
695.21	5.882
695.53	5.836
695.85	5.823
696.17	5.880
696.49	5.949
696.81	5.978
697.13	6.055
697.44	6.072
697.76	6.109
698.08	6.198
698.40	6.192
698.72	6.229
699.04	6.190
699.36	6.107
699.67	6.012
699.99	5.966
700.31	5.902
700.63	5.871
700.95	5.830
701.27	5.858
701.58	5.728
701.90	5.651
702.22	5.683
702.54	5.730
702.86	5.863
703.17	5.922
703.49	6.031
703.81	6.010
704.13	5.904
704.45	5.976
704.76	6.019
705.08	6.077
705.40	6.160
705.72	6.081
706.03	6.202
706.35	6.230
706.67	6.236
706.99	6.141
707.30	6.165
707.62	6.203
707.94	6.053
708.26	5.916
708.57	5.893
708.89	5.798
709.21	5.811
709.53	5.723
709.84	5.680
710.16	5.616
710.48	5.610
710.79	5.591
711.11	5.608
711.43	5.719
711.74	5.697
712.06	5.607
712.38	5.690
712.69	5.661
713.01	5.634
713.33	5.589
713.64	5.664
713.96	5.620
714.28	5.738
714.59	5.705
714.91	5.806
715.23	5.902
715.54	5.945
715.86	5.968
716.17	6.119
716.49	6.284
716.81	6.388
717.12	6.308
717.44	6.492
717.76	6.283
718.07	6.371
718.39	6.333
718.70	6.296
719.02	6.472
719.33	6.249
719.65	6.145
719.97	6.051
720.28	6.034
720.60	6.165
720.91	6.136
721.23	6.372
721.54	6.388
721.86	6.226
722.17	6.120
722.49	6.020
722.81	6.265
723.12	6.328
723.44	6.354
723.75	6.398
724.07	6.385
724.38	6.281
724.70	6.119
725.01	5.944
725.33	5.936
725.64	6.070
725.96	6.117
726.27	6.040
726.59	6.005
726.90	5.894
727.22	5.788
727.53	5.736
727.84	5.715
728.16	5.715
728.47	5.928
728.79	6.113
729.10	6.184
729.42	6.189
729.73	6.207
730.05	6.065
730.36	6.096
730.67	6.176
730.99	6.191
731.30	6.204
731.62	6.283
731.93	6.179
732.24	6.172
732.56	6.053
732.87	6.088
733.19	6.111
733.50	6.056
733.81	6.087
734.13	5.967
734.44	5.938
734.76	6.091
735.07	5.969
735.38	5.819
735.70	5.756
736.01	5.892
736.32	5.937
736.64	5.908
736.95	6.205
737.26	6.211
737.58	6.229
737.89	6.121
738.20	5.823
738.52	5.730
738.83	5.942
739.14	5.797
739.45	5.659
739.77	5.562
740.08	5.493
740.39	5.258
740.71	5.148
741.02	5.162
741.33	5.447
741.64	5.536
741.96	5.710
742.27	5.653
742.58	5.775
742.90	5.826
743.21	5.767
743.52	5.841
743.83	5.936
744.14	5.982
744.46	5.942
744.77	5.841
745.08	6.179
745.39	6.127
745.71	6.043
746.02	6.044
746.33	5.980
746.64	5.924
746.95	5.900
747.27	5.978
747.58	5.999
747.89	6.000
748.20	5.862
748.51	5.573
748.82	5.503
749.14	5.377
749.45	5.342
749.76	5.488
750.07	5.490
750.38	5.382
750.69	5.302
751.01	5.191
751.32	5.156
751.63	5.225
751.94	5.089
752.25	5.256
752.56	5.419
752.87	5.287
753.18	5.104
753.49	5.034
753.81	5.088
754.12	4.875
754.43	4.730
754.74	4.719
755.05	4.645
755.36	4.658
755.67	4.475
755.98	4.721
756.29	5.029
756.60	5.093
756.91	5.236
757.22	5.156
757.53	5.315
757.84	5.495
758.15	5.809
758.46	5.771
758.77	5.767
759.09	6.117
759.40	5.871
759.71	5.645
760.02	5.559
760.33	5.534
760.64	5.692
760.95	5.746
761.26	5.808
761.57	5.648
761.88	5.714
762.18	5.778
762.49	5.699
762.80	5.695
763.11	5.821
763.42	5.928
763.73	5.913
764.04	5.886
764.35	5.777
764.66	5.592
764.97	5.474
765.28	5.499
765.59	5.534
765.90	5.238
766.21	5.476
766.52	5.194
766.83	5.023
767.14	4.967
767.44	4.854
767.75	4.696
768.06	4.745
768.37	4.823
768.68	4.717
768.99	4.657
769.30	4.926
769.61	4.750
769.91	4.841
770.22	4.710
770.53	4.557
770.84	4.513
771.15	4.743
771.46	4.930
771.77	4.991
772.07	4.966
772.38	4.612
772.69	4.359
773.00	4.180
773.31	4.115
773.61	4.092
773.92	4.543
774.23	4.657
774.54	4.719
774.85	4.535
775.15	4.335
775.46	4.636
775.77	4.808
776.08	5.088
776.39	5.183
776.69	5.582
777.00	5.578
777.31	5.188
777.62	5.058
777.92	4.805
778.23	4.973
778.54	5.194
778.85	4.904
779.15	4.866
779.46	4.897
779.77	4.547
780.07	4.110
780.38	4.474
780.69	4.533
781.00	4.713
781.30	4.711
781.61	4.965
781.92	4.718
782.22	4.845
782.53	5.152
782.84	5.076
783.14	5.348
783.45	5.845
783.76	5.489
784.06	5.129
784.37	5.326
784.68	5.489
784.98	5.153
785.29	5.246
785.60	5.352
785.90	5.498
786.21	5.694
786.51	5.521
786.82	5.134
787.13	5.308
787.43	5.339
787.74	5.073
788.04	5.073
788.35	5.083
788.66	4.736
788.96	4.458
789.27	3.948
789.57	3.794
789.88	3.818
790.19	4.114
790.49	4.014
790.80	4.380
791.10	4.093
791.41	3.852
791.71	3.923
792.02	4.602
792.32	4.760
792.63	5.052
792.93	5.254
793.24	5.647
793.54	5.495
793.85	5.456
794.15	5.752
794.46	6.227
794.76	6.649
795.07	6.672
795.37	6.933
795.68	6.857
795.98	6.580
796.29	6.137
796.59	5.698
796.90	5.554
797.20	5.956
797.51	5.590
797.81	5.166
798.12	4.856
798.42	4.634
798.72	3.895
799.03	4.289
799.33	4.721
799.64	4.812
799.94	5.089
800.25	4.866
800.55	5.108
800.85	5.332
801.16	5.358
801.46	5.568
801.77	5.717
802.07	6.018
802.37	5.797
802.68	5.990
802.98	6.068
803.28	5.975
803.59	6.237
803.89	5.972
804.20	6.238
804.50	6.546
804.80	6.417
805.11	6.154
805.41	6.494
805.71	6.046
806.02	5.983
806.32	5.811
806.62	6.318
806.93	6.359
807.23	6.076
807.53	5.872
807.83	6.232
808.14	6.158
808.44	6.371
808.74	6.184
809.05	7.082
809.35	6.985
809.65	7.339
809.95	7.054
810.26	6.925
810.56	6.773
810.86	6.636
811.16	6.677
811.47	6.737
811.77	6.839
812.07	6.204
812.37	5.539
812.68	5.447
812.98	5.103
813.28	4.561
813.58	4.501
813.88	4.711
814.19	5.287
814.49	5.082
814.79	4.705
815.09	4.877
815.39	5.778
815.70	5.746
816.00	5.713
816.30	5.665
816.60	5.892
816.90	6.331
817.20	6.346
817.50	6.202
817.81	6.066
818.11	6.290
818.41	6.328
818.71	6.248
819.01	6.424
819.31	6.498
819.61	6.690
819.92	6.733
820.22	6.705
820.52	6.742
820.82	6.725
821.12	6.751
821.42	6.841
821.72	6.864
822.02	6.866
822.32	6.842
822.62	6.866
822.92	6.875
823.22	6.892
823.52	6.808
823.83	6.783
824.13	6.723
824.43	6.719
824.73	6.668
825.03	6.561
825.33	6.600
825.63	6.577
825.93	6.556
826.23	6.501
826.53	6.549
826.83	6.705
827.13	6.709
827.43	6.753
827.73	6.839
828.03	6.780
828.33	6.797
828.63	6.713
828.93	6.509
829.23	6.297
829.53	6.111
829.83	5.973
830.13	5.833
830.42	5.581
830.72	5.658
831.02	5.705
831.32	5.967
831.62	6.199
831.92	6.265
832.22	6.719
832.52	6.678
832.82	6.661
833.12	6.420
833.42	6.230
833.72	6.337
834.01	6.249
834.31	6.018
834.61	5.581
834.91	5.575
835.21	5.253
835.51	5.334
835.81	5.079
836.11	5.331
836.40	5.613
836.70	6.305
837.00	6.557
837.30	6.526
837.60	6.978
837.90	7.911
838.19	7.612
838.49	7.952
838.79	7.159
839.09	8.148
839.39	8.250
839.68	8.252
839.98	8.181
840.28	7.421
840.58	6.849
840.88	6.742
841.17	6.418
841.47	6.682
841.77	6.848
842.07	7.922
842.36	7.082
842.66	6.403
842.96	6.660
843.26	5.957
843.55	7.654
843.85	8.540
844.15	7.834
844.45	7.427
844.74	7.844
845.04	8.677
845.34	6.680
845.63	6.834
845.93	7.479
846.23	7.180
846.53	8.498
846.82	7.972
847.12	8.925
847.42	9.691
847.71	9.722
848.01	8.873
848.31	8.440
848.60	10.899
848.90	10.436
849.19	9.272
849.49	8.560
849.79	8.522
850.08	8.624
850.38	8.082
850.68	6.708
850.97	6.887
851.27	6.558
851.56	4.469
851.86	3.393
852.16	4.874
852.45	4.022
852.75	6.505
853.04	4.514
853.34	3.253
853.64	2.656
853.93	5.941
854.23	5.739
854.52	7.406
854.82	9.290
855.11	8.391
855.41	7.196
855.70	7.992
856.00	5.982
856.30	6.973
856.59	7.890
856.89	7.603
857.18	5.382
857.48	4.957
857.77	2.336
858.07	0.991
858.36	0.522
858.66	1.970
858.95	3.522
859.25	1.924
859.54	0.781
859.84	-0.219
860.13	-0.437
860.42	0.316
860.72	1.460
861.01	3.327
861.31	2.649
861.60	3.711
861.90	3.746
862.19	2.131
862.49	5.460
862.78	4.631
863.07	5.529
863.37	6.827
863.66	5.718
863.96	4.916
864.25	3.292
864.54	3.988
864.84	3.112
865.13	2.361
865.43	2.853
865.72	-9.324
866.01	-2.208
866.31	-1.682
866.60	4.216
866.89	10.275
>>>>>End Spectral Data<<<<<
