OOIBase32 Version 2.0.0.6 Data File
++++++++++++++++++++++++++++++++++++
Date: 01-20-2012, 23:20:28
User: Valued Ocean Optics Customer
Spectrometer Serial Number: USB2E2917
Spectrometer Channel: Master
Integration Time (msec): 3
Spectra Averaged: 10
Boxcar Smoothing: 5
Correct for Electrical Dark: Enabled
Time Normalized: Disabled
Dual-beam Reference: Disabled
Reference Channel: Master
Temperature: Not acquired
Spectrometer Type: S2000
ADC Type: USB2000
Number of Pixels in File: 2048
Graph Title: 
>>>>>Begin Spectral Data<<<<<
180.30	0.000
180.67	0.000
181.03	122.956
181.40	-231.827
181.77	639.468
182.14	-2020.233
182.51	179.816
182.88	72.481
183.25	-126.282
183.62	275.501
183.99	121.506
184.36	72.787
184.73	-8.726
185.10	110.132
185.46	125.621
185.83	-14.219
186.20	399.289
186.57	102.034
186.94	337.460
187.31	345.615
187.68	-77.897
188.05	-2.770
188.42	-90.651
188.78	7.675
189.15	41.495
189.52	68.848
189.89	70.015
190.26	56.477
190.63	57.287
191.00	47.368
191.37	27.588
191.73	30.464
192.10	45.067
192.47	45.336
192.84	31.511
193.21	41.254
193.58	29.689
193.94	47.205
194.31	34.224
194.68	26.606
195.05	31.703
195.42	40.121
195.79	39.947
196.15	47.491
196.52	68.010
196.89	69.340
197.26	56.591
197.63	58.064
198.00	16.854
198.36	97.526
198.73	-311.945
199.10	519.685
199.47	-170.016
199.84	157.069
200.20	53.447
200.57	9.589
200.94	-210.026
201.31	-99.214
201.68	15.674
202.04	55.973
202.41	53.142
202.78	48.811
203.15	62.310
203.51	42.782
203.88	26.805
204.25	49.016
204.62	62.806
204.98	59.010
205.35	66.942
205.72	69.151
206.09	73.554
206.46	63.556
206.82	62.704
207.19	51.053
207.56	68.929
207.92	59.781
208.29	39.726
208.66	41.233
209.03	36.569
209.39	39.216
209.76	30.672
210.13	20.477
210.50	19.906
210.86	27.548
211.23	33.427
211.60	18.213
211.96	17.421
212.33	15.883
212.70	18.769
213.07	11.987
213.43	19.399
213.80	20.267
214.17	21.120
214.53	29.399
214.90	27.729
215.27	23.327
215.63	39.799
216.00	42.813
216.37	44.118
216.74	38.489
217.10	42.404
217.47	33.338
217.84	32.623
218.20	28.932
218.57	20.317
218.94	18.118
219.30	16.705
219.67	6.749
220.04	4.524
220.40	10.613
220.77	-1.349
221.13	1.054
221.50	2.582
221.87	-1.754
222.23	-5.278
222.60	-8.607
222.97	-5.729
223.33	5.863
223.70	11.800
224.07	11.942
224.43	13.305
224.80	17.205
225.16	15.661
225.53	14.369
225.90	15.113
226.26	16.221
226.63	17.444
226.99	16.128
227.36	14.049
227.73	12.533
228.09	10.600
228.46	8.295
228.82	7.111
229.19	7.489
229.56	8.713
229.92	9.500
230.29	8.646
230.65	8.184
231.02	8.433
231.38	6.845
231.75	5.249
232.12	7.080
232.48	7.447
232.85	6.793
233.21	4.788
233.58	4.754
233.94	4.594
234.31	4.236
234.68	3.227
235.04	3.392
235.41	5.148
235.77	6.414
236.14	6.853
236.50	6.706
236.87	8.399
237.23	8.978
237.60	7.477
237.96	6.113
238.33	6.172
238.69	5.491
239.06	4.890
239.42	5.306
239.79	4.617
240.15	4.084
240.52	4.398
240.88	3.982
241.25	4.363
241.61	4.531
241.98	4.761
242.34	4.824
242.71	5.204
243.07	5.509
243.44	5.157
243.80	5.525
244.17	5.819
244.53	5.950
244.90	6.199
245.26	6.306
245.63	6.149
245.99	6.094
246.36	5.940
246.72	5.958
247.09	5.659
247.45	5.955
247.81	6.063
248.18	6.087
248.54	5.930
248.91	5.810
249.27	5.294
249.64	5.159
250.00	5.072
250.36	5.038
250.73	4.939
251.09	5.660
251.46	5.033
251.82	4.636
252.19	4.436
252.55	4.347
252.91	3.527
253.28	4.056
253.64	4.756
254.01	4.588
254.37	4.927
254.73	4.714
255.10	4.463
255.46	4.569
255.83	4.574
256.19	4.585
256.55	4.617
256.92	4.922
257.28	4.590
257.65	4.365
258.01	4.425
258.37	4.447
258.74	4.591
259.10	4.626
259.46	4.592
259.83	4.719
260.19	4.728
260.55	4.927
260.92	4.965
261.28	5.026
261.64	5.165
262.01	5.232
262.37	5.153
262.73	5.315
263.10	5.139
263.46	4.937
263.82	5.021
264.19	5.029
264.55	4.670
264.91	4.897
265.28	4.787
265.64	4.782
266.00	5.196
266.37	5.115
266.73	4.858
267.09	4.709
267.46	4.852
267.82	4.831
268.18	4.901
268.54	5.128
268.91	5.401
269.27	5.453
269.63	5.308
270.00	4.678
270.36	4.838
270.72	4.828
271.08	5.219
271.45	5.094
271.81	5.050
272.17	5.136
272.53	5.041
272.90	4.670
273.26	4.499
273.62	4.590
273.98	4.763
274.35	4.907
274.71	5.260
275.07	4.866
275.43	4.966
275.80	4.796
276.16	4.218
276.52	3.998
276.88	3.699
277.25	4.007
277.61	3.966
277.97	4.235
278.33	3.998
278.69	3.605
279.06	3.480
279.42	3.873
279.78	3.953
280.14	4.212
280.50	4.114
280.87	4.310
281.23	4.391
281.59	4.338
281.95	4.074
282.31	3.892
282.68	4.019
283.04	4.191
283.40	4.137
283.76	4.196
284.12	4.070
284.48	4.405
284.85	4.551
285.21	4.622
285.57	4.428
285.93	4.604
286.29	4.623
286.65	4.482
287.02	4.558
287.38	4.369
287.74	4.380
288.10	4.458
288.46	4.540
288.82	4.445
289.18	4.288
289.54	4.604
289.91	4.335
290.27	4.461
290.63	4.542
290.99	4.464
291.35	4.471
291.71	4.447
292.07	4.657
292.43	4.510
292.79	4.407
293.16	4.291
293.52	4.348
293.88	4.478
294.24	4.552
294.60	4.535
294.96	4.786
295.32	4.911
295.68	5.085
296.04	4.973
296.40	4.783
296.76	4.714
297.12	4.798
297.49	4.724
297.85	4.687
298.21	4.728
298.57	4.840
298.93	4.573
299.29	4.447
299.65	4.448
300.01	4.557
300.37	4.612
300.73	4.771
301.09	4.855
301.45	4.691
301.81	4.894
302.17	5.007
302.53	5.096
302.89	5.301
303.25	5.568
303.61	5.552
303.97	5.575
304.33	5.529
304.69	5.549
305.05	5.553
305.41	5.784
305.77	5.888
306.13	5.593
306.49	5.521
306.85	5.278
307.21	5.093
307.57	4.859
307.93	4.732
308.29	4.851
308.65	4.909
309.01	4.978
309.37	5.044
309.73	4.904
310.09	5.117
310.45	5.068
310.81	5.162
311.17	5.182
311.53	5.374
311.89	5.318
312.25	5.297
312.61	5.210
312.96	5.176
313.32	5.093
313.68	5.362
314.04	5.415
314.40	5.453
314.76	5.371
315.12	5.370
315.48	5.363
315.84	5.535
316.20	5.622
316.56	5.685
316.92	5.907
317.27	5.994
317.63	5.806
317.99	5.828
318.35	5.863
318.71	6.124
319.07	6.259
319.43	6.253
319.79	6.305
320.15	6.255
320.50	6.271
320.86	6.275
321.22	6.345
321.58	6.459
321.94	6.407
322.30	6.508
322.66	6.494
323.01	6.562
323.37	6.560
323.73	6.643
324.09	6.768
324.45	6.935
324.81	6.941
325.17	6.931
325.52	6.948
325.88	7.034
326.24	7.048
326.60	7.025
326.96	7.164
327.31	7.343
327.67	7.405
328.03	7.600
328.39	7.553
328.75	7.538
329.11	7.844
329.46	7.914
329.82	7.847
330.18	7.956
330.54	8.182
330.90	8.030
331.25	8.047
331.61	8.149
331.97	8.155
332.33	8.222
332.68	8.306
333.04	8.127
333.40	8.209
333.76	8.423
334.11	8.480
334.47	8.414
334.83	8.579
335.19	8.559
335.54	8.527
335.90	8.440
336.26	8.442
336.62	8.549
336.97	8.710
337.33	8.732
337.69	8.751
338.05	8.715
338.40	8.716
338.76	8.635
339.12	8.830
339.48	8.775
339.83	8.748
340.19	8.766
340.55	8.631
340.90	8.609
341.26	8.569
341.62	8.466
341.97	8.467
342.33	8.430
342.69	8.416
343.04	8.357
343.40	8.428
343.76	8.530
344.12	8.489
344.47	8.500
344.83	8.437
345.19	8.538
345.54	8.463
345.90	8.497
346.26	8.573
346.61	8.595
346.97	8.477
347.32	8.410
347.68	8.459
348.04	8.608
348.39	8.611
348.75	8.635
349.11	8.639
349.46	8.832
349.82	8.884
350.18	8.881
350.53	8.772
350.89	8.867
351.24	8.945
351.60	8.897
351.96	8.833
352.31	8.932
352.67	8.965
353.02	8.893
353.38	8.912
353.74	8.817
354.09	8.946
354.45	9.150
354.80	9.179
355.16	9.258
355.52	9.279
355.87	9.315
356.23	9.312
356.58	9.316
356.94	9.300
357.29	9.305
357.65	9.328
358.00	9.238
358.36	9.193
358.72	9.300
359.07	9.263
359.43	9.230
359.78	9.289
360.14	9.287
360.49	9.319
360.85	9.358
361.20	9.342
361.56	9.445
361.91	9.460
362.27	9.478
362.62	9.395
362.98	9.444
363.33	9.531
363.69	9.516
364.04	9.559
364.40	9.547
364.75	9.567
365.11	9.524
365.46	9.444
365.82	9.468
366.17	9.499
366.53	9.536
366.88	9.522
367.24	9.477
367.59	9.462
367.95	9.482
368.30	9.546
368.66	9.586
369.01	9.583
369.37	9.671
369.72	9.738
370.08	9.753
370.43	9.765
370.78	9.797
371.14	9.788
371.49	9.813
371.85	9.838
372.20	9.796
372.56	9.732
372.91	9.831
373.26	9.834
373.62	9.788
373.97	9.790
374.33	9.747
374.68	9.740
375.03	9.777
375.39	9.732
375.74	9.723
376.10	9.787
376.45	9.879
376.80	9.874
377.16	9.864
377.51	9.852
377.87	9.848
378.22	9.939
378.57	10.007
378.93	10.035
379.28	10.196
379.63	10.278
379.99	10.335
380.34	10.365
380.70	10.431
381.05	10.418
381.40	10.498
381.76	10.579
382.11	10.582
382.46	10.613
382.82	10.674
383.17	10.642
383.52	10.613
383.88	10.539
384.23	10.607
384.58	10.639
384.94	10.777
385.29	10.814
385.64	10.857
385.99	10.847
386.35	10.838
386.70	10.872
387.05	10.875
387.41	10.928
387.76	11.014
388.11	10.997
388.47	10.969
388.82	10.989
389.17	11.031
389.52	11.053
389.88	11.088
390.23	11.161
390.58	11.200
390.93	11.209
391.29	11.180
391.64	11.170
391.99	11.170
392.34	11.162
392.70	11.141
393.05	11.075
393.40	11.077
393.75	11.088
394.11	11.066
394.46	11.079
394.81	11.102
395.16	11.139
395.52	11.137
395.87	11.132
396.22	11.183
396.57	11.181
396.92	11.210
397.28	11.169
397.63	11.198
397.98	11.158
398.33	11.096
398.68	11.104
399.04	11.143
399.39	11.148
399.74	11.110
400.09	11.123
400.44	11.157
400.80	11.131
401.15	11.151
401.50	11.171
401.85	11.186
402.20	11.216
402.55	11.210
402.90	11.161
403.26	11.161
403.61	11.187
403.96	11.167
404.31	11.132
404.66	11.193
405.01	11.260
405.36	11.247
405.72	11.239
406.07	11.216
406.42	11.236
406.77	11.251
407.12	11.253
407.47	11.269
407.82	11.280
408.17	11.304
408.53	11.281
408.88	11.219
409.23	11.245
409.58	11.255
409.93	11.281
410.28	11.287
410.63	11.268
410.98	11.260
411.33	11.242
411.68	11.187
412.03	11.155
412.38	11.105
412.73	11.074
413.09	10.993
413.44	10.965
413.79	10.911
414.14	10.851
414.49	10.826
414.84	10.831
415.19	10.789
415.54	10.769
415.89	10.708
416.24	10.651
416.59	10.582
416.94	10.539
417.29	10.505
417.64	10.442
417.99	10.397
418.34	10.359
418.69	10.273
419.04	10.238
419.39	10.200
419.74	10.177
420.09	10.158
420.44	10.143
420.79	10.125
421.14	10.073
421.49	10.073
421.84	10.054
422.19	10.009
422.54	10.018
422.89	9.997
423.24	9.980
423.59	9.958
423.94	9.957
424.29	9.953
424.64	9.941
424.99	9.940
425.34	9.940
425.68	9.946
426.03	9.981
426.38	9.966
426.73	9.988
427.08	10.006
427.43	9.971
427.78	9.960
428.13	9.971
428.48	9.974
428.83	9.993
429.18	9.970
429.53	9.939
429.87	9.912
430.22	9.926
430.57	9.926
430.92	9.895
431.27	9.931
431.62	9.930
431.97	9.942
432.32	9.953
432.67	9.944
433.01	9.954
433.36	9.980
433.71	9.995
434.06	10.009
434.41	10.025
434.76	10.039
435.11	10.030
435.45	10.049
435.80	10.053
436.15	10.054
436.50	10.067
436.85	10.044
437.20	10.062
437.54	10.060
437.89	10.044
438.24	10.027
438.59	10.016
438.94	10.008
439.29	9.979
439.63	9.938
439.98	9.898
440.33	9.856
440.68	9.827
441.03	9.752
441.37	9.703
441.72	9.647
442.07	9.604
442.42	9.568
442.76	9.545
443.11	9.505
443.46	9.484
443.81	9.459
444.16	9.449
444.50	9.459
444.85	9.455
445.20	9.436
445.55	9.414
445.89	9.395
446.24	9.383
446.59	9.356
446.94	9.357
447.28	9.311
447.63	9.284
447.98	9.274
448.32	9.221
448.67	9.158
449.02	9.120
449.37	9.120
449.71	9.093
450.06	9.075
450.41	9.068
450.75	9.055
451.10	9.070
451.45	9.075
451.79	9.050
452.14	9.065
452.49	9.112
452.84	9.103
453.18	9.084
453.53	9.108
453.88	9.154
454.22	9.162
454.57	9.139
454.92	9.159
455.26	9.152
455.61	9.180
455.95	9.166
456.30	9.171
456.65	9.220
456.99	9.243
457.34	9.263
457.69	9.259
458.03	9.279
458.38	9.307
458.73	9.328
459.07	9.391
459.42	9.425
459.76	9.485
460.11	9.525
460.46	9.567
460.80	9.594
461.15	9.618
461.49	9.662
461.84	9.698
462.19	9.755
462.53	9.779
462.88	9.789
463.22	9.787
463.57	9.821
463.91	9.859
464.26	9.908
464.61	9.957
464.95	9.982
465.30	10.042
465.64	10.084
465.99	10.142
466.33	10.196
466.68	10.243
467.02	10.304
467.37	10.347
467.71	10.352
468.06	10.360
468.41	10.419
468.75	10.475
469.10	10.485
469.44	10.512
469.79	10.524
470.13	10.536
470.48	10.545
470.82	10.561
471.17	10.560
471.51	10.592
471.86	10.597
472.20	10.594
472.55	10.603
472.89	10.603
473.23	10.597
473.58	10.586
473.92	10.606
474.27	10.596
474.61	10.573
474.96	10.559
475.30	10.541
475.65	10.544
475.99	10.521
476.34	10.516
476.68	10.493
477.02	10.499
477.37	10.468
477.71	10.436
478.06	10.428
478.40	10.400
478.75	10.420
479.09	10.432
479.43	10.444
479.78	10.469
480.12	10.490
480.47	10.518
480.81	10.532
481.15	10.571
481.50	10.593
481.84	10.611
482.19	10.656
482.53	10.675
482.87	10.702
483.22	10.725
483.56	10.736
483.90	10.734
484.25	10.735
484.59	10.741
484.94	10.751
485.28	10.760
485.62	10.780
485.97	10.784
486.31	10.798
486.65	10.815
487.00	10.851
487.34	10.888
487.68	10.946
488.03	11.013
488.37	11.061
488.71	11.106
489.06	11.163
489.40	11.217
489.74	11.277
490.09	11.337
490.43	11.407
490.77	11.468
491.11	11.549
491.46	11.640
491.80	11.707
492.14	11.819
492.49	11.925
492.83	12.057
493.17	12.218
493.51	12.375
493.86	12.559
494.20	12.756
494.54	12.909
494.88	13.068
495.23	13.214
495.57	13.381
495.91	13.581
496.25	13.771
496.60	13.943
496.94	14.122
497.28	14.361
497.62	14.566
497.97	14.804
498.31	15.054
498.65	15.321
498.99	15.600
499.33	15.904
499.68	16.162
500.02	16.439
500.36	16.725
500.70	17.023
501.04	17.289
501.39	17.601
501.73	17.903
502.07	18.247
502.41	18.609
502.75	18.971
503.09	19.350
503.44	19.709
503.78	20.115
504.12	20.514
504.46	20.898
504.80	21.301
505.14	21.713
505.49	22.080
505.83	22.446
506.17	22.816
506.51	23.180
506.85	23.533
507.19	23.902
507.53	24.294
507.87	24.706
508.22	25.123
508.56	25.530
508.90	25.907
509.24	26.298
509.58	26.736
509.92	27.158
510.26	27.623
510.60	28.066
510.94	28.519
511.28	28.925
511.63	29.358
511.97	29.759
512.31	30.237
512.65	30.686
512.99	31.166
513.33	31.623
513.67	32.063
514.01	32.488
514.35	32.927
514.69	33.337
515.03	33.751
515.37	34.115
515.71	34.498
516.05	34.779
516.39	35.106
516.73	35.423
517.07	35.719
517.41	36.027
517.75	36.322
518.09	36.609
518.43	36.942
518.77	37.253
519.11	37.549
519.45	37.845
519.79	38.223
520.13	38.561
520.47	38.908
520.81	39.256
521.15	39.618
521.49	39.976
521.83	40.281
522.17	40.546
522.51	40.881
522.85	41.241
523.19	41.638
523.53	41.961
523.87	42.400
524.21	42.768
524.55	43.142
524.89	43.461
525.23	43.725
525.57	43.983
525.91	44.259
526.25	44.473
526.58	44.665
526.92	44.801
527.26	44.952
527.60	45.032
527.94	45.162
528.28	45.233
528.62	45.306
528.96	45.383
529.30	45.490
529.64	45.565
529.97	45.640
530.31	45.720
530.65	45.839
530.99	45.971
531.33	46.121
531.67	46.200
532.01	46.321
532.35	46.435
532.68	46.542
533.02	46.638
533.36	46.711
533.70	46.769
534.04	46.868
534.38	46.943
534.71	47.000
535.05	47.045
535.39	47.127
535.73	47.204
536.07	47.302
536.41	47.425
536.74	47.544
537.08	47.662
537.42	47.798
537.76	47.875
538.10	48.011
538.43	48.116
538.77	48.253
539.11	48.377
539.45	48.452
539.79	48.534
540.12	48.587
540.46	48.612
540.80	48.614
541.14	48.640
541.47	48.720
541.81	48.719
542.15	48.726
542.49	48.735
542.82	48.746
543.16	48.788
543.50	48.812
543.84	48.876
544.17	48.934
544.51	49.006
544.85	49.053
545.18	49.024
545.52	49.080
545.86	49.168
546.20	49.181
546.53	49.215
546.87	49.272
547.21	49.278
547.54	49.260
547.88	49.288
548.22	49.334
548.55	49.365
548.89	49.459
549.23	49.498
549.56	49.562
549.90	49.573
550.24	49.573
550.57	49.575
550.91	49.590
551.25	49.618
551.58	49.610
551.92	49.603
552.26	49.653
552.59	49.646
552.93	49.644
553.27	49.665
553.60	49.720
553.94	49.783
554.27	49.772
554.61	49.834
554.95	49.856
555.28	49.912
555.62	49.958
555.95	49.973
556.29	49.968
556.63	49.998
556.96	49.882
557.30	49.923
557.63	49.905
557.97	49.955
558.31	49.901
558.64	49.923
558.98	49.939
559.31	49.913
559.65	49.937
559.98	49.916
560.32	49.918
560.65	49.954
560.99	49.925
561.33	49.848
561.66	49.799
562.00	49.801
562.33	49.788
562.67	49.727
563.00	49.744
563.34	49.719
563.67	49.692
564.01	49.675
564.34	49.663
564.68	49.679
565.01	49.678
565.35	49.619
565.68	49.625
566.02	49.596
566.35	49.559
566.69	49.531
567.02	49.476
567.36	49.496
567.69	49.433
568.03	49.417
568.36	49.345
568.69	49.307
569.03	49.323
569.36	49.216
569.70	49.155
570.03	49.171
570.37	49.124
570.70	49.112
571.04	49.045
571.37	49.036
571.70	49.040
572.04	49.023
572.37	48.961
572.71	48.940
573.04	48.978
573.37	48.978
573.71	48.919
574.04	48.911
574.38	48.901
574.71	48.889
575.04	48.909
575.38	48.876
575.71	48.841
576.05	48.925
576.38	48.855
576.71	48.786
577.05	48.724
577.38	48.740
577.71	48.688
578.05	48.598
578.38	48.551
578.71	48.461
579.05	48.349
579.38	48.254
579.71	48.178
580.05	48.164
580.38	48.145
580.71	48.123
581.05	47.974
581.38	47.914
581.71	47.848
582.05	47.832
582.38	47.727
582.71	47.701
583.04	47.681
583.38	47.611
583.71	47.533
584.04	47.509
584.38	47.438
584.71	47.408
585.04	47.351
585.37	47.285
585.71	47.181
586.04	47.165
586.37	47.110
586.70	47.048
587.04	46.945
587.37	46.910
587.70	46.766
588.03	46.721
588.37	46.654
588.70	46.574
589.03	46.473
589.36	46.437
589.69	46.333
590.03	46.214
590.36	46.085
590.69	46.017
591.02	45.877
591.35	45.835
591.69	45.704
592.02	45.591
592.35	45.444
592.68	45.390
593.01	45.228
593.35	45.169
593.68	45.081
594.01	44.997
594.34	44.928
594.67	44.818
595.00	44.680
595.34	44.590
595.67	44.524
596.00	44.489
596.33	44.419
596.66	44.398
596.99	44.332
597.32	44.280
597.65	44.226
597.99	44.089
598.32	44.075
598.65	43.999
598.98	43.862
599.31	43.714
599.64	43.578
599.97	43.431
600.30	43.255
600.63	43.081
600.96	42.949
601.30	42.862
601.63	42.775
601.96	42.636
602.29	42.577
602.62	42.526
602.95	42.474
603.28	42.383
603.61	42.313
603.94	42.265
604.27	42.232
604.60	42.186
604.93	42.063
605.26	41.991
605.59	41.924
605.92	41.813
606.25	41.701
606.58	41.597
606.91	41.521
607.24	41.407
607.57	41.354
607.90	41.274
608.23	41.157
608.56	41.148
608.89	41.045
609.22	40.950
609.55	40.870
609.88	40.825
610.21	40.791
610.54	40.749
610.87	40.741
611.20	40.682
611.53	40.543
611.86	40.505
612.19	40.412
612.52	40.331
612.85	40.294
613.18	40.271
613.51	40.164
613.84	40.018
614.17	39.956
614.49	39.848
614.82	39.692
615.15	39.674
615.48	39.662
615.81	39.563
616.14	39.575
616.47	39.517
616.80	39.331
617.13	39.267
617.46	39.203
617.78	39.100
618.11	39.030
618.44	38.973
618.77	38.879
619.10	38.718
619.43	38.737
619.76	38.588
620.09	38.468
620.41	38.465
620.74	38.333
621.07	38.323
621.40	38.196
621.73	38.139
622.06	38.045
622.38	37.940
622.71	37.855
623.04	37.655
623.37	37.556
623.70	37.488
624.02	37.420
624.35	37.399
624.68	37.335
625.01	37.277
625.34	37.140
625.66	37.074
625.99	36.978
626.32	36.952
626.65	36.893
626.98	36.881
627.30	36.810
627.63	36.750
627.96	36.679
628.29	36.506
628.61	36.403
628.94	36.352
629.27	36.289
629.60	36.264
629.92	36.087
630.25	36.018
630.58	35.886
630.91	35.824
631.23	35.682
631.56	35.635
631.89	35.571
632.21	35.550
632.54	35.491
632.87	35.378
633.19	35.264
633.52	35.193
633.85	35.070
634.18	35.054
634.50	35.024
634.83	34.978
635.16	34.894
635.48	34.892
635.81	34.780
636.14	34.745
636.46	34.759
636.79	34.733
637.11	34.736
637.44	34.770
637.77	34.713
638.09	34.582
638.42	34.557
638.75	34.458
639.07	34.387
639.40	34.382
639.73	34.325
640.05	34.264
640.38	34.263
640.70	34.235
641.03	34.121
641.36	33.990
641.68	33.907
642.01	33.794
642.33	33.761
642.66	33.699
642.98	33.660
643.31	33.539
643.64	33.465
643.96	33.361
644.29	33.294
644.61	33.256
644.94	33.208
645.26	33.221
645.59	33.266
645.91	33.262
646.24	33.216
646.56	33.183
646.89	33.173
647.22	33.093
647.54	33.038
647.87	32.908
648.19	32.879
648.52	32.829
648.84	32.737
649.17	32.598
649.49	32.519
649.82	32.473
650.14	32.348
650.47	32.294
650.79	32.302
651.11	32.236
651.44	32.241
651.76	32.225
652.09	32.168
652.41	32.125
652.74	32.077
653.06	31.925
653.39	31.794
653.71	31.723
654.04	31.634
654.36	31.450
654.68	31.378
655.01	31.287
655.33	31.135
655.66	31.136
655.98	31.031
656.30	30.994
656.63	30.976
656.95	30.973
657.28	30.907
657.60	30.872
657.92	30.850
658.25	30.816
658.57	30.841
658.90	30.879
659.22	30.770
659.54	30.761
659.87	30.786
660.19	30.781
660.51	30.785
660.84	30.756
661.16	30.736
661.48	30.775
661.81	30.722
662.13	30.612
662.45	30.539
662.78	30.553
663.10	30.544
663.42	30.447
663.75	30.405
664.07	30.314
664.39	30.287
664.72	30.261
665.04	30.128
665.36	30.157
665.69	30.092
666.01	30.084
666.33	30.002
666.65	29.986
666.98	29.891
667.30	29.814
667.62	29.758
667.94	29.740
668.27	29.711
668.59	29.679
668.91	29.527
669.23	29.513
669.56	29.428
669.88	29.436
670.20	29.328
670.52	29.315
670.85	29.285
671.17	29.232
671.49	29.194
671.81	29.078
672.13	29.055
672.46	29.016
672.78	28.996
673.10	29.032
673.42	28.970
673.74	28.950
674.07	28.991
674.39	29.070
674.71	29.036
675.03	29.001
675.35	28.972
675.67	28.926
676.00	28.894
676.32	28.876
676.64	28.767
676.96	28.759
677.28	28.757
677.60	28.670
677.92	28.596
678.25	28.583
678.57	28.496
678.89	28.405
679.21	28.370
679.53	28.390
679.85	28.352
680.17	28.338
680.49	28.253
680.81	28.156
681.13	28.203
681.46	28.193
681.78	28.224
682.10	28.241
682.42	28.338
682.74	28.259
683.06	28.283
683.38	28.275
683.70	28.283
684.02	28.297
684.34	28.317
684.66	28.186
684.98	28.111
685.30	28.091
685.62	28.112
685.94	28.088
686.26	28.123
686.58	28.079
686.90	28.048
687.22	27.977
687.54	27.867
687.86	27.780
688.18	27.639
688.50	27.606
688.82	27.477
689.14	27.419
689.46	27.257
689.78	27.291
690.10	27.152
690.42	27.103
690.74	27.106
691.06	27.218
691.38	27.326
691.70	27.365
692.02	27.342
692.34	27.376
692.66	27.328
692.98	27.431
693.30	27.377
693.62	27.304
693.94	27.232
694.26	27.038
694.57	26.925
694.89	26.827
695.21	26.777
695.53	26.660
695.85	26.629
696.17	26.605
696.49	26.528
696.81	26.417
697.13	26.468
697.44	26.468
697.76	26.417
698.08	26.467
698.40	26.488
698.72	26.562
699.04	26.581
699.36	26.486
699.67	26.350
699.99	26.392
700.31	26.331
700.63	26.260
700.95	26.229
701.27	26.337
701.58	26.151
701.90	26.103
702.22	26.148
702.54	26.225
702.86	26.238
703.17	26.363
703.49	26.365
703.81	26.403
704.13	26.429
704.45	26.292
704.76	26.206
705.08	26.349
705.40	26.233
705.72	26.175
706.03	26.128
706.35	26.220
706.67	26.135
706.99	25.924
707.30	26.061
707.62	26.018
707.94	26.006
708.26	26.054
708.57	26.000
708.89	25.948
709.21	25.837
709.53	25.775
709.84	25.635
710.16	25.541
710.48	25.613
710.79	25.435
711.11	25.414
711.43	25.610
711.74	25.505
712.06	25.374
712.38	25.359
712.69	25.303
713.01	25.262
713.33	25.236
713.64	25.323
713.96	25.180
714.28	25.210
714.59	25.098
714.91	25.002
715.23	25.014
715.54	25.031
715.86	25.101
716.17	25.325
716.49	25.517
716.81	25.531
717.12	25.467
717.44	25.610
717.76	25.546
718.07	25.596
718.39	25.597
718.70	25.602
719.02	25.634
719.33	25.542
719.65	25.253
719.97	24.891
720.28	24.939
720.60	24.983
720.91	24.966
721.23	25.058
721.54	25.187
721.86	25.121
722.17	25.066
722.49	25.092
722.81	25.181
723.12	25.318
723.44	25.455
723.75	25.647
724.07	25.905
724.38	25.850
724.70	25.787
725.01	25.649
725.33	25.522
725.64	25.730
725.96	25.775
726.27	25.630
726.59	25.634
726.90	25.625
727.22	25.200
727.53	24.912
727.84	24.907
728.16	24.796
728.47	24.914
728.79	24.975
729.10	24.789
729.42	24.654
729.73	24.757
730.05	24.655
730.36	24.520
730.67	24.634
730.99	24.574
731.30	24.561
731.62	24.666
731.93	24.593
732.24	24.433
732.56	24.407
732.87	24.365
733.19	24.350
733.50	24.214
733.81	24.258
734.13	24.251
734.44	24.291
734.76	24.240
735.07	24.088
735.38	24.076
735.70	24.216
736.01	24.253
736.32	24.378
736.64	24.356
736.95	24.581
737.26	24.561
737.58	24.377
737.89	24.329
738.20	24.335
738.52	24.404
738.83	24.412
739.14	24.376
739.45	24.270
739.77	24.178
740.08	24.026
740.39	23.703
740.71	23.694
741.02	23.848
741.33	24.005
741.64	23.857
741.96	23.875
742.27	23.863
742.58	23.738
742.90	23.568
743.21	23.190
743.52	23.353
743.83	23.603
744.14	23.726
744.46	23.874
744.77	23.651
745.08	23.893
745.39	23.970
745.71	23.828
746.02	23.944
746.33	24.104
746.64	24.298
746.95	24.107
747.27	23.929
747.58	23.703
747.89	23.446
748.20	23.403
748.51	23.234
748.82	22.978
749.14	23.058
749.45	22.876
749.76	22.866
750.07	22.998
750.38	23.052
750.69	23.234
751.01	23.417
751.32	23.591
751.63	23.678
751.94	23.652
752.25	23.605
752.56	23.579
752.87	23.590
753.18	23.570
753.49	23.652
753.81	23.462
754.12	23.263
754.43	22.962
754.74	22.853
755.05	22.728
755.36	22.843
755.67	22.730
755.98	22.678
756.29	22.834
756.60	22.793
756.91	22.579
757.22	22.675
757.53	22.750
757.84	22.880
758.15	23.089
758.46	23.231
758.77	23.012
759.09	23.447
759.40	23.468
759.71	23.474
760.02	23.398
760.33	23.488
760.64	23.522
760.95	23.507
761.26	23.456
761.57	23.171
761.88	23.130
762.18	23.285
762.49	23.041
762.80	22.962
763.11	22.860
763.42	22.890
763.73	22.819
764.04	22.830
764.35	22.794
764.66	22.759
764.97	22.965
765.28	23.105
765.59	22.993
765.90	23.108
766.21	23.339
766.52	23.406
766.83	23.281
767.14	23.338
767.44	23.269
767.75	23.076
768.06	23.081
768.37	22.841
768.68	22.466
768.99	22.481
769.30	22.506
769.61	22.321
769.91	22.191
770.22	22.260
770.53	22.192
770.84	22.385
771.15	22.611
771.46	22.524
771.77	22.697
772.07	22.792
772.38	22.685
772.69	22.471
773.00	22.267
773.31	22.440
773.61	22.463
773.92	22.464
774.23	22.318
774.54	22.429
774.85	22.459
775.15	22.236
775.46	22.349
775.77	22.398
776.08	22.414
776.39	22.680
776.69	22.577
777.00	22.540
777.31	22.411
777.62	22.332
777.92	22.280
778.23	22.366
778.54	22.720
778.85	22.557
779.15	22.369
779.46	22.338
779.77	21.871
780.07	21.651
780.38	21.892
780.69	22.029
781.00	21.993
781.30	21.704
781.61	21.663
781.92	21.396
782.22	21.458
782.53	21.736
782.84	21.802
783.14	22.267
783.45	22.800
783.76	22.879
784.06	22.886
784.37	22.974
784.68	23.026
784.98	23.061
785.29	22.899
785.60	23.080
785.90	23.104
786.21	23.162
786.51	23.006
786.82	22.745
787.13	22.596
787.43	22.390
787.74	22.340
788.04	22.513
788.35	22.261
788.66	22.247
788.96	21.987
789.27	21.773
789.57	21.959
789.88	21.673
790.19	21.625
790.49	21.519
790.80	21.516
791.10	21.450
791.41	20.996
791.71	21.367
792.02	21.418
792.32	21.743
792.63	21.641
792.93	21.169
793.24	21.428
793.54	21.312
793.85	21.353
794.15	21.705
794.46	21.879
794.76	22.305
795.07	22.289
795.37	22.464
795.68	21.843
795.98	21.766
796.29	21.920
796.59	21.819
796.90	21.984
797.20	22.075
797.51	21.938
797.81	21.784
798.12	21.641
798.42	21.421
798.72	20.947
799.03	21.351
799.33	21.594
799.64	21.659
799.94	21.931
800.25	21.688
800.55	21.637
800.85	21.609
801.16	21.266
801.46	21.326
801.77	21.406
802.07	21.672
802.37	21.348
802.68	21.594
802.98	21.562
803.28	21.048
803.59	21.191
803.89	20.951
804.20	21.309
804.50	21.811
804.80	21.551
805.11	21.817
805.41	22.335
805.71	22.511
806.02	22.000
806.32	22.076
806.62	22.293
806.93	21.977
807.23	22.194
807.53	21.765
807.83	21.647
808.14	21.714
808.44	21.649
808.74	20.971
809.05	21.261
809.35	21.533
809.65	21.239
809.95	21.512
810.26	21.773
810.56	21.544
810.86	21.946
811.16	22.521
811.47	22.560
811.77	22.031
812.07	22.050
812.37	21.601
812.68	21.643
812.98	21.583
813.28	21.139
813.58	21.521
813.88	21.686
814.19	21.518
814.49	21.150
814.79	20.752
815.09	21.695
815.39	22.190
815.70	22.874
816.00	22.824
816.30	22.706
816.60	22.860
816.90	22.885
817.20	22.876
817.50	22.989
817.81	22.810
818.11	23.138
818.41	23.040
818.71	22.679
819.01	22.400
819.31	22.354
819.61	22.472
819.92	22.458
820.22	22.287
820.52	22.211
820.82	22.159
821.12	22.138
821.42	22.223
821.72	22.209
822.02	22.227
822.32	22.263
822.62	22.388
822.92	22.419
823.22	22.409
823.52	22.470
823.83	22.619
824.13	22.618
824.43	22.627
824.73	22.566
825.03	22.463
825.33	22.538
825.63	22.426
825.93	22.276
826.23	22.073
826.53	22.012
826.83	22.065
827.13	22.028
827.43	21.947
827.73	21.981
828.03	22.041
828.33	22.167
828.63	22.250
828.93	22.277
829.23	22.367
829.53	22.835
829.83	22.912
830.13	22.962
830.42	22.877
830.72	23.082
831.02	23.307
831.32	23.113
831.62	23.126
831.92	22.861
832.22	23.040
832.52	23.022
832.82	22.517
833.12	22.489
833.42	22.238
833.72	21.935
834.01	21.730
834.31	21.524
834.61	21.068
834.91	21.015
835.21	21.171
835.51	21.563
835.81	21.077
836.11	21.369
836.40	21.727
836.70	22.459
837.00	23.085
837.30	23.543
837.60	23.807
837.90	23.960
838.19	23.597
838.49	23.190
838.79	22.713
839.09	23.288
839.39	23.095
839.68	22.936
839.98	21.812
840.28	21.430
840.58	21.003
840.88	20.509
841.17	21.324
841.47	22.035
841.77	22.602
842.07	22.345
842.36	21.600
842.66	21.434
842.96	20.819
843.26	22.198
843.55	23.010
843.85	22.520
844.15	23.849
844.45	23.372
844.74	22.186
845.04	22.300
845.34	21.702
845.63	22.388
845.93	23.259
846.23	24.393
846.53	24.140
846.82	23.183
847.12	25.098
847.42	23.929
847.71	23.550
848.01	22.180
848.31	22.575
848.60	22.728
848.90	22.783
849.19	21.871
849.49	20.769
849.79	20.611
850.08	20.271
850.38	19.072
850.68	19.113
850.97	20.102
851.27	21.224
851.56	18.918
851.86	20.101
852.16	20.638
852.45	19.843
852.75	21.916
853.04	20.663
853.34	18.709
853.64	17.654
853.93	19.379
854.23	18.051
854.52	17.313
854.82	20.610
855.11	19.613
855.41	16.866
855.70	18.355
856.00	16.000
856.30	16.470
856.59	20.173
856.89	21.538
857.18	18.452
857.48	19.436
857.77	20.657
858.07	19.374
858.36	19.129
858.66	21.216
858.95	22.221
859.25	21.975
859.54	21.147
859.84	19.710
860.13	19.337
860.42	20.496
860.72	18.826
861.01	19.155
861.31	17.418
861.60	17.812
861.90	17.371
862.19	16.100
862.49	16.110
862.78	16.723
863.07	18.250
863.37	17.478
863.66	16.563
863.96	17.532
864.25	16.111
864.54	16.209
864.84	16.032
865.13	17.162
865.43	16.924
865.72	12.640
866.01	9.840
866.31	20.392
866.60	27.900
866.89	16.895
>>>>>End Spectral Data<<<<<
