OOIBase32 Version 2.0.0.6 Data File
++++++++++++++++++++++++++++++++++++
Date: 01-23-2012, 23:04:08
User: Valued Ocean Optics Customer
Spectrometer Serial Number: USB2E2917
Spectrometer Channel: Master
Integration Time (msec): 5
Spectra Averaged: 10
Boxcar Smoothing: 5
Correct for Electrical Dark: Enabled
Time Normalized: Disabled
Dual-beam Reference: Disabled
Reference Channel: Master
Temperature: Not acquired
Spectrometer Type: S2000
ADC Type: USB2000
Number of Pixels in File: 2048
Graph Title: 
>>>>>Begin Spectral Data<<<<<
180.30	0.000
180.67	0.000
181.03	-67.085
181.40	103.493
181.77	-8781.193
182.14	134.253
182.51	-222.965
182.88	174.566
183.25	-32.937
183.62	-69.278
183.99	260.456
184.36	9.829
184.73	-159.912
185.10	-87.775
185.46	-170.339
185.83	-149.680
186.20	1528.763
186.57	153.953
186.94	67.928
187.31	62.535
187.68	191.330
188.05	119.625
188.42	167.240
188.78	297.220
189.15	851.411
189.52	-149.403
189.89	-4.211
190.26	6.227
190.63	22.713
191.00	28.430
191.37	33.125
191.73	39.807
192.10	47.262
192.47	37.464
192.84	31.044
193.21	29.771
193.58	20.882
193.94	20.106
194.31	20.695
194.68	7.585
195.05	2.516
195.42	4.802
195.79	6.484
196.15	6.426
196.52	13.715
196.89	36.083
197.26	35.101
197.63	34.523
198.00	44.823
198.36	22.884
198.73	21.458
199.10	16.872
199.47	23.128
199.84	29.003
200.20	23.202
200.57	21.558
200.94	10.909
201.31	13.686
201.68	10.816
202.04	9.618
202.41	33.340
202.78	47.366
203.15	58.875
203.51	41.697
203.88	26.669
204.25	11.846
204.62	32.609
204.98	46.072
205.35	39.250
205.72	24.568
206.09	13.909
206.46	-12.761
206.82	-24.220
207.19	-29.048
207.56	-65.250
207.92	-43.307
208.29	-30.545
208.66	-32.465
209.03	-60.008
209.39	-38.845
209.76	-3.962
210.13	-30.359
210.50	-28.098
210.86	-26.844
211.23	-12.916
211.60	15.341
211.96	1.470
212.33	5.699
212.70	2.188
213.07	11.788
213.43	-14.053
213.80	-44.708
214.17	-12.584
214.53	-1.058
214.90	8.894
215.27	10.692
215.63	7.801
216.00	10.791
216.37	16.471
216.74	10.184
217.10	10.455
217.47	11.265
217.84	16.956
218.20	8.357
218.57	3.574
218.94	1.697
219.30	1.874
219.67	-10.031
220.04	-12.401
220.40	-23.070
220.77	-26.535
221.13	-23.295
221.50	-16.334
221.87	-13.593
222.23	-8.899
222.60	-10.521
222.97	-9.601
223.33	-12.965
223.70	-5.899
224.07	-3.968
224.43	-1.139
224.80	0.050
225.16	0.425
225.53	-2.804
225.90	-5.296
226.26	-4.908
226.63	-2.496
226.99	-1.216
227.36	-0.476
227.73	1.111
228.09	2.279
228.46	4.489
228.82	5.399
229.19	4.728
229.56	6.163
229.92	8.246
230.29	9.893
230.65	7.678
231.02	3.113
231.38	0.515
231.75	-0.647
232.12	-0.783
232.48	-2.519
232.85	-2.754
233.21	-2.381
233.58	-4.401
233.94	-5.629
234.31	-7.197
234.68	-4.659
235.04	-1.962
235.41	0.238
235.77	0.280
236.14	-0.029
236.50	0.245
236.87	0.598
237.23	1.233
237.60	1.938
237.96	1.860
238.33	1.410
238.69	1.149
239.06	1.265
239.42	1.397
239.79	0.495
240.15	0.592
240.52	0.507
240.88	0.810
241.25	0.808
241.61	1.634
241.98	1.668
242.34	1.906
242.71	2.037
243.07	2.267
243.44	2.207
243.80	2.602
244.17	2.598
244.53	2.428
244.90	2.417
245.26	2.244
245.63	1.907
245.99	1.742
246.36	1.598
246.72	1.695
247.09	1.450
247.45	1.749
247.81	2.195
248.18	2.118
248.54	2.326
248.91	2.093
249.27	2.517
249.64	2.946
250.00	3.569
250.36	3.534
250.73	3.404
251.09	3.498
251.46	3.047
251.82	2.791
252.19	2.905
252.55	2.324
252.91	2.661
253.28	2.395
253.64	1.675
254.01	1.398
254.37	1.954
254.73	2.188
255.10	2.582
255.46	3.050
255.83	3.213
256.19	3.247
256.55	3.261
256.92	3.055
257.28	2.906
257.65	2.935
258.01	2.831
258.37	2.534
258.74	2.317
259.10	1.986
259.46	1.603
259.83	1.287
260.19	1.216
260.55	1.362
260.92	1.255
261.28	1.465
261.64	1.771
262.01	1.959
262.37	2.318
262.73	2.502
263.10	3.010
263.46	3.189
263.82	3.096
264.19	2.965
264.55	2.429
264.91	2.575
265.28	2.134
265.64	1.896
266.00	1.882
266.37	1.654
266.73	1.452
267.09	1.383
267.46	1.407
267.82	1.198
268.18	1.429
268.54	1.825
268.91	1.746
269.27	1.929
269.63	2.144
270.00	1.899
270.36	1.889
270.72	2.189
271.08	2.148
271.45	2.105
271.81	2.410
272.17	2.287
272.53	2.195
272.90	2.174
273.26	2.244
273.62	1.898
273.98	1.918
274.35	1.995
274.71	1.829
275.07	1.737
275.43	1.778
275.80	1.776
276.16	1.636
276.52	1.543
276.88	1.670
277.25	1.312
277.61	1.240
277.97	1.375
278.33	1.529
278.69	1.544
279.06	1.510
279.42	1.524
279.78	1.473
280.14	1.640
280.50	1.838
280.87	1.631
281.23	1.758
281.59	1.955
281.95	1.893
282.31	1.728
282.68	1.695
283.04	1.697
283.40	1.756
283.76	1.693
284.12	1.648
284.48	1.608
284.85	1.959
285.21	2.035
285.57	1.942
285.93	2.075
286.29	2.057
286.65	2.121
287.02	2.511
287.38	2.475
287.74	2.496
288.10	2.578
288.46	2.533
288.82	2.311
289.18	2.206
289.54	2.228
289.91	2.231
290.27	2.316
290.63	2.484
290.99	2.164
291.35	2.140
291.71	2.263
292.07	2.263
292.43	2.263
292.79	2.116
293.16	2.112
293.52	2.328
293.88	2.236
294.24	2.306
294.60	2.219
294.96	2.175
295.32	2.296
295.68	2.356
296.04	2.199
296.40	2.225
296.76	2.297
297.12	2.327
297.49	2.218
297.85	2.108
298.21	2.012
298.57	1.743
298.93	1.761
299.29	1.677
299.65	1.759
300.01	1.924
300.37	2.033
300.73	2.286
301.09	2.323
301.45	2.323
301.81	2.533
302.17	2.580
302.53	2.637
302.89	2.563
303.25	2.650
303.61	2.482
303.97	2.306
304.33	2.223
304.69	1.979
305.05	1.915
305.41	1.822
305.77	1.728
306.13	1.747
306.49	1.756
306.85	1.803
307.21	1.691
307.57	1.805
307.93	1.873
308.29	2.042
308.65	2.145
309.01	2.185
309.37	2.185
309.73	2.150
310.09	2.259
310.45	2.454
310.81	2.496
311.17	2.427
311.53	2.358
311.89	2.405
312.25	2.265
312.61	2.181
312.96	2.211
313.32	2.292
313.68	2.281
314.04	2.139
314.40	2.056
314.76	1.994
315.12	2.123
315.48	2.123
315.84	2.093
316.20	2.194
316.56	2.225
316.92	2.207
317.27	2.146
317.63	2.258
317.99	2.314
318.35	2.228
318.71	2.252
319.07	2.329
319.43	2.324
319.79	2.390
320.15	2.276
320.50	2.300
320.86	2.207
321.22	2.150
321.58	1.978
321.94	1.839
322.30	1.837
322.66	1.837
323.01	1.669
323.37	1.591
323.73	1.506
324.09	1.381
324.45	1.347
324.81	1.419
325.17	1.460
325.52	1.534
325.88	1.595
326.24	1.679
326.60	1.734
326.96	1.775
327.31	1.785
327.67	1.742
328.03	1.830
328.39	1.859
328.75	1.862
329.11	1.959
329.46	2.024
329.82	2.101
330.18	2.004
330.54	1.955
330.90	1.863
331.25	1.831
331.61	1.845
331.97	1.858
332.33	1.862
332.68	1.833
333.04	1.785
333.40	1.663
333.76	1.617
334.11	1.702
334.47	1.746
334.83	1.768
335.19	1.828
335.54	1.877
335.90	1.890
336.26	1.923
336.62	1.943
336.97	1.912
337.33	1.959
337.69	1.923
338.05	1.836
338.40	1.753
338.76	1.843
339.12	1.855
339.48	1.874
339.83	1.894
340.19	1.876
340.55	1.959
340.90	1.968
341.26	1.998
341.62	2.027
341.97	2.047
342.33	2.086
342.69	2.076
343.04	2.156
343.40	2.051
343.76	2.044
344.12	2.042
344.47	2.035
344.83	2.110
345.19	2.181
345.54	2.216
345.90	2.262
346.26	2.351
346.61	2.397
346.97	2.346
347.32	2.464
347.68	2.430
348.04	2.417
348.39	2.350
348.75	2.405
349.11	2.396
349.46	2.338
349.82	2.355
350.18	2.292
350.53	2.305
350.89	2.286
351.24	2.252
351.60	2.294
351.96	2.347
352.31	2.399
352.67	2.312
353.02	2.295
353.38	2.375
353.74	2.409
354.09	2.404
354.45	2.390
354.80	2.374
355.16	2.461
355.52	2.500
355.87	2.511
356.23	2.517
356.58	2.550
356.94	2.566
357.29	2.552
357.65	2.568
358.00	2.599
358.36	2.631
358.72	2.685
359.07	2.631
359.43	2.632
359.78	2.605
360.14	2.658
360.49	2.667
360.85	2.695
361.20	2.759
361.56	2.760
361.91	2.834
362.27	2.841
362.62	2.855
362.98	2.943
363.33	2.949
363.69	3.006
364.04	3.008
364.40	3.022
364.75	2.983
365.11	2.969
365.46	2.908
365.82	2.913
366.17	2.920
366.53	2.957
366.88	2.943
367.24	2.968
367.59	2.942
367.95	2.981
368.30	2.983
368.66	3.063
369.01	3.074
369.37	3.187
369.72	3.212
370.08	3.284
370.43	3.295
370.78	3.339
371.14	3.344
371.49	3.441
371.85	3.457
372.20	3.517
372.56	3.546
372.91	3.570
373.26	3.597
373.62	3.596
373.97	3.603
374.33	3.650
374.68	3.623
375.03	3.729
375.39	3.678
375.74	3.688
376.10	3.742
376.45	3.785
376.80	3.855
377.16	3.835
377.51	3.874
377.87	3.913
378.22	3.861
378.57	3.897
378.93	3.901
379.28	3.999
379.63	4.048
379.99	4.075
380.34	4.077
380.70	4.092
381.05	4.166
381.40	4.233
381.76	4.272
382.11	4.380
382.46	4.497
382.82	4.559
383.17	4.566
383.52	4.591
383.88	4.660
384.23	4.704
384.58	4.748
384.94	4.793
385.29	4.843
385.64	4.900
385.99	4.983
386.35	5.026
386.70	5.074
387.05	5.140
387.41	5.224
387.76	5.211
388.11	5.275
388.47	5.382
388.82	5.448
389.17	5.508
389.52	5.595
389.88	5.675
390.23	5.756
390.58	5.839
390.93	5.911
391.29	6.004
391.64	6.136
391.99	6.256
392.34	6.332
392.70	6.436
393.05	6.507
393.40	6.593
393.75	6.661
394.11	6.727
394.46	6.792
394.81	6.896
395.16	6.947
395.52	6.997
395.87	7.054
396.22	7.120
396.57	7.170
396.92	7.215
397.28	7.220
397.63	7.253
397.98	7.310
398.33	7.370
398.68	7.431
399.04	7.527
399.39	7.598
399.74	7.666
400.09	7.687
400.44	7.785
400.80	7.887
401.15	7.962
401.50	8.041
401.85	8.146
402.20	8.199
402.55	8.289
402.90	8.296
403.26	8.339
403.61	8.399
403.96	8.503
404.31	8.536
404.66	8.585
405.01	8.648
405.36	8.709
405.72	8.692
406.07	8.770
406.42	8.799
406.77	8.899
407.12	8.999
407.47	9.059
407.82	9.066
408.17	9.104
408.53	9.135
408.88	9.172
409.23	9.202
409.58	9.245
409.93	9.305
410.28	9.324
410.63	9.323
410.98	9.359
411.33	9.373
411.68	9.447
412.03	9.519
412.38	9.573
412.73	9.633
413.09	9.707
413.44	9.769
413.79	9.792
414.14	9.873
414.49	9.956
414.84	10.038
415.19	10.098
415.54	10.155
415.89	10.210
416.24	10.235
416.59	10.285
416.94	10.323
417.29	10.377
417.64	10.418
417.99	10.451
418.34	10.497
418.69	10.494
419.04	10.524
419.39	10.532
419.74	10.538
420.09	10.581
420.44	10.601
420.79	10.639
421.14	10.650
421.49	10.683
421.84	10.701
422.19	10.706
422.54	10.717
422.89	10.721
423.24	10.739
423.59	10.750
423.94	10.739
424.29	10.749
424.64	10.745
424.99	10.747
425.34	10.690
425.68	10.688
426.03	10.659
426.38	10.633
426.73	10.640
427.08	10.617
427.43	10.628
427.78	10.643
428.13	10.610
428.48	10.580
428.83	10.565
429.18	10.591
429.53	10.574
429.87	10.580
430.22	10.586
430.57	10.596
430.92	10.588
431.27	10.593
431.62	10.572
431.97	10.583
432.32	10.580
432.67	10.586
433.01	10.606
433.36	10.603
433.71	10.591
434.06	10.594
434.41	10.566
434.76	10.603
435.11	10.614
435.45	10.616
435.80	10.636
436.15	10.672
436.50	10.698
436.85	10.720
437.20	10.731
437.54	10.764
437.89	10.810
438.24	10.833
438.59	10.858
438.94	10.884
439.29	10.906
439.63	10.947
439.98	10.970
440.33	11.014
440.68	11.064
441.03	11.148
441.37	11.215
441.72	11.263
442.07	11.337
442.42	11.400
442.76	11.461
443.11	11.556
443.46	11.621
443.81	11.695
444.16	11.765
444.50	11.790
444.85	11.826
445.20	11.864
445.55	11.928
445.89	11.997
446.24	12.049
446.59	12.083
446.94	12.127
447.28	12.156
447.63	12.202
447.98	12.237
448.32	12.312
448.67	12.397
449.02	12.456
449.37	12.501
449.71	12.551
450.06	12.588
450.41	12.651
450.75	12.698
451.10	12.764
451.45	12.789
451.79	12.840
452.14	12.871
452.49	12.886
452.84	12.921
453.18	12.951
453.53	12.955
453.88	12.995
454.22	13.019
454.57	13.059
454.92	13.084
455.26	13.121
455.61	13.175
455.95	13.210
456.30	13.251
456.65	13.298
456.99	13.343
457.34	13.384
457.69	13.412
458.03	13.426
458.38	13.459
458.73	13.477
459.07	13.500
459.42	13.479
459.76	13.470
460.11	13.423
460.46	13.406
460.80	13.369
461.15	13.344
461.49	13.320
461.84	13.331
462.19	13.305
462.53	13.290
462.88	13.288
463.22	13.292
463.57	13.300
463.91	13.332
464.26	13.321
464.61	13.331
464.95	13.318
465.30	13.307
465.64	13.305
465.99	13.313
466.33	13.305
466.68	13.302
467.02	13.310
467.37	13.309
467.71	13.303
468.06	13.300
468.41	13.292
468.75	13.296
469.10	13.312
469.44	13.297
469.79	13.272
470.13	13.267
470.48	13.256
470.82	13.232
471.17	13.227
471.51	13.208
471.86	13.222
472.20	13.211
472.55	13.228
472.89	13.225
473.23	13.232
473.58	13.244
473.92	13.255
474.27	13.239
474.61	13.254
474.96	13.255
475.30	13.278
475.65	13.263
475.99	13.275
476.34	13.275
476.68	13.286
477.02	13.278
477.37	13.294
477.71	13.338
478.06	13.407
478.40	13.503
478.75	13.625
479.09	13.767
479.43	13.968
479.78	14.218
480.12	14.483
480.47	14.773
480.81	15.075
481.15	15.360
481.50	15.653
481.84	15.984
482.19	16.317
482.53	16.614
482.87	16.809
483.22	16.841
483.56	16.698
483.90	16.456
484.25	16.144
484.59	15.808
484.94	15.515
485.28	15.247
485.62	14.933
485.97	14.603
486.31	14.313
486.65	14.122
487.00	14.063
487.34	14.123
487.68	14.264
488.03	14.423
488.37	14.603
488.71	14.721
489.06	14.760
489.40	14.798
489.74	14.818
490.09	14.840
490.43	14.832
490.77	14.831
491.11	14.846
491.46	14.847
491.80	14.870
492.14	14.866
492.49	14.875
492.83	14.909
493.17	14.946
493.51	14.997
493.86	15.048
494.20	15.147
494.54	15.231
494.88	15.327
495.23	15.425
495.57	15.525
495.91	15.628
496.25	15.735
496.60	15.815
496.94	15.889
497.28	15.987
497.62	16.094
497.97	16.192
498.31	16.322
498.65	16.433
498.99	16.517
499.33	16.645
499.68	16.786
500.02	16.913
500.36	17.068
500.70	17.218
501.04	17.320
501.39	17.458
501.73	17.581
502.07	17.696
502.41	17.822
502.75	17.993
503.09	18.139
503.44	18.276
503.78	18.427
504.12	18.587
504.46	18.730
504.80	18.932
505.14	19.097
505.49	19.267
505.83	19.436
506.17	19.614
506.51	19.796
506.85	19.961
507.19	20.113
507.53	20.243
507.87	20.375
508.22	20.514
508.56	20.634
508.90	20.769
509.24	20.900
509.58	21.037
509.92	21.176
510.26	21.289
510.60	21.392
510.94	21.544
511.28	21.691
511.63	21.834
511.97	22.001
512.31	22.143
512.65	22.288
512.99	22.448
513.33	22.647
513.67	22.823
514.01	23.013
514.35	23.182
514.69	23.335
515.03	23.511
515.37	23.657
515.71	23.794
516.05	23.940
516.39	24.051
516.73	24.185
517.07	24.253
517.41	24.308
517.75	24.350
518.09	24.426
518.43	24.495
518.77	24.517
519.11	24.585
519.45	24.624
519.79	24.693
520.13	24.764
520.47	24.820
520.81	24.903
521.15	25.031
521.49	25.172
521.83	25.314
522.17	25.426
522.51	25.577
522.85	25.713
523.19	25.903
523.53	26.112
523.87	26.325
524.21	26.559
524.55	26.789
524.89	26.976
525.23	27.178
525.57	27.336
525.91	27.520
526.25	27.679
526.58	27.820
526.92	27.898
527.26	27.913
527.60	27.899
527.94	27.873
528.28	27.800
528.62	27.724
528.96	27.616
529.30	27.517
529.64	27.387
529.97	27.250
530.31	27.112
530.65	27.003
530.99	26.952
531.33	26.924
531.67	26.883
532.01	26.854
532.35	26.842
532.68	26.797
533.02	26.742
533.36	26.697
533.70	26.647
534.04	26.597
534.38	26.524
534.71	26.440
535.05	26.349
535.39	26.271
535.73	26.217
536.07	26.175
536.41	26.184
536.74	26.204
537.08	26.198
537.42	26.233
537.76	26.265
538.10	26.334
538.43	26.397
538.77	26.459
539.11	26.532
539.45	26.581
539.79	26.613
540.12	26.620
540.46	26.613
540.80	26.597
541.14	26.552
541.47	26.482
541.81	26.417
542.15	26.332
542.49	26.242
542.82	26.109
543.16	26.014
543.50	25.899
543.84	25.797
544.17	25.711
544.51	25.631
544.85	25.570
545.18	25.537
545.52	25.479
545.86	25.404
546.20	25.398
546.53	25.373
546.87	25.320
547.21	25.280
547.54	25.215
547.88	25.176
548.22	25.145
548.55	25.104
548.89	25.067
549.23	25.038
549.56	25.007
549.90	24.969
550.24	24.941
550.57	24.941
550.91	24.923
551.25	24.936
551.58	24.928
551.92	24.901
552.26	24.863
552.59	24.827
552.93	24.811
553.27	24.836
553.60	24.821
553.94	24.778
554.27	24.756
554.61	24.761
554.95	24.726
555.28	24.701
555.62	24.710
555.95	24.750
556.29	24.754
556.63	24.749
556.96	24.697
557.30	24.666
557.63	24.670
557.97	24.634
558.31	24.584
558.64	24.546
558.98	24.515
559.31	24.513
559.65	24.467
559.98	24.442
560.32	24.403
560.65	24.407
560.99	24.362
561.33	24.305
561.66	24.283
562.00	24.251
562.33	24.268
562.67	24.230
563.00	24.190
563.34	24.187
563.67	24.165
564.01	24.162
564.34	24.131
564.68	24.128
565.01	24.137
565.35	24.117
565.68	24.119
566.02	24.092
566.35	24.074
566.69	24.034
567.02	24.011
567.36	23.990
567.69	23.942
568.03	23.913
568.36	23.853
568.69	23.807
569.03	23.778
569.36	23.737
569.70	23.713
570.03	23.706
570.37	23.684
570.70	23.664
571.04	23.643
571.37	23.620
571.70	23.594
572.04	23.608
572.37	23.603
572.71	23.544
573.04	23.514
573.37	23.476
573.71	23.448
574.04	23.434
574.38	23.388
574.71	23.335
575.04	23.293
575.38	23.255
575.71	23.191
576.05	23.151
576.38	23.147
576.71	23.096
577.05	23.059
577.38	23.005
577.71	22.955
578.05	22.920
578.38	22.887
578.71	22.847
579.05	22.814
579.38	22.792
579.71	22.730
580.05	22.677
580.38	22.677
580.71	22.643
581.05	22.627
581.38	22.625
581.71	22.595
582.05	22.598
582.38	22.605
582.71	22.582
583.04	22.593
583.38	22.611
583.71	22.648
584.04	22.647
584.38	22.665
584.71	22.685
585.04	22.711
585.37	22.716
585.71	22.740
586.04	22.746
586.37	22.811
586.70	22.847
587.04	22.877
587.37	22.880
587.70	22.893
588.03	22.867
588.37	22.895
588.70	22.887
589.03	22.925
589.36	22.944
589.69	22.963
590.03	22.957
590.36	22.935
590.69	22.908
591.02	22.911
591.35	22.913
591.69	22.947
592.02	22.936
592.35	22.948
592.68	22.959
593.01	22.930
593.35	22.947
593.68	22.957
594.01	22.948
594.34	22.988
594.67	22.986
595.00	22.987
595.34	22.990
595.67	22.978
596.00	22.978
596.33	22.951
596.66	22.962
596.99	22.931
597.32	22.939
597.65	22.955
597.99	22.943
598.32	22.937
598.65	22.944
598.98	22.927
599.31	22.941
599.64	22.942
599.97	22.954
600.30	22.967
600.63	22.981
600.96	22.966
601.30	22.991
601.63	23.025
601.96	23.039
602.29	23.056
602.62	23.070
602.95	23.056
603.28	23.069
603.61	23.055
603.94	23.070
604.27	23.117
604.60	23.114
604.93	23.110
605.26	23.088
605.59	23.075
605.92	23.072
606.25	23.063
606.58	23.091
606.91	23.012
607.24	23.019
607.57	22.985
607.90	22.944
608.23	22.941
608.56	22.902
608.89	22.868
609.22	22.869
609.55	22.808
609.88	22.794
610.21	22.755
610.54	22.751
610.87	22.674
611.20	22.627
611.53	22.583
611.86	22.527
612.19	22.474
612.52	22.428
612.85	22.387
613.18	22.368
613.51	22.274
613.84	22.202
614.17	22.180
614.49	22.220
614.82	22.164
615.15	22.136
615.48	22.101
615.81	22.095
616.14	22.068
616.47	22.027
616.80	21.984
617.13	22.012
617.46	21.990
617.78	21.973
618.11	21.951
618.44	21.998
618.77	21.948
619.10	21.922
619.43	21.904
619.76	21.882
620.09	21.896
620.41	21.892
620.74	21.922
621.07	21.952
621.40	21.985
621.73	21.964
622.06	21.961
622.38	21.987
622.71	22.051
623.04	22.109
623.37	22.165
623.70	22.184
624.02	22.208
624.35	22.253
624.68	22.279
625.01	22.305
625.34	22.342
625.66	22.381
625.99	22.417
626.32	22.414
626.65	22.387
626.98	22.396
627.30	22.397
627.63	22.418
627.96	22.351
628.29	22.359
628.61	22.342
628.94	22.347
629.27	22.314
629.60	22.288
629.92	22.287
630.25	22.299
630.58	22.282
630.91	22.279
631.23	22.284
631.56	22.282
631.89	22.257
632.21	22.278
632.54	22.245
632.87	22.204
633.19	22.173
633.52	22.142
633.85	22.094
634.18	22.056
634.50	21.986
634.83	21.895
635.16	21.854
635.48	21.767
635.81	21.614
636.14	21.499
636.46	21.466
636.79	21.388
637.11	21.237
637.44	21.108
637.77	21.004
638.09	20.912
638.42	20.788
638.75	20.668
639.07	20.616
639.40	20.557
639.73	20.478
640.05	20.302
640.38	20.217
640.70	20.146
641.03	20.061
641.36	19.931
641.68	19.841
642.01	19.743
642.33	19.652
642.66	19.521
642.98	19.385
643.31	19.279
643.64	19.218
643.96	19.086
644.29	19.027
644.61	18.971
644.94	18.888
645.26	18.790
645.59	18.763
645.91	18.725
646.24	18.657
646.56	18.587
646.89	18.524
647.22	18.490
647.54	18.413
647.87	18.380
648.19	18.289
648.52	18.235
648.84	18.204
649.17	18.153
649.49	18.097
649.82	18.088
650.14	18.095
650.47	18.087
650.79	18.007
651.11	18.024
651.44	17.959
651.76	17.953
652.09	17.963
652.41	17.944
652.74	17.910
653.06	17.869
653.39	17.768
653.71	17.727
654.04	17.625
654.36	17.617
654.68	17.536
655.01	17.467
655.33	17.421
655.66	17.369
655.98	17.268
656.30	17.201
656.63	17.140
656.95	17.087
657.28	17.012
657.60	16.949
657.92	16.823
658.25	16.752
658.57	16.703
658.90	16.616
659.22	16.490
659.54	16.425
659.87	16.320
660.19	16.157
660.51	16.072
660.84	15.954
661.16	15.841
661.48	15.754
661.81	15.620
662.13	15.464
662.45	15.329
662.78	15.208
663.10	15.115
663.42	15.013
663.75	14.926
664.07	14.820
664.39	14.672
664.72	14.606
665.04	14.472
665.36	14.413
665.69	14.356
666.01	14.313
666.33	14.290
666.65	14.218
666.98	14.205
667.30	14.235
667.62	14.237
667.94	14.266
668.27	14.255
668.59	14.354
668.91	14.439
669.23	14.459
669.56	14.513
669.88	14.586
670.20	14.620
670.52	14.678
670.85	14.704
671.17	14.748
671.49	14.815
671.81	14.921
672.13	14.960
672.46	14.989
672.78	15.085
673.10	15.187
673.42	15.288
673.74	15.410
674.07	15.559
674.39	15.711
674.71	15.801
675.03	15.966
675.35	16.111
675.67	16.287
676.00	16.381
676.32	16.482
676.64	16.610
676.96	16.774
677.28	16.960
677.60	17.102
677.92	17.248
678.25	17.466
678.57	17.663
678.89	17.795
679.21	17.937
679.53	18.205
679.85	18.492
680.17	18.727
680.49	18.955
680.81	19.175
681.13	19.401
681.46	19.699
681.78	19.945
682.10	20.248
682.42	20.556
682.74	20.954
683.06	21.327
683.38	21.679
683.70	22.077
684.02	22.441
684.34	22.869
684.66	23.271
684.98	23.651
685.30	24.098
685.62	24.486
685.94	24.899
686.26	25.201
686.58	25.493
686.90	25.863
687.22	26.149
687.54	26.471
687.86	26.725
688.18	27.031
688.50	27.445
688.82	27.780
689.14	28.144
689.46	28.571
689.78	28.931
690.10	29.316
690.42	29.642
690.74	30.069
691.06	30.475
691.38	30.894
691.70	31.331
692.02	31.608
692.34	31.992
692.66	32.353
692.98	32.691
693.30	33.090
693.62	33.577
693.94	33.948
694.26	34.304
694.57	34.619
694.89	35.075
695.21	35.342
695.53	35.691
695.85	35.890
696.17	36.076
696.49	36.342
696.81	36.592
697.13	36.790
697.44	36.995
697.76	37.227
698.08	37.553
698.40	37.707
698.72	37.978
699.04	38.197
699.36	38.563
699.67	38.892
699.99	39.214
700.31	39.534
700.63	39.884
700.95	40.329
701.27	40.657
701.58	40.894
701.90	41.134
702.22	41.442
702.54	41.701
702.86	41.997
703.17	42.217
703.49	42.369
703.81	42.674
704.13	42.843
704.45	43.009
704.76	43.171
705.08	43.415
705.40	43.653
705.72	43.798
706.03	44.036
706.35	44.188
706.67	44.324
706.99	44.439
707.30	44.515
707.62	44.568
707.94	44.639
708.26	44.765
708.57	44.729
708.89	44.924
709.21	45.071
709.53	45.212
709.84	45.347
710.16	45.542
710.48	45.726
710.79	45.958
711.11	46.173
711.43	46.319
711.74	46.554
712.06	46.841
712.38	47.006
712.69	47.221
713.01	47.388
713.33	47.564
713.64	47.858
713.96	48.129
714.28	48.321
714.59	48.633
714.91	48.942
715.23	49.138
715.54	49.295
715.86	49.510
716.17	49.686
716.49	49.954
716.81	50.155
717.12	50.296
717.44	50.468
717.76	50.635
718.07	50.603
718.39	50.749
718.70	50.853
719.02	51.057
719.33	51.146
719.65	51.222
719.97	51.166
720.28	51.226
720.60	51.370
720.91	51.457
721.23	51.545
721.54	51.799
721.86	51.873
722.17	52.001
722.49	52.118
722.81	52.164
723.12	52.383
723.44	52.500
723.75	52.550
724.07	52.614
724.38	52.824
724.70	52.942
725.01	53.017
725.33	53.135
725.64	53.265
725.96	53.308
726.27	53.297
726.59	53.335
726.90	53.456
727.22	53.432
727.53	53.433
727.84	53.485
728.16	53.504
728.47	53.585
728.79	53.527
729.10	53.461
729.42	53.482
729.73	53.589
730.05	53.531
730.36	53.593
730.67	53.786
730.99	53.830
731.30	53.715
731.62	53.773
731.93	53.698
732.24	53.900
732.56	53.935
732.87	54.030
733.19	54.123
733.50	54.117
733.81	54.129
734.13	54.094
734.44	54.209
734.76	54.249
735.07	54.245
735.38	54.276
735.70	54.305
736.01	54.440
736.32	54.418
736.64	54.553
736.95	54.741
737.26	54.658
737.58	54.779
737.89	54.735
738.20	54.866
738.52	54.814
738.83	54.899
739.14	54.709
739.45	54.646
739.77	54.788
740.08	54.706
740.39	54.718
740.71	54.899
741.02	54.902
741.33	54.964
741.64	54.893
741.96	55.092
742.27	55.194
742.58	55.564
742.90	55.709
743.21	55.672
743.52	55.931
743.83	55.929
744.14	55.902
744.46	55.912
744.77	56.035
745.08	56.135
745.39	56.074
745.71	56.041
746.02	55.868
746.33	55.752
746.64	55.764
746.95	55.388
747.27	55.546
747.58	55.442
747.89	55.343
748.20	55.189
748.51	55.261
748.82	55.121
749.14	55.115
749.45	55.200
749.76	55.388
750.07	55.264
750.38	55.376
750.69	55.198
751.01	55.379
751.32	55.442
751.63	55.453
751.94	55.152
752.25	55.092
752.56	55.168
752.87	55.128
753.18	54.922
753.49	55.105
753.81	55.144
754.12	55.245
754.43	55.294
754.74	55.212
755.05	55.435
755.36	55.803
755.67	56.086
755.98	56.140
756.29	56.140
756.60	56.517
756.91	56.429
757.22	56.580
757.53	56.737
757.84	56.802
758.15	57.106
758.46	57.213
758.77	57.022
759.09	57.046
759.40	57.013
759.71	56.992
760.02	56.877
760.33	56.978
760.64	56.809
760.95	56.773
761.26	56.717
761.57	56.670
761.88	56.495
762.18	56.551
762.49	56.407
762.80	56.344
763.11	56.251
763.42	56.226
763.73	56.110
764.04	56.223
764.35	56.090
764.66	55.997
764.97	55.817
765.28	55.811
765.59	55.636
765.90	55.721
766.21	55.583
766.52	55.518
766.83	55.422
767.14	55.332
767.44	55.078
767.75	54.790
768.06	54.607
768.37	54.431
768.68	54.236
768.99	54.144
769.30	53.999
769.61	53.824
769.91	53.694
770.22	53.259
770.53	53.120
770.84	53.186
771.15	53.637
771.46	53.551
771.77	53.493
772.07	53.359
772.38	53.378
772.69	53.221
773.00	53.517
773.31	53.618
773.61	53.643
773.92	53.803
774.23	53.695
774.54	53.338
774.85	53.241
775.15	53.235
775.46	53.213
775.77	53.211
776.08	53.178
776.39	52.977
776.69	52.834
777.00	52.923
777.31	52.918
777.62	53.046
777.92	52.805
778.23	53.107
778.54	53.244
778.85	53.304
779.15	53.208
779.46	53.278
779.77	53.111
780.07	53.585
780.38	53.772
780.69	53.516
781.00	53.109
781.30	53.351
781.61	52.939
781.92	53.070
782.22	53.290
782.53	53.243
782.84	53.255
783.14	53.605
783.45	53.191
783.76	53.288
784.06	53.284
784.37	53.600
784.68	53.562
784.98	53.901
785.29	53.765
785.60	53.666
785.90	53.892
786.21	53.996
786.51	53.749
786.82	54.172
787.13	54.040
787.43	54.263
787.74	54.500
788.04	54.775
788.35	54.768
788.66	54.983
788.96	55.113
789.27	55.392
789.57	55.222
789.88	55.424
790.19	55.070
790.49	55.254
790.80	55.350
791.10	55.132
791.41	54.768
791.71	54.965
792.02	54.741
792.32	54.219
792.63	54.036
792.93	54.313
793.24	54.095
793.54	54.072
793.85	53.767
794.15	53.466
794.46	53.635
794.76	53.860
795.07	53.646
795.37	53.880
795.68	54.226
795.98	54.495
796.29	54.689
796.59	54.856
796.90	55.036
797.20	54.972
797.51	55.231
797.81	55.005
798.12	55.044
798.42	55.245
798.72	55.167
799.03	55.425
799.33	54.930
799.64	54.415
799.94	54.455
800.25	54.487
800.55	54.734
800.85	55.130
801.16	55.691
801.46	55.306
801.77	55.174
802.07	55.573
802.37	55.262
802.68	55.399
802.98	55.816
803.28	55.528
803.59	55.557
803.89	55.806
804.20	55.654
804.50	55.188
804.80	55.583
805.11	55.492
805.41	54.795
805.71	54.779
806.02	54.816
806.32	54.697
806.62	54.921
806.93	54.835
807.23	55.067
807.53	54.698
807.83	54.694
808.14	54.831
808.44	55.020
808.74	55.009
809.05	55.311
809.35	54.818
809.65	55.303
809.95	55.484
810.26	55.688
810.56	55.299
810.86	55.618
811.16	56.124
811.47	56.266
811.77	56.671
812.07	56.945
812.37	56.725
812.68	57.724
812.98	57.747
813.28	57.774
813.58	58.116
813.88	57.672
814.19	58.015
814.49	57.917
814.79	57.847
815.09	57.892
815.39	58.021
815.70	58.506
816.00	58.077
816.30	57.604
816.60	57.553
816.90	57.186
817.20	57.473
817.50	56.995
817.81	56.634
818.11	56.372
818.41	56.051
818.71	55.975
819.01	56.099
819.31	56.150
819.61	56.482
819.92	56.845
820.22	57.097
820.52	57.355
820.82	57.695
821.12	58.019
821.42	58.359
821.72	58.644
822.02	59.083
822.32	59.387
822.62	59.883
822.92	60.115
823.22	60.288
823.52	60.563
823.83	60.743
824.13	60.880
824.43	60.823
824.73	60.902
825.03	60.960
825.33	60.822
825.63	60.697
825.93	60.525
826.23	60.488
826.53	60.369
826.83	60.264
827.13	60.419
827.43	60.574
827.73	61.054
828.03	61.376
828.33	61.697
828.63	61.993
828.93	62.079
829.23	62.028
829.53	61.769
829.83	61.868
830.13	61.636
830.42	60.932
830.72	60.053
831.02	59.566
831.32	59.221
831.62	59.253
831.92	58.961
832.22	58.936
832.52	58.774
832.82	58.932
833.12	58.881
833.42	58.986
833.72	59.119
834.01	59.685
834.31	60.144
834.61	60.222
834.91	60.444
835.21	60.963
835.51	61.093
835.81	61.251
836.11	61.551
836.40	61.424
836.70	61.746
837.00	62.063
837.30	61.140
837.60	60.575
837.90	60.607
838.19	59.870
838.49	59.054
838.79	59.477
839.09	59.263
839.39	58.828
839.68	59.187
839.98	58.462
840.28	58.134
840.58	59.059
840.88	59.163
841.17	58.699
841.47	59.297
841.77	59.335
842.07	58.852
842.36	59.692
842.66	59.792
842.96	59.442
843.26	59.420
843.55	59.964
843.85	59.633
844.15	59.485
844.45	59.038
844.74	59.403
845.04	59.698
845.34	58.827
845.63	57.729
845.93	57.205
846.23	58.116
846.53	57.088
846.82	56.227
847.12	55.778
847.42	54.206
847.71	54.915
848.01	54.258
848.31	53.412
848.60	53.129
848.90	52.844
849.19	53.679
849.49	53.605
849.79	54.337
850.08	54.322
850.38	53.888
850.68	55.772
850.97	55.852
851.27	56.007
851.56	56.232
851.86	57.365
852.16	58.030
852.45	56.474
852.75	55.212
853.04	56.690
853.34	57.386
853.64	58.035
853.93	56.507
854.23	54.359
854.52	54.649
854.82	56.457
855.11	56.426
855.41	57.871
855.70	60.184
856.00	60.594
856.30	60.026
856.59	60.347
856.89	59.944
857.18	60.866
857.48	62.658
857.77	61.334
858.07	60.860
858.36	60.745
858.66	58.217
858.95	56.677
859.25	56.929
859.54	57.432
859.84	56.657
860.13	55.600
860.42	56.032
860.72	56.307
861.01	56.907
861.31	57.383
861.60	57.595
861.90	59.406
862.19	59.191
862.49	58.682
862.78	58.190
863.07	59.523
863.37	60.464
863.66	59.181
863.96	61.472
864.25	61.317
864.54	60.832
864.84	60.414
865.13	59.061
865.43	60.937
865.72	63.707
866.01	67.358
866.31	53.055
866.60	50.689
866.89	69.976
>>>>>End Spectral Data<<<<<
