OOIBase32 Version 2.0.0.6 Data File
++++++++++++++++++++++++++++++++++++
Date: 01-23-2012, 23:06:04
User: Valued Ocean Optics Customer
Spectrometer Serial Number: USB2E2917
Spectrometer Channel: Master
Integration Time (msec): 5
Spectra Averaged: 10
Boxcar Smoothing: 5
Correct for Electrical Dark: Enabled
Time Normalized: Disabled
Dual-beam Reference: Disabled
Reference Channel: Master
Temperature: Not acquired
Spectrometer Type: S2000
ADC Type: USB2000
Number of Pixels in File: 2048
Graph Title: 
>>>>>Begin Spectral Data<<<<<
180.30	0.000
180.67	0.000
181.03	101.414
181.40	360.091
181.77	-3807.798
182.14	98.889
182.51	-642.003
182.88	-113.784
183.25	5.031
183.62	63.530
183.99	-106.122
184.36	147.822
184.73	328.176
185.10	71.592
185.46	-115.778
185.83	-544.089
186.20	644.237
186.57	42.065
186.94	153.483
187.31	88.182
187.68	64.868
188.05	67.443
188.42	76.867
188.78	113.183
189.15	475.971
189.52	0.070
189.89	20.138
190.26	29.188
190.63	32.113
191.00	34.502
191.37	35.443
191.73	37.527
192.10	29.529
192.47	23.017
192.84	18.665
193.21	19.374
193.58	-4.062
193.94	-10.979
194.31	-12.255
194.68	-3.354
195.05	-13.622
195.42	-18.367
195.79	-32.855
196.15	-40.976
196.52	-37.380
196.89	-54.228
197.26	-70.793
197.63	-34.207
198.00	-37.391
198.36	-36.109
198.73	-95.651
199.10	-70.922
199.47	-64.079
199.84	-56.288
200.20	-53.714
200.57	-50.618
200.94	-37.736
201.31	-28.666
201.68	-25.438
202.04	-4.690
202.41	-3.706
202.78	18.343
203.15	9.457
203.51	13.478
203.88	-0.741
204.25	5.809
204.62	-11.814
204.98	-20.076
205.35	-19.539
205.72	-32.323
206.09	-39.313
206.46	-74.260
206.82	-77.261
207.19	-55.301
207.56	-116.683
207.92	-89.954
208.29	-104.047
208.66	-45.846
209.03	-37.145
209.39	-23.081
209.76	-20.690
210.13	-74.024
210.50	-64.156
210.86	-51.201
211.23	-71.368
211.60	-45.288
211.96	-52.488
212.33	-33.693
212.70	-56.025
213.07	-64.831
213.43	-96.393
213.80	-89.963
214.17	-41.868
214.53	-15.885
214.90	-4.969
215.27	-3.156
215.63	8.153
216.00	16.249
216.37	10.500
216.74	9.445
217.10	5.460
217.47	-0.476
217.84	3.185
218.20	3.477
218.57	0.934
218.94	-3.173
219.30	-9.979
219.67	-17.746
220.04	-17.148
220.40	-17.559
220.77	-20.728
221.13	-9.132
221.50	-0.945
221.87	-0.354
222.23	-8.333
222.60	-17.067
222.97	-18.160
223.33	-8.794
223.70	-5.996
224.07	-6.875
224.43	-6.542
224.80	-1.463
225.16	-5.586
225.53	-4.830
225.90	-6.626
226.26	-1.836
226.63	0.334
226.99	2.486
227.36	3.938
227.73	6.196
228.09	5.298
228.46	6.702
228.82	7.523
229.19	9.088
229.56	8.139
229.92	10.259
230.29	9.946
230.65	9.169
231.02	5.575
231.38	2.249
231.75	-0.585
232.12	-0.606
232.48	-4.110
232.85	-5.562
233.21	-5.886
233.58	-6.339
233.94	-5.274
234.31	-4.451
234.68	-3.829
235.04	-1.986
235.41	0.654
235.77	2.911
236.14	3.895
236.50	6.890
236.87	6.800
237.23	7.169
237.60	6.129
237.96	4.614
238.33	2.424
238.69	2.275
239.06	2.611
239.42	1.926
239.79	0.590
240.15	0.275
240.52	-0.283
240.88	-0.678
241.25	-1.015
241.61	-0.055
241.98	0.190
242.34	0.543
242.71	0.902
243.07	1.056
243.44	0.971
243.80	1.009
244.17	0.814
244.53	0.598
244.90	0.806
245.26	0.575
245.63	0.342
245.99	0.464
246.36	0.480
246.72	0.656
247.09	0.334
247.45	0.680
247.81	1.177
248.18	1.694
248.54	2.177
248.91	2.107
249.27	2.646
249.64	3.064
250.00	2.904
250.36	2.911
250.73	2.690
251.09	2.775
251.46	2.659
251.82	2.321
252.19	1.825
252.55	1.350
252.91	1.458
253.28	1.076
253.64	0.165
254.01	0.181
254.37	0.399
254.73	0.460
255.10	0.784
255.46	1.123
255.83	1.123
256.19	1.195
256.55	1.116
256.92	1.206
257.28	1.299
257.65	1.614
258.01	1.670
258.37	1.644
258.74	1.441
259.10	1.136
259.46	0.857
259.83	0.846
260.19	0.776
260.55	0.948
260.92	0.863
261.28	0.673
261.64	0.637
262.01	0.525
262.37	0.463
262.73	0.870
263.10	1.343
263.46	1.358
263.82	1.297
264.19	1.465
264.55	1.119
264.91	1.078
265.28	1.044
265.64	1.035
266.00	1.252
266.37	1.536
266.73	1.517
267.09	1.324
267.46	1.415
267.82	1.302
268.18	1.293
268.54	1.524
268.91	1.449
269.27	1.665
269.63	1.715
270.00	1.359
270.36	1.202
270.72	1.070
271.08	1.085
271.45	0.942
271.81	0.953
272.17	0.796
272.53	0.713
272.90	0.822
273.26	0.860
273.62	0.790
273.98	0.921
274.35	0.757
274.71	0.665
275.07	0.475
275.43	0.520
275.80	0.725
276.16	0.727
276.52	0.744
276.88	0.783
277.25	0.623
277.61	0.292
277.97	0.161
278.33	0.563
278.69	0.638
279.06	0.878
279.42	0.964
279.78	1.026
280.14	1.128
280.50	1.209
280.87	1.169
281.23	1.288
281.59	1.354
281.95	1.356
282.31	1.104
282.68	0.870
283.04	0.839
283.40	0.890
283.76	0.710
284.12	0.778
284.48	0.861
284.85	0.917
285.21	0.971
285.57	1.098
285.93	1.165
286.29	1.074
286.65	1.360
287.02	1.670
287.38	1.575
287.74	1.679
288.10	1.648
288.46	1.515
288.82	1.468
289.18	1.237
289.54	1.330
289.91	1.522
290.27	1.740
290.63	1.658
290.99	1.520
291.35	1.624
291.71	1.646
292.07	1.632
292.43	1.652
292.79	1.705
293.16	1.810
293.52	1.879
293.88	1.917
294.24	1.890
294.60	1.847
294.96	1.727
295.32	1.771
295.68	1.854
296.04	1.819
296.40	1.853
296.76	1.890
297.12	1.806
297.49	1.616
297.85	1.324
298.21	1.234
298.57	1.150
298.93	1.194
299.29	0.989
299.65	0.963
300.01	1.058
300.37	1.020
300.73	0.945
301.09	0.996
301.45	0.990
301.81	1.317
302.17	1.380
302.53	1.360
302.89	1.293
303.25	1.552
303.61	1.522
303.97	1.441
304.33	1.498
304.69	1.565
305.05	1.557
305.41	1.499
305.77	1.342
306.13	1.363
306.49	1.402
306.85	1.466
307.21	1.323
307.57	1.218
307.93	1.158
308.29	1.285
308.65	1.274
309.01	1.279
309.37	1.354
309.73	1.339
310.09	1.412
310.45	1.630
310.81	1.554
311.17	1.497
311.53	1.455
311.89	1.567
312.25	1.418
312.61	1.365
312.96	1.365
313.32	1.468
313.68	1.505
314.04	1.395
314.40	1.235
314.76	1.207
315.12	1.226
315.48	1.395
315.84	1.314
316.20	1.264
316.56	1.218
316.92	1.234
317.27	1.040
317.63	1.052
317.99	1.039
318.35	1.012
318.71	1.040
319.07	1.076
319.43	1.075
319.79	1.173
320.15	1.277
320.50	1.354
320.86	1.401
321.22	1.448
321.58	1.411
321.94	1.361
322.30	1.330
322.66	1.416
323.01	1.346
323.37	1.246
323.73	1.140
324.09	1.094
324.45	1.045
324.81	1.020
325.17	1.071
325.52	0.973
325.88	0.990
326.24	1.106
326.60	1.004
326.96	1.023
327.31	1.034
327.67	1.002
328.03	0.960
328.39	0.975
328.75	0.960
329.11	0.976
329.46	1.043
329.82	1.084
330.18	0.954
330.54	0.922
330.90	0.962
331.25	1.000
331.61	1.101
331.97	1.146
332.33	1.202
332.68	1.214
333.04	1.178
333.40	1.095
333.76	1.005
334.11	0.951
334.47	1.002
334.83	0.971
335.19	0.914
335.54	0.879
335.90	0.779
336.26	0.762
336.62	0.703
336.97	0.669
337.33	0.786
337.69	0.858
338.05	0.915
338.40	0.937
338.76	1.025
339.12	1.029
339.48	1.047
339.83	1.062
340.19	1.018
340.55	1.030
340.90	1.003
341.26	0.896
341.62	0.830
341.97	0.841
342.33	0.826
342.69	0.812
343.04	0.866
343.40	0.838
343.76	0.811
344.12	0.798
344.47	0.864
344.83	0.970
345.19	1.084
345.54	1.150
345.90	1.183
346.26	1.266
346.61	1.269
346.97	1.314
347.32	1.335
347.68	1.372
348.04	1.393
348.39	1.310
348.75	1.307
349.11	1.285
349.46	1.313
349.82	1.310
350.18	1.232
350.53	1.256
350.89	1.143
351.24	1.086
351.60	1.120
351.96	1.145
352.31	1.194
352.67	1.168
353.02	1.130
353.38	1.079
353.74	1.060
354.09	1.081
354.45	1.062
354.80	1.118
355.16	1.188
355.52	1.211
355.87	1.140
356.23	1.182
356.58	1.173
356.94	1.169
357.29	1.177
357.65	1.197
358.00	1.224
358.36	1.194
358.72	1.201
359.07	1.222
359.43	1.255
359.78	1.324
360.14	1.327
360.49	1.353
360.85	1.435
361.20	1.469
361.56	1.460
361.91	1.481
362.27	1.525
362.62	1.573
362.98	1.548
363.33	1.508
363.69	1.508
364.04	1.514
364.40	1.498
364.75	1.500
365.11	1.494
365.46	1.487
365.82	1.480
366.17	1.477
366.53	1.490
366.88	1.485
367.24	1.513
367.59	1.524
367.95	1.528
368.30	1.528
368.66	1.524
369.01	1.569
369.37	1.591
369.72	1.630
370.08	1.705
370.43	1.706
370.78	1.711
371.14	1.725
371.49	1.749
371.85	1.739
372.20	1.761
372.56	1.738
372.91	1.684
373.26	1.733
373.62	1.689
373.97	1.729
374.33	1.716
374.68	1.791
375.03	1.815
375.39	1.823
375.74	1.861
376.10	1.902
376.45	1.980
376.80	2.084
377.16	2.101
377.51	2.139
377.87	2.108
378.22	2.127
378.57	2.128
378.93	2.163
379.28	2.199
379.63	2.195
379.99	2.236
380.34	2.215
380.70	2.163
381.05	2.194
381.40	2.209
381.76	2.242
382.11	2.259
382.46	2.315
382.82	2.339
383.17	2.348
383.52	2.382
383.88	2.376
384.23	2.389
384.58	2.429
384.94	2.400
385.29	2.458
385.64	2.448
385.99	2.493
386.35	2.484
386.70	2.515
387.05	2.505
387.41	2.507
387.76	2.508
388.11	2.522
388.47	2.532
388.82	2.569
389.17	2.544
389.52	2.572
389.88	2.605
390.23	2.607
390.58	2.600
390.93	2.635
391.29	2.670
391.64	2.707
391.99	2.758
392.34	2.798
392.70	2.804
393.05	2.800
393.40	2.791
393.75	2.751
394.11	2.758
394.46	2.735
394.81	2.748
395.16	2.735
395.52	2.715
395.87	2.706
396.22	2.681
396.57	2.672
396.92	2.665
397.28	2.649
397.63	2.647
397.98	2.669
398.33	2.670
398.68	2.648
399.04	2.653
399.39	2.640
399.74	2.640
400.09	2.632
400.44	2.647
400.80	2.674
401.15	2.678
401.50	2.684
401.85	2.673
402.20	2.679
402.55	2.705
402.90	2.680
403.26	2.711
403.61	2.682
403.96	2.675
404.31	2.659
404.66	2.639
405.01	2.623
405.36	2.626
405.72	2.628
406.07	2.628
406.42	2.612
406.77	2.634
407.12	2.603
407.47	2.639
407.82	2.659
408.17	2.684
408.53	2.718
408.88	2.734
409.23	2.746
409.58	2.698
409.93	2.713
410.28	2.730
410.63	2.712
410.98	2.716
411.33	2.709
411.68	2.738
412.03	2.759
412.38	2.733
412.73	2.740
413.09	2.780
413.44	2.836
413.79	2.841
414.14	2.851
414.49	2.903
414.84	2.934
415.19	2.945
415.54	2.975
415.89	2.988
416.24	3.038
416.59	3.070
416.94	3.078
417.29	3.095
417.64	3.105
417.99	3.128
418.34	3.138
418.69	3.176
419.04	3.185
419.39	3.193
419.74	3.197
420.09	3.208
420.44	3.216
420.79	3.216
421.14	3.220
421.49	3.242
421.84	3.242
422.19	3.264
422.54	3.252
422.89	3.249
423.24	3.237
423.59	3.237
423.94	3.209
424.29	3.204
424.64	3.207
424.99	3.206
425.34	3.190
425.68	3.191
426.03	3.162
426.38	3.164
426.73	3.200
427.08	3.201
427.43	3.208
427.78	3.246
428.13	3.250
428.48	3.250
428.83	3.260
429.18	3.266
429.53	3.263
429.87	3.260
430.22	3.249
430.57	3.255
430.92	3.251
431.27	3.263
431.62	3.246
431.97	3.256
432.32	3.241
432.67	3.228
433.01	3.229
433.36	3.216
433.71	3.216
434.06	3.203
434.41	3.182
434.76	3.190
435.11	3.190
435.45	3.208
435.80	3.209
436.15	3.244
436.50	3.274
436.85	3.301
437.20	3.318
437.54	3.326
437.89	3.355
438.24	3.363
438.59	3.363
438.94	3.359
439.29	3.341
439.63	3.339
439.98	3.336
440.33	3.310
440.68	3.326
441.03	3.352
441.37	3.368
441.72	3.371
442.07	3.383
442.42	3.421
442.76	3.443
443.11	3.479
443.46	3.504
443.81	3.518
444.16	3.551
444.50	3.540
444.85	3.531
445.20	3.530
445.55	3.523
445.89	3.529
446.24	3.510
446.59	3.491
446.94	3.479
447.28	3.463
447.63	3.444
447.98	3.440
448.32	3.429
448.67	3.437
449.02	3.437
449.37	3.430
449.71	3.437
450.06	3.437
450.41	3.452
450.75	3.451
451.10	3.471
451.45	3.471
451.79	3.450
452.14	3.443
452.49	3.439
452.84	3.426
453.18	3.443
453.53	3.433
453.88	3.432
454.22	3.433
454.57	3.446
454.92	3.463
455.26	3.494
455.61	3.539
455.95	3.584
456.30	3.604
456.65	3.635
456.99	3.658
457.34	3.691
457.69	3.721
458.03	3.728
458.38	3.744
458.73	3.725
459.07	3.710
459.42	3.682
459.76	3.660
460.11	3.631
460.46	3.604
460.80	3.578
461.15	3.545
461.49	3.507
461.84	3.501
462.19	3.474
462.53	3.491
462.88	3.506
463.22	3.518
463.57	3.536
463.91	3.539
464.26	3.565
464.61	3.580
464.95	3.571
465.30	3.581
465.64	3.580
465.99	3.591
466.33	3.580
466.68	3.584
467.02	3.586
467.37	3.563
467.71	3.569
468.06	3.559
468.41	3.544
468.75	3.548
469.10	3.549
469.44	3.551
469.79	3.534
470.13	3.510
470.48	3.477
470.82	3.471
471.17	3.480
471.51	3.472
471.86	3.454
472.20	3.455
472.55	3.462
472.89	3.460
473.23	3.442
473.58	3.452
473.92	3.466
474.27	3.475
474.61	3.466
474.96	3.470
475.30	3.470
475.65	3.468
475.99	3.473
476.34	3.474
476.68	3.469
477.02	3.490
477.37	3.495
477.71	3.526
478.06	3.575
478.40	3.661
478.75	3.755
479.09	3.871
479.43	3.985
479.78	4.106
480.12	4.219
480.47	4.339
480.81	4.451
481.15	4.557
481.50	4.663
481.84	4.780
482.19	4.887
482.53	4.976
482.87	5.032
483.22	5.038
483.56	4.983
483.90	4.904
484.25	4.807
484.59	4.698
484.94	4.605
485.28	4.514
485.62	4.404
485.97	4.283
486.31	4.189
486.65	4.112
487.00	4.087
487.34	4.094
487.68	4.122
488.03	4.159
488.37	4.195
488.71	4.220
489.06	4.216
489.40	4.205
489.74	4.205
490.09	4.190
490.43	4.174
490.77	4.147
491.11	4.128
491.46	4.104
491.80	4.074
492.14	4.034
492.49	4.014
492.83	3.994
493.17	3.972
493.51	3.950
493.86	3.920
494.20	3.902
494.54	3.896
494.88	3.905
495.23	3.932
495.57	3.951
495.91	3.997
496.25	4.006
496.60	4.027
496.94	4.036
497.28	4.058
497.62	4.073
497.97	4.088
498.31	4.122
498.65	4.137
498.99	4.138
499.33	4.170
499.68	4.175
500.02	4.206
500.36	4.230
500.70	4.287
501.04	4.302
501.39	4.324
501.73	4.370
502.07	4.402
502.41	4.438
502.75	4.487
503.09	4.518
503.44	4.575
503.78	4.601
504.12	4.642
504.46	4.698
504.80	4.761
505.14	4.840
505.49	4.895
505.83	4.948
506.17	5.011
506.51	5.050
506.85	5.105
507.19	5.158
507.53	5.216
507.87	5.276
508.22	5.303
508.56	5.351
508.90	5.369
509.24	5.405
509.58	5.441
509.92	5.477
510.26	5.539
510.60	5.578
510.94	5.621
511.28	5.671
511.63	5.708
511.97	5.773
512.31	5.833
512.65	5.900
512.99	5.982
513.33	6.100
513.67	6.206
514.01	6.298
514.35	6.406
514.69	6.505
515.03	6.602
515.37	6.712
515.71	6.810
516.05	6.893
516.39	6.978
516.73	7.052
517.07	7.081
517.41	7.133
517.75	7.167
518.09	7.202
518.43	7.233
518.77	7.251
519.11	7.276
519.45	7.284
519.79	7.326
520.13	7.344
520.47	7.393
520.81	7.469
521.15	7.543
521.49	7.634
521.83	7.718
522.17	7.800
522.51	7.907
522.85	8.017
523.19	8.171
523.53	8.306
523.87	8.488
524.21	8.657
524.55	8.807
524.89	8.938
525.23	9.070
525.57	9.176
525.91	9.294
526.25	9.391
526.58	9.485
526.92	9.547
527.26	9.591
527.60	9.608
527.94	9.619
528.28	9.617
528.62	9.608
528.96	9.590
529.30	9.588
529.64	9.563
529.97	9.547
530.31	9.509
530.65	9.482
530.99	9.480
531.33	9.509
531.67	9.510
532.01	9.514
532.35	9.531
532.68	9.547
533.02	9.538
533.36	9.539
533.70	9.536
534.04	9.538
534.38	9.551
534.71	9.551
535.05	9.516
535.39	9.519
535.73	9.532
536.07	9.550
536.41	9.573
536.74	9.615
537.08	9.659
537.42	9.727
537.76	9.788
538.10	9.846
538.43	9.917
538.77	9.989
539.11	10.046
539.45	10.095
539.79	10.121
540.12	10.149
540.46	10.167
540.80	10.174
541.14	10.150
541.47	10.130
541.81	10.111
542.15	10.080
542.49	10.044
542.82	10.015
543.16	9.973
543.50	9.943
543.84	9.912
544.17	9.884
544.51	9.869
544.85	9.874
545.18	9.870
545.52	9.862
545.86	9.830
546.20	9.810
546.53	9.778
546.87	9.762
547.21	9.740
547.54	9.724
547.88	9.723
548.22	9.709
548.55	9.695
548.89	9.684
549.23	9.680
549.56	9.701
549.90	9.723
550.24	9.739
550.57	9.732
550.91	9.739
551.25	9.751
551.58	9.757
551.92	9.761
552.26	9.739
552.59	9.757
552.93	9.740
553.27	9.726
553.60	9.719
553.94	9.688
554.27	9.703
554.61	9.721
554.95	9.695
555.28	9.685
555.62	9.664
555.95	9.690
556.29	9.672
556.63	9.677
556.96	9.680
557.30	9.671
557.63	9.665
557.97	9.653
558.31	9.623
558.64	9.615
558.98	9.619
559.31	9.653
559.65	9.629
559.98	9.625
560.32	9.628
560.65	9.619
560.99	9.616
561.33	9.618
561.66	9.619
562.00	9.636
562.33	9.621
562.67	9.607
563.00	9.564
563.34	9.578
563.67	9.568
564.01	9.543
564.34	9.546
564.68	9.528
565.01	9.514
565.35	9.492
565.68	9.459
566.02	9.452
566.35	9.424
566.69	9.415
567.02	9.390
567.36	9.365
567.69	9.380
568.03	9.353
568.36	9.341
568.69	9.332
569.03	9.313
569.36	9.321
569.70	9.307
570.03	9.331
570.37	9.312
570.70	9.296
571.04	9.294
571.37	9.258
571.70	9.226
572.04	9.216
572.37	9.190
572.71	9.182
573.04	9.142
573.37	9.114
573.71	9.067
574.04	9.050
574.38	9.012
574.71	8.990
575.04	8.973
575.38	8.957
575.71	8.937
576.05	8.931
576.38	8.926
576.71	8.889
577.05	8.899
577.38	8.862
577.71	8.829
578.05	8.818
578.38	8.795
578.71	8.785
579.05	8.768
579.38	8.725
579.71	8.690
580.05	8.645
580.38	8.650
580.71	8.617
581.05	8.631
581.38	8.634
581.71	8.643
582.05	8.632
582.38	8.614
582.71	8.610
583.04	8.625
583.38	8.631
583.71	8.637
584.04	8.639
584.38	8.642
584.71	8.642
585.04	8.673
585.37	8.681
585.71	8.727
586.04	8.746
586.37	8.807
586.70	8.834
587.04	8.865
587.37	8.897
587.70	8.929
588.03	8.956
588.37	8.981
588.70	8.986
589.03	8.976
589.36	8.941
589.69	8.939
590.03	8.924
590.36	8.909
590.69	8.867
591.02	8.837
591.35	8.808
591.69	8.806
592.02	8.797
592.35	8.792
592.68	8.814
593.01	8.816
593.35	8.822
593.68	8.818
594.01	8.831
594.34	8.865
594.67	8.866
595.00	8.857
595.34	8.827
595.67	8.802
596.00	8.793
596.33	8.760
596.66	8.756
596.99	8.734
597.32	8.705
597.65	8.666
597.99	8.610
598.32	8.582
598.65	8.570
598.98	8.555
599.31	8.558
599.64	8.548
599.97	8.536
600.30	8.528
600.63	8.524
600.96	8.538
601.30	8.560
601.63	8.626
601.96	8.661
602.29	8.681
602.62	8.695
602.95	8.696
603.28	8.688
603.61	8.686
603.94	8.667
604.27	8.686
604.60	8.657
604.93	8.658
605.26	8.607
605.59	8.576
605.92	8.558
606.25	8.563
606.58	8.556
606.91	8.519
607.24	8.517
607.57	8.517
607.90	8.484
608.23	8.456
608.56	8.405
608.89	8.365
609.22	8.350
609.55	8.315
609.88	8.246
610.21	8.215
610.54	8.193
610.87	8.140
611.20	8.072
611.53	8.029
611.86	8.023
612.19	7.992
612.52	7.949
612.85	7.896
613.18	7.835
613.51	7.789
613.84	7.697
614.17	7.691
614.49	7.689
614.82	7.680
615.15	7.649
615.48	7.599
615.81	7.594
616.14	7.607
616.47	7.572
616.80	7.568
617.13	7.596
617.46	7.613
617.78	7.558
618.11	7.510
618.44	7.486
618.77	7.448
619.10	7.412
619.43	7.377
619.76	7.355
620.09	7.399
620.41	7.419
620.74	7.446
621.07	7.486
621.40	7.528
621.73	7.575
622.06	7.614
622.38	7.639
622.71	7.700
623.04	7.767
623.37	7.806
623.70	7.807
624.02	7.831
624.35	7.837
624.68	7.819
625.01	7.840
625.34	7.877
625.66	7.895
625.99	7.923
626.32	7.922
626.65	7.904
626.98	7.913
627.30	7.913
627.63	7.893
627.96	7.857
628.29	7.861
628.61	7.832
628.94	7.778
629.27	7.774
629.60	7.722
629.92	7.699
630.25	7.674
630.58	7.620
630.91	7.594
631.23	7.582
631.56	7.575
631.89	7.551
632.21	7.558
632.54	7.531
632.87	7.470
633.19	7.465
633.52	7.461
633.85	7.426
634.18	7.380
634.50	7.308
634.83	7.250
635.16	7.180
635.48	7.090
635.81	7.016
636.14	6.983
636.46	6.949
636.79	6.903
637.11	6.840
637.44	6.777
637.77	6.736
638.09	6.712
638.42	6.669
638.75	6.651
639.07	6.664
639.40	6.605
639.73	6.549
640.05	6.480
640.38	6.487
640.70	6.444
641.03	6.438
641.36	6.430
641.68	6.425
642.01	6.400
642.33	6.351
642.66	6.344
642.98	6.371
643.31	6.373
643.64	6.414
643.96	6.391
644.29	6.409
644.61	6.409
644.94	6.435
645.26	6.424
645.59	6.466
645.91	6.491
646.24	6.484
646.56	6.474
646.89	6.483
647.22	6.453
647.54	6.427
647.87	6.387
648.19	6.341
648.52	6.300
648.84	6.318
649.17	6.271
649.49	6.280
649.82	6.285
650.14	6.261
650.47	6.237
650.79	6.274
651.11	6.284
651.44	6.317
651.76	6.332
652.09	6.347
652.41	6.375
652.74	6.398
653.06	6.387
653.39	6.380
653.71	6.387
654.04	6.417
654.36	6.444
654.68	6.469
655.01	6.512
655.33	6.576
655.66	6.600
655.98	6.609
656.30	6.588
656.63	6.624
656.95	6.635
657.28	6.657
657.60	6.652
657.92	6.605
658.25	6.566
658.57	6.504
658.90	6.470
659.22	6.464
659.54	6.402
659.87	6.387
660.19	6.305
660.51	6.236
660.84	6.188
661.16	6.152
661.48	6.125
661.81	6.158
662.13	6.137
662.45	6.104
662.78	6.042
663.10	6.076
663.42	6.138
663.75	6.184
664.07	6.222
664.39	6.213
664.72	6.201
665.04	6.198
665.36	6.194
665.69	6.249
666.01	6.305
666.33	6.374
666.65	6.361
666.98	6.379
667.30	6.417
667.62	6.428
667.94	6.508
668.27	6.595
668.59	6.692
668.91	6.749
669.23	6.777
669.56	6.789
669.88	6.830
670.20	6.890
670.52	6.940
670.85	6.990
671.17	7.102
671.49	7.150
671.81	7.217
672.13	7.265
672.46	7.296
672.78	7.421
673.10	7.547
673.42	7.609
673.74	7.690
674.07	7.751
674.39	7.852
674.71	7.924
675.03	8.056
675.35	8.156
675.67	8.271
676.00	8.385
676.32	8.415
676.64	8.433
676.96	8.566
677.28	8.705
677.60	8.782
677.92	8.887
678.25	8.994
678.57	9.061
678.89	9.073
679.21	9.150
679.53	9.221
679.85	9.344
680.17	9.445
680.49	9.489
680.81	9.535
681.13	9.640
681.46	9.676
681.78	9.767
682.10	9.896
682.42	10.032
682.74	10.198
683.06	10.308
683.38	10.440
683.70	10.634
684.02	10.828
684.34	11.021
684.66	11.165
684.98	11.378
685.30	11.522
685.62	11.583
685.94	11.699
686.26	11.781
686.58	11.858
686.90	11.935
687.22	12.010
687.54	12.035
687.86	12.046
688.18	12.080
688.50	12.103
688.82	12.121
689.14	12.190
689.46	12.332
689.78	12.355
690.10	12.510
690.42	12.608
690.74	12.700
691.06	12.841
691.38	12.987
691.70	13.181
692.02	13.301
692.34	13.438
692.66	13.603
692.98	13.648
693.30	13.795
693.62	13.891
693.94	13.963
694.26	14.010
694.57	14.125
694.89	14.227
695.21	14.321
695.53	14.475
695.85	14.588
696.17	14.711
696.49	14.853
696.81	14.992
697.13	15.083
697.44	15.248
697.76	15.425
698.08	15.537
698.40	15.693
698.72	15.779
699.04	15.903
699.36	16.053
699.67	16.131
699.99	16.238
700.31	16.302
700.63	16.479
700.95	16.642
701.27	16.735
701.58	16.861
701.90	16.967
702.22	17.131
702.54	17.238
702.86	17.353
703.17	17.479
703.49	17.598
703.81	17.789
704.13	17.843
704.45	17.907
704.76	18.086
705.08	18.258
705.40	18.312
705.72	18.382
706.03	18.468
706.35	18.556
706.67	18.730
706.99	18.873
707.30	18.954
707.62	19.189
707.94	19.319
708.26	19.359
708.57	19.461
708.89	19.639
709.21	19.842
709.53	19.977
709.84	20.191
710.16	20.379
710.48	20.586
710.79	20.764
711.11	20.873
711.43	21.042
711.74	21.237
712.06	21.337
712.38	21.504
712.69	21.646
713.01	21.850
713.33	22.047
713.64	22.304
713.96	22.374
714.28	22.665
714.59	22.910
714.91	23.166
715.23	23.413
715.54	23.669
715.86	23.876
716.17	24.153
716.49	24.392
716.81	24.521
717.12	24.589
717.44	24.897
717.76	24.996
718.07	25.027
718.39	25.106
718.70	25.202
719.02	25.261
719.33	25.445
719.65	25.363
719.97	25.440
720.28	25.548
720.60	25.665
720.91	25.809
721.23	25.945
721.54	26.207
721.86	26.362
722.17	26.562
722.49	26.761
722.81	26.834
723.12	27.105
723.44	27.269
723.75	27.457
724.07	27.667
724.38	27.830
724.70	28.035
725.01	28.156
725.33	28.248
725.64	28.263
725.96	28.404
726.27	28.503
726.59	28.609
726.90	28.739
727.22	28.674
727.53	28.740
727.84	28.883
728.16	28.885
728.47	28.883
728.79	28.979
729.10	29.089
729.42	29.088
729.73	29.163
730.05	29.226
730.36	29.164
730.67	29.362
730.99	29.355
731.30	29.195
731.62	29.215
731.93	29.365
732.24	29.408
732.56	29.466
732.87	29.698
733.19	29.746
733.50	29.824
733.81	30.043
734.13	30.182
734.44	30.302
734.76	30.327
735.07	30.349
735.38	30.289
735.70	30.456
736.01	30.657
736.32	30.658
736.64	30.808
736.95	30.787
737.26	30.691
737.58	30.634
737.89	30.697
738.20	30.927
738.52	31.025
738.83	31.012
739.14	30.953
739.45	30.889
739.77	30.895
740.08	30.797
740.39	30.876
740.71	31.079
741.02	31.095
741.33	31.076
741.64	31.123
741.96	31.231
742.27	31.241
742.58	31.206
742.90	31.113
743.21	31.066
743.52	31.217
743.83	31.344
744.14	31.306
744.46	31.549
744.77	31.481
745.08	31.498
745.39	31.538
745.71	31.678
746.02	31.697
746.33	31.879
746.64	31.841
746.95	31.932
747.27	31.850
747.58	31.775
747.89	31.491
748.20	31.422
748.51	31.370
748.82	31.347
749.14	31.445
749.45	31.564
749.76	31.543
750.07	31.780
750.38	31.527
750.69	31.565
751.01	31.596
751.32	31.552
751.63	31.692
751.94	31.652
752.25	31.545
752.56	31.444
752.87	31.421
753.18	31.352
753.49	31.218
753.81	31.464
754.12	31.520
754.43	31.670
754.74	31.934
755.05	32.126
755.36	32.352
755.67	32.469
755.98	32.907
756.29	33.240
756.60	33.444
756.91	33.748
757.22	33.819
757.53	34.062
757.84	34.279
758.15	34.532
758.46	34.808
758.77	34.960
759.09	35.186
759.40	35.222
759.71	35.066
760.02	35.066
760.33	35.106
760.64	35.160
760.95	35.271
761.26	35.185
761.57	35.154
761.88	34.957
762.18	34.959
762.49	34.934
762.80	34.792
763.11	34.888
763.42	34.801
763.73	34.592
764.04	34.431
764.35	34.184
764.66	34.110
764.97	33.847
765.28	33.803
765.59	33.416
765.90	33.026
766.21	32.612
766.52	32.036
766.83	31.867
767.14	31.755
767.44	31.479
767.75	30.999
768.06	30.731
768.37	30.309
768.68	30.046
768.99	29.955
769.30	29.827
769.61	29.938
769.91	29.969
770.22	29.742
770.53	29.720
770.84	29.680
771.15	29.624
771.46	29.339
771.77	29.702
772.07	29.635
772.38	29.628
772.69	29.635
773.00	29.777
773.31	30.009
773.61	30.224
773.92	29.998
774.23	30.207
774.54	30.763
774.85	30.922
775.15	30.908
775.46	30.844
775.77	31.179
776.08	31.134
776.39	30.838
776.69	30.824
777.00	30.731
777.31	30.904
777.62	30.569
777.92	30.139
778.23	30.248
778.54	30.020
778.85	30.204
779.15	29.985
779.46	30.252
779.77	30.301
780.07	30.238
780.38	30.295
780.69	30.016
781.00	30.496
781.30	30.535
781.61	30.271
781.92	30.302
782.22	30.308
782.53	29.892
782.84	29.863
783.14	29.902
783.45	29.914
783.76	30.223
784.06	30.565
784.37	30.215
784.68	30.342
784.98	30.634
785.29	30.876
785.60	30.747
785.90	31.221
786.21	31.081
786.51	31.260
786.82	31.405
787.13	31.486
787.43	31.523
787.74	31.766
788.04	31.890
788.35	31.930
788.66	31.723
788.96	31.937
789.27	32.062
789.57	32.167
789.88	31.992
790.19	31.853
790.49	31.765
790.80	31.585
791.10	31.587
791.41	31.408
791.71	31.342
792.02	31.476
792.32	31.398
792.63	31.105
792.93	31.206
793.24	31.173
793.54	31.312
793.85	31.186
794.15	31.247
794.46	31.152
794.76	31.094
795.07	30.938
795.37	31.154
795.68	31.235
795.98	31.401
796.29	31.684
796.59	31.739
796.90	31.774
797.20	31.641
797.51	31.428
797.81	31.470
798.12	31.785
798.42	32.061
798.72	32.104
799.03	32.017
799.33	31.937
799.64	31.547
799.94	32.023
800.25	31.823
800.55	31.929
800.85	32.225
801.16	32.148
801.46	31.928
801.77	31.745
802.07	31.674
802.37	31.556
802.68	31.311
802.98	31.489
803.28	31.259
803.59	31.539
803.89	31.537
804.20	31.470
804.50	31.580
804.80	31.732
805.11	31.623
805.41	31.406
805.71	31.602
806.02	31.903
806.32	31.826
806.62	31.799
806.93	31.498
807.23	31.861
807.53	32.293
807.83	32.380
808.14	32.509
808.44	32.833
808.74	33.097
809.05	32.964
809.35	33.021
809.65	33.293
809.95	33.482
810.26	33.531
810.56	32.916
810.86	32.756
811.16	32.952
811.47	33.395
811.77	33.879
812.07	34.203
812.37	34.372
812.68	34.576
812.98	34.901
813.28	35.196
813.58	35.670
813.88	35.887
814.19	36.240
814.49	36.590
814.79	36.589
815.09	36.652
815.39	36.513
815.70	36.830
816.00	36.585
816.30	36.160
816.60	35.943
816.90	35.799
817.20	36.173
817.50	36.078
817.81	36.092
818.11	35.987
818.41	35.855
818.71	35.940
819.01	35.997
819.31	36.406
819.61	36.636
819.92	36.763
820.22	36.953
820.52	37.056
820.82	37.219
821.12	37.290
821.42	37.497
821.72	37.619
822.02	37.802
822.32	37.992
822.62	38.069
822.92	38.133
823.22	38.244
823.52	38.379
823.83	38.409
824.13	38.335
824.43	38.274
824.73	38.118
825.03	38.031
825.33	37.968
825.63	37.867
825.93	37.790
826.23	37.749
826.53	37.629
826.83	37.444
827.13	37.496
827.43	37.549
827.73	37.710
828.03	37.852
828.33	38.202
828.63	38.068
828.93	37.899
829.23	37.736
829.53	37.626
829.83	37.564
830.13	37.516
830.42	37.345
830.72	37.260
831.02	37.352
831.32	36.993
831.62	36.848
831.92	37.070
832.22	36.916
832.52	36.626
832.82	36.665
833.12	36.858
833.42	36.753
833.72	36.727
834.01	36.872
834.31	36.764
834.61	37.029
834.91	37.340
835.21	37.114
835.51	37.419
835.81	37.697
836.11	37.420
836.40	37.283
836.70	37.411
837.00	37.563
837.30	37.207
837.60	36.910
837.90	37.181
838.19	36.170
838.49	35.818
838.79	35.602
839.09	35.632
839.39	35.823
839.68	35.364
839.98	34.407
840.28	33.837
840.58	33.850
840.88	33.829
841.17	32.721
841.47	32.878
841.77	33.237
842.07	32.977
842.36	31.944
842.66	31.278
842.96	30.081
843.26	29.944
843.55	29.370
843.85	29.730
844.15	29.656
844.45	29.883
844.74	30.046
845.04	30.229
845.34	30.116
845.63	30.422
845.93	31.174
846.23	32.406
846.53	32.046
846.82	31.931
847.12	31.729
847.42	31.240
847.71	30.473
848.01	28.153
848.31	27.756
848.60	27.795
848.90	27.305
849.19	26.625
849.49	26.798
849.79	29.456
850.08	30.286
850.38	30.025
850.68	29.219
850.97	30.393
851.27	32.681
851.56	32.549
851.86	32.186
852.16	32.812
852.45	32.240
852.75	31.987
853.04	30.828
853.34	31.054
853.64	30.416
853.93	31.163
854.23	29.658
854.52	29.699
854.82	30.737
855.11	30.775
855.41	30.895
855.70	32.025
856.00	31.560
856.30	30.124
856.59	30.209
856.89	30.908
857.18	32.450
857.48	32.684
857.77	30.419
858.07	29.819
858.36	28.045
858.66	27.054
858.95	26.668
859.25	27.339
859.54	28.335
859.84	28.013
860.13	26.541
860.42	26.565
860.72	27.618
861.01	30.335
861.31	30.644
861.60	33.501
861.90	34.571
862.19	33.560
862.49	32.212
862.78	33.003
863.07	32.573
863.37	32.849
863.66	31.770
863.96	32.749
864.25	31.823
864.54	31.711
864.84	32.235
865.13	32.671
865.43	33.872
865.72	35.363
866.01	40.700
866.31	46.031
866.60	34.605
866.89	31.790
>>>>>End Spectral Data<<<<<
