OOIBase32 Version 2.0.0.6 Data File
++++++++++++++++++++++++++++++++++++
Date: 01-23-2012, 23:07:53
User: Valued Ocean Optics Customer
Spectrometer Serial Number: USB2E2917
Spectrometer Channel: Master
Integration Time (msec): 5
Spectra Averaged: 10
Boxcar Smoothing: 5
Correct for Electrical Dark: Enabled
Time Normalized: Disabled
Dual-beam Reference: Disabled
Reference Channel: Master
Temperature: Not acquired
Spectrometer Type: S2000
ADC Type: USB2000
Number of Pixels in File: 2048
Graph Title: 
>>>>>Begin Spectral Data<<<<<
180.30	0.000
180.67	0.000
181.03	-23.633
181.40	544.208
181.77	-4687.615
182.14	-17.682
182.51	-858.905
182.88	-153.725
183.25	35.710
183.62	20.741
183.99	-26.982
184.36	-33.684
184.73	350.687
185.10	8.478
185.46	-174.811
185.83	-323.791
186.20	1408.237
186.57	248.135
186.94	168.041
187.31	42.279
187.68	20.920
188.05	-14.401
188.42	-8.601
188.78	42.065
189.15	181.921
189.52	43.539
189.89	53.843
190.26	74.121
190.63	70.059
191.00	65.709
191.37	52.661
191.73	65.297
192.10	62.453
192.47	60.247
192.84	58.284
193.21	61.415
193.58	57.925
193.94	55.524
194.31	45.192
194.68	42.288
195.05	41.477
195.42	41.225
195.79	24.683
196.15	24.422
196.52	43.698
196.89	50.055
197.26	23.850
197.63	16.373
198.00	6.570
198.36	-6.966
198.73	-28.659
199.10	-34.489
199.47	-15.213
199.84	-18.956
200.20	-13.635
200.57	-23.247
200.94	-14.576
201.31	-0.153
201.68	3.511
202.04	4.570
202.41	14.936
202.78	13.816
203.15	31.768
203.51	22.604
203.88	32.133
204.25	29.765
204.62	19.914
204.98	-8.005
205.35	-14.488
205.72	-12.902
206.09	-9.785
206.46	-69.615
206.82	-47.422
207.19	-60.027
207.56	-109.219
207.92	-119.310
208.29	-132.877
208.66	-86.453
209.03	-65.610
209.39	-56.113
209.76	-59.953
210.13	-124.580
210.50	-59.355
210.86	-47.371
211.23	-64.719
211.60	-34.794
211.96	-32.969
212.33	-18.946
212.70	-16.455
213.07	-2.816
213.43	-23.769
213.80	-26.335
214.17	1.526
214.53	-2.549
214.90	-2.783
215.27	4.658
215.63	4.633
216.00	15.584
216.37	6.960
216.74	-6.587
217.10	-12.184
217.47	-6.859
217.84	-9.168
218.20	-10.482
218.57	-11.118
218.94	-11.197
219.30	-13.269
219.67	-16.134
220.04	-17.207
220.40	-13.518
220.77	-15.952
221.13	-14.683
221.50	-11.347
221.87	-7.267
222.23	-7.685
222.60	-20.931
222.97	-23.830
223.33	-17.650
223.70	-13.613
224.07	-16.882
224.43	-14.874
224.80	-10.479
225.16	-10.917
225.53	-12.105
225.90	-15.097
226.26	-11.736
226.63	-6.547
226.99	-4.794
227.36	-5.507
227.73	-3.614
228.09	-2.382
228.46	-2.008
228.82	-0.870
229.19	-0.663
229.56	0.427
229.92	3.207
230.29	2.404
230.65	3.367
231.02	0.010
231.38	-1.873
231.75	-4.267
232.12	-5.991
232.48	-7.953
232.85	-11.969
233.21	-12.019
233.58	-13.806
233.94	-12.552
234.31	-11.891
234.68	-13.190
235.04	-10.616
235.41	-7.379
235.77	-5.320
236.14	-3.704
236.50	-2.259
236.87	0.353
237.23	0.565
237.60	-0.053
237.96	-0.986
238.33	-1.668
238.69	-1.281
239.06	-1.193
239.42	-1.586
239.79	-2.644
240.15	-2.403
240.52	-1.714
240.88	-1.764
241.25	-1.633
241.61	-0.749
241.98	-0.941
242.34	-0.769
242.71	-0.388
243.07	-0.262
243.44	-0.582
243.80	-0.227
244.17	-0.350
244.53	-0.866
244.90	-0.895
245.26	-0.623
245.63	-0.484
245.99	-0.263
246.36	-0.100
246.72	-0.032
247.09	-0.163
247.45	0.291
247.81	0.709
248.18	0.735
248.54	1.221
248.91	0.892
249.27	0.687
249.64	0.711
250.00	0.806
250.36	0.592
250.73	-0.066
251.09	0.389
251.46	0.595
251.82	0.240
252.19	0.376
252.55	0.072
252.91	0.806
253.28	0.809
253.64	0.055
254.01	-0.314
254.37	-0.022
254.73	0.777
255.10	0.760
255.46	1.100
255.83	1.138
256.19	0.944
256.55	0.804
256.92	0.793
257.28	0.826
257.65	1.162
258.01	1.304
258.37	1.188
258.74	0.933
259.10	0.666
259.46	0.184
259.83	-0.064
260.19	-0.032
260.55	-0.002
260.92	-0.011
261.28	0.127
261.64	0.057
262.01	0.318
262.37	0.521
262.73	0.725
263.10	0.985
263.46	1.274
263.82	1.246
264.19	1.096
264.55	0.818
264.91	0.413
265.28	0.092
265.64	0.042
266.00	-0.158
266.37	-0.372
266.73	-0.517
267.09	-0.457
267.46	-0.324
267.82	-0.378
268.18	-0.222
268.54	-0.054
268.91	-0.011
269.27	-0.077
269.63	-0.132
270.00	-0.288
270.36	-0.199
270.72	-0.142
271.08	-0.102
271.45	-0.278
271.81	-0.170
272.17	-0.233
272.53	-0.162
272.90	-0.037
273.26	0.096
273.62	0.047
273.98	-0.123
274.35	-0.393
274.71	-0.521
275.07	-0.541
275.43	-0.554
275.80	-0.494
276.16	-0.451
276.52	-0.477
276.88	-0.510
277.25	-0.701
277.61	-1.079
277.97	-0.941
278.33	-0.656
278.69	-0.700
279.06	-0.886
279.42	-0.989
279.78	-0.987
280.14	-0.953
280.50	-0.807
280.87	-0.597
281.23	-0.556
281.59	-0.276
281.95	-0.132
282.31	-0.104
282.68	-0.135
283.04	-0.072
283.40	0.147
283.76	0.210
284.12	0.359
284.48	0.313
284.85	0.289
285.21	0.451
285.57	0.479
285.93	0.478
286.29	0.333
286.65	0.449
287.02	0.764
287.38	0.693
287.74	0.566
288.10	0.519
288.46	0.499
288.82	0.352
289.18	0.278
289.54	0.433
289.91	0.376
290.27	0.415
290.63	0.543
290.99	0.366
291.35	0.304
291.71	0.443
292.07	0.422
292.43	0.331
292.79	0.454
293.16	0.246
293.52	0.267
293.88	0.399
294.24	0.519
294.60	0.423
294.96	0.246
295.32	0.350
295.68	0.405
296.04	0.333
296.40	0.464
296.76	0.469
297.12	0.570
297.49	0.325
297.85	0.113
298.21	0.121
298.57	0.117
298.93	0.305
299.29	0.152
299.65	0.103
300.01	0.178
300.37	0.233
300.73	0.307
301.09	0.505
301.45	0.702
301.81	0.827
302.17	0.854
302.53	0.613
302.89	0.542
303.25	0.547
303.61	0.464
303.97	0.369
304.33	0.346
304.69	0.335
305.05	0.174
305.41	0.148
305.77	0.126
306.13	-0.016
306.49	0.247
306.85	0.314
307.21	0.392
307.57	0.514
307.93	0.513
308.29	0.590
308.65	0.643
309.01	0.723
309.37	0.714
309.73	0.740
310.09	0.890
310.45	0.970
310.81	0.952
311.17	0.951
311.53	0.825
311.89	0.866
312.25	0.785
312.61	0.666
312.96	0.670
313.32	0.720
313.68	0.634
314.04	0.528
314.40	0.429
314.76	0.272
315.12	0.260
315.48	0.226
315.84	0.253
316.20	0.205
316.56	0.155
316.92	0.031
317.27	0.071
317.63	0.171
317.99	0.128
318.35	0.170
318.71	0.360
319.07	0.424
319.43	0.565
319.79	0.539
320.15	0.511
320.50	0.607
320.86	0.721
321.22	0.664
321.58	0.653
321.94	0.614
322.30	0.551
322.66	0.475
323.01	0.332
323.37	0.256
323.73	0.375
324.09	0.365
324.45	0.402
324.81	0.328
325.17	0.403
325.52	0.380
325.88	0.339
326.24	0.369
326.60	0.303
326.96	0.372
327.31	0.407
327.67	0.272
328.03	0.263
328.39	0.176
328.75	0.258
329.11	0.218
329.46	0.234
329.82	0.332
330.18	0.353
330.54	0.392
330.90	0.432
331.25	0.468
331.61	0.599
331.97	0.709
332.33	0.774
332.68	0.825
333.04	0.852
333.40	0.820
333.76	0.824
334.11	0.897
334.47	1.010
334.83	0.979
335.19	0.932
335.54	0.944
335.90	0.965
336.26	0.974
336.62	0.888
336.97	0.835
337.33	0.896
337.69	0.949
338.05	0.865
338.40	0.819
338.76	0.880
339.12	1.029
339.48	1.042
339.83	1.079
340.19	1.142
340.55	1.244
340.90	1.257
341.26	1.252
341.62	1.292
341.97	1.414
342.33	1.532
342.69	1.688
343.04	1.707
343.40	1.608
343.76	1.580
344.12	1.675
344.47	1.777
344.83	1.955
345.19	2.105
345.54	2.226
345.90	2.271
346.26	2.384
346.61	2.430
346.97	2.433
347.32	2.611
347.68	2.671
348.04	2.615
348.39	2.562
348.75	2.534
349.11	2.570
349.46	2.592
349.82	2.663
350.18	2.654
350.53	2.677
350.89	2.757
351.24	2.753
351.60	2.800
351.96	2.916
352.31	3.002
352.67	3.145
353.02	3.116
353.38	3.143
353.74	3.130
354.09	3.120
354.45	3.154
354.80	3.155
355.16	3.231
355.52	3.337
355.87	3.325
356.23	3.367
356.58	3.345
356.94	3.455
357.29	3.497
357.65	3.581
358.00	3.679
358.36	3.692
358.72	3.786
359.07	3.799
359.43	3.841
359.78	3.882
360.14	3.906
360.49	3.935
360.85	3.951
361.20	3.946
361.56	3.916
361.91	3.914
362.27	3.954
362.62	3.998
362.98	4.058
363.33	4.072
363.69	4.146
364.04	4.183
364.40	4.199
364.75	4.149
365.11	4.165
365.46	4.205
365.82	4.244
366.17	4.230
366.53	4.211
366.88	4.181
367.24	4.223
367.59	4.200
367.95	4.237
368.30	4.274
368.66	4.391
369.01	4.397
369.37	4.391
369.72	4.440
370.08	4.497
370.43	4.545
370.78	4.589
371.14	4.531
371.49	4.597
371.85	4.575
372.20	4.575
372.56	4.545
372.91	4.578
373.26	4.629
373.62	4.530
373.97	4.542
374.33	4.493
374.68	4.489
375.03	4.564
375.39	4.512
375.74	4.487
376.10	4.473
376.45	4.489
376.80	4.516
377.16	4.482
377.51	4.585
377.87	4.579
378.22	4.564
378.57	4.575
378.93	4.592
379.28	4.633
379.63	4.664
379.99	4.722
380.34	4.746
380.70	4.742
381.05	4.806
381.40	4.780
381.76	4.789
382.11	4.793
382.46	4.852
382.82	4.842
383.17	4.843
383.52	4.887
383.88	4.877
384.23	4.863
384.58	4.875
384.94	4.874
385.29	4.871
385.64	4.864
385.99	4.921
386.35	4.894
386.70	4.877
387.05	4.857
387.41	4.838
387.76	4.838
388.11	4.850
388.47	4.864
388.82	4.876
389.17	4.897
389.52	4.930
389.88	4.960
390.23	4.956
390.58	4.981
390.93	5.014
391.29	5.057
391.64	5.082
391.99	5.124
392.34	5.116
392.70	5.081
393.05	5.065
393.40	5.077
393.75	5.048
394.11	5.089
394.46	5.062
394.81	5.046
395.16	4.989
395.52	4.943
395.87	4.902
396.22	4.921
396.57	4.904
396.92	4.865
397.28	4.828
397.63	4.805
397.98	4.750
398.33	4.737
398.68	4.692
399.04	4.701
399.39	4.687
399.74	4.646
400.09	4.618
400.44	4.623
400.80	4.654
401.15	4.632
401.50	4.614
401.85	4.623
402.20	4.598
402.55	4.621
402.90	4.581
403.26	4.567
403.61	4.543
403.96	4.526
404.31	4.505
404.66	4.481
405.01	4.453
405.36	4.443
405.72	4.402
406.07	4.385
406.42	4.358
406.77	4.357
407.12	4.341
407.47	4.349
407.82	4.323
408.17	4.278
408.53	4.245
408.88	4.214
409.23	4.185
409.58	4.146
409.93	4.137
410.28	4.118
410.63	4.076
410.98	4.066
411.33	4.063
411.68	4.051
412.03	4.075
412.38	4.045
412.73	4.067
413.09	4.088
413.44	4.139
413.79	4.152
414.14	4.165
414.49	4.201
414.84	4.225
415.19	4.220
415.54	4.254
415.89	4.252
416.24	4.287
416.59	4.315
416.94	4.313
417.29	4.312
417.64	4.298
417.99	4.315
418.34	4.309
418.69	4.293
419.04	4.287
419.39	4.279
419.74	4.285
420.09	4.293
420.44	4.294
420.79	4.284
421.14	4.280
421.49	4.297
421.84	4.282
422.19	4.284
422.54	4.287
422.89	4.294
423.24	4.273
423.59	4.254
423.94	4.217
424.29	4.197
424.64	4.189
424.99	4.158
425.34	4.129
425.68	4.098
426.03	4.067
426.38	4.056
426.73	4.027
427.08	3.994
427.43	3.997
427.78	4.006
428.13	3.963
428.48	3.969
428.83	3.975
429.18	3.970
429.53	3.966
429.87	3.963
430.22	3.928
430.57	3.946
430.92	3.960
431.27	3.952
431.62	3.940
431.97	3.939
432.32	3.918
432.67	3.907
433.01	3.886
433.36	3.885
433.71	3.876
434.06	3.870
434.41	3.852
434.76	3.869
435.11	3.864
435.45	3.864
435.80	3.882
436.15	3.904
436.50	3.925
436.85	3.957
437.20	3.961
437.54	3.952
437.89	3.973
438.24	3.989
438.59	3.971
438.94	3.970
439.29	3.966
439.63	3.976
439.98	3.992
440.33	3.996
440.68	4.008
441.03	4.037
441.37	4.075
441.72	4.106
442.07	4.110
442.42	4.150
442.76	4.194
443.11	4.222
443.46	4.257
443.81	4.272
444.16	4.294
444.50	4.295
444.85	4.304
445.20	4.324
445.55	4.340
445.89	4.353
446.24	4.360
446.59	4.354
446.94	4.370
447.28	4.357
447.63	4.366
447.98	4.384
448.32	4.411
448.67	4.419
449.02	4.397
449.37	4.387
449.71	4.406
450.06	4.415
450.41	4.449
450.75	4.466
451.10	4.481
451.45	4.482
451.79	4.463
452.14	4.467
452.49	4.486
452.84	4.528
453.18	4.550
453.53	4.548
453.88	4.562
454.22	4.555
454.57	4.564
454.92	4.594
455.26	4.615
455.61	4.658
455.95	4.687
456.30	4.698
456.65	4.715
456.99	4.733
457.34	4.764
457.69	4.784
458.03	4.809
458.38	4.831
458.73	4.835
459.07	4.823
459.42	4.801
459.76	4.767
460.11	4.753
460.46	4.725
460.80	4.708
461.15	4.692
461.49	4.651
461.84	4.634
462.19	4.586
462.53	4.570
462.88	4.560
463.22	4.554
463.57	4.571
463.91	4.566
464.26	4.583
464.61	4.572
464.95	4.550
465.30	4.547
465.64	4.546
465.99	4.559
466.33	4.547
466.68	4.552
467.02	4.550
467.37	4.532
467.71	4.518
468.06	4.505
468.41	4.501
468.75	4.505
469.10	4.500
469.44	4.468
469.79	4.441
470.13	4.424
470.48	4.413
470.82	4.410
471.17	4.415
471.51	4.421
471.86	4.401
472.20	4.386
472.55	4.384
472.89	4.390
473.23	4.388
473.58	4.397
473.92	4.408
474.27	4.413
474.61	4.401
474.96	4.410
475.30	4.418
475.65	4.429
475.99	4.441
476.34	4.447
476.68	4.444
477.02	4.464
477.37	4.471
477.71	4.511
478.06	4.561
478.40	4.642
478.75	4.723
479.09	4.831
479.43	4.948
479.78	5.090
480.12	5.222
480.47	5.361
480.81	5.491
481.15	5.619
481.50	5.741
481.84	5.879
482.19	6.016
482.53	6.134
482.87	6.209
483.22	6.220
483.56	6.161
483.90	6.064
484.25	5.945
484.59	5.826
484.94	5.711
485.28	5.605
485.62	5.484
485.97	5.354
486.31	5.248
486.65	5.172
487.00	5.148
487.34	5.175
487.68	5.226
488.03	5.289
488.37	5.353
488.71	5.408
489.06	5.436
489.40	5.453
489.74	5.467
490.09	5.469
490.43	5.470
490.77	5.467
491.11	5.460
491.46	5.463
491.80	5.465
492.14	5.450
492.49	5.456
492.83	5.449
493.17	5.457
493.51	5.482
493.86	5.522
494.20	5.561
494.54	5.603
494.88	5.663
495.23	5.731
495.57	5.801
495.91	5.886
496.25	5.959
496.60	6.022
496.94	6.076
497.28	6.138
497.62	6.180
497.97	6.238
498.31	6.323
498.65	6.390
498.99	6.451
499.33	6.539
499.68	6.623
500.02	6.701
500.36	6.786
500.70	6.892
501.04	6.959
501.39	7.051
501.73	7.140
502.07	7.240
502.41	7.349
502.75	7.473
503.09	7.566
503.44	7.664
503.78	7.764
504.12	7.899
504.46	8.017
504.80	8.161
505.14	8.313
505.49	8.460
505.83	8.588
506.17	8.724
506.51	8.843
506.85	8.985
507.19	9.115
507.53	9.249
507.87	9.376
508.22	9.494
508.56	9.629
508.90	9.721
509.24	9.844
509.58	9.967
509.92	10.083
510.26	10.224
510.60	10.352
510.94	10.477
511.28	10.603
511.63	10.736
511.97	10.879
512.31	11.007
512.65	11.186
512.99	11.358
513.33	11.553
513.67	11.744
514.01	11.955
514.35	12.156
514.69	12.363
515.03	12.546
515.37	12.733
515.71	12.917
516.05	13.087
516.39	13.238
516.73	13.385
517.07	13.514
517.41	13.635
517.75	13.739
518.09	13.839
518.43	13.961
518.77	14.085
519.11	14.201
519.45	14.308
519.79	14.439
520.13	14.589
520.47	14.734
520.81	14.910
521.15	15.107
521.49	15.256
521.83	15.424
522.17	15.585
522.51	15.792
522.85	16.005
523.19	16.270
523.53	16.544
523.87	16.834
524.21	17.129
524.55	17.384
524.89	17.612
525.23	17.859
525.57	18.083
525.91	18.293
526.25	18.463
526.58	18.629
526.92	18.739
527.26	18.814
527.60	18.853
527.94	18.877
528.28	18.898
528.62	18.915
528.96	18.921
529.30	18.914
529.64	18.881
529.97	18.868
530.31	18.838
530.65	18.844
530.99	18.878
531.33	18.937
531.67	18.971
532.01	19.013
532.35	19.039
532.68	19.060
533.02	19.064
533.36	19.096
533.70	19.103
534.04	19.123
534.38	19.124
534.71	19.135
535.05	19.123
535.39	19.134
535.73	19.146
536.07	19.192
536.41	19.227
536.74	19.289
537.08	19.342
537.42	19.418
537.76	19.490
538.10	19.574
538.43	19.653
538.77	19.737
539.11	19.823
539.45	19.886
539.79	19.933
540.12	19.963
540.46	19.986
540.80	19.984
541.14	19.972
541.47	19.932
541.81	19.901
542.15	19.849
542.49	19.799
542.82	19.747
543.16	19.676
543.50	19.607
543.84	19.565
544.17	19.538
544.51	19.535
544.85	19.521
545.18	19.535
545.52	19.542
545.86	19.552
546.20	19.554
546.53	19.526
546.87	19.530
547.21	19.543
547.54	19.529
547.88	19.526
548.22	19.495
548.55	19.493
548.89	19.474
549.23	19.459
549.56	19.458
549.90	19.469
550.24	19.474
550.57	19.471
550.91	19.437
551.25	19.464
551.58	19.434
551.92	19.440
552.26	19.411
552.59	19.411
552.93	19.402
553.27	19.392
553.60	19.377
553.94	19.350
554.27	19.328
554.61	19.343
554.95	19.314
555.28	19.300
555.62	19.253
555.95	19.247
556.29	19.231
556.63	19.189
556.96	19.137
557.30	19.059
557.63	19.028
557.97	18.973
558.31	18.892
558.64	18.815
558.98	18.765
559.31	18.758
559.65	18.687
559.98	18.601
560.32	18.553
560.65	18.465
560.99	18.412
561.33	18.345
561.66	18.285
562.00	18.231
562.33	18.170
562.67	18.111
563.00	18.029
563.34	17.974
563.67	17.934
564.01	17.851
564.34	17.810
564.68	17.753
565.01	17.686
565.35	17.631
565.68	17.567
566.02	17.485
566.35	17.399
566.69	17.301
567.02	17.236
567.36	17.128
567.69	17.036
568.03	16.949
568.36	16.849
568.69	16.749
569.03	16.664
569.36	16.577
569.70	16.504
570.03	16.436
570.37	16.371
570.70	16.291
571.04	16.234
571.37	16.170
571.70	16.096
572.04	16.027
572.37	15.980
572.71	15.883
573.04	15.797
573.37	15.740
573.71	15.676
574.04	15.586
574.38	15.495
574.71	15.426
575.04	15.371
575.38	15.282
575.71	15.215
576.05	15.119
576.38	15.064
576.71	14.996
577.05	14.931
577.38	14.815
577.71	14.754
578.05	14.689
578.38	14.583
578.71	14.518
579.05	14.458
579.38	14.388
579.71	14.341
580.05	14.283
580.38	14.228
580.71	14.138
581.05	14.108
581.38	14.058
581.71	13.998
582.05	13.951
582.38	13.879
582.71	13.845
583.04	13.797
583.38	13.740
583.71	13.694
584.04	13.670
584.38	13.640
584.71	13.597
585.04	13.576
585.37	13.531
585.71	13.535
586.04	13.503
586.37	13.470
586.70	13.454
587.04	13.428
587.37	13.437
587.70	13.403
588.03	13.381
588.37	13.375
588.70	13.341
589.03	13.345
589.36	13.316
589.69	13.291
590.03	13.263
590.36	13.236
590.69	13.174
591.02	13.106
591.35	13.054
591.69	13.032
592.02	12.999
592.35	12.988
592.68	12.945
593.01	12.888
593.35	12.866
593.68	12.832
594.01	12.789
594.34	12.770
594.67	12.744
595.00	12.720
595.34	12.666
595.67	12.590
596.00	12.536
596.33	12.474
596.66	12.435
596.99	12.358
597.32	12.307
597.65	12.272
597.99	12.241
598.32	12.176
598.65	12.110
598.98	12.065
599.31	12.039
599.64	11.996
599.97	11.982
600.30	11.975
600.63	11.969
600.96	11.978
601.30	11.966
601.63	11.963
601.96	11.955
602.29	11.957
602.62	11.946
602.95	11.930
603.28	11.914
603.61	11.868
603.94	11.821
604.27	11.780
604.60	11.720
604.93	11.666
605.26	11.604
605.59	11.571
605.92	11.533
606.25	11.473
606.58	11.445
606.91	11.378
607.24	11.376
607.57	11.331
607.90	11.288
608.23	11.219
608.56	11.190
608.89	11.143
609.22	11.094
609.55	11.020
609.88	10.955
610.21	10.876
610.54	10.796
610.87	10.671
611.20	10.612
611.53	10.534
611.86	10.474
612.19	10.384
612.52	10.324
612.85	10.265
613.18	10.247
613.51	10.165
613.84	10.117
614.17	10.087
614.49	10.104
614.82	10.004
615.15	9.965
615.48	9.934
615.81	9.866
616.14	9.817
616.47	9.743
616.80	9.657
617.13	9.655
617.46	9.594
617.78	9.532
618.11	9.457
618.44	9.466
618.77	9.419
619.10	9.395
619.43	9.374
619.76	9.329
620.09	9.343
620.41	9.336
620.74	9.330
621.07	9.357
621.40	9.365
621.73	9.370
622.06	9.378
622.38	9.377
622.71	9.381
623.04	9.420
623.37	9.445
623.70	9.421
624.02	9.442
624.35	9.480
624.68	9.480
625.01	9.480
625.34	9.500
625.66	9.486
625.99	9.523
626.32	9.484
626.65	9.441
626.98	9.446
627.30	9.462
627.63	9.421
627.96	9.332
628.29	9.274
628.61	9.240
628.94	9.171
629.27	9.119
629.60	9.034
629.92	9.045
630.25	9.018
630.58	8.949
630.91	8.908
631.23	8.875
631.56	8.878
631.89	8.832
632.21	8.809
632.54	8.760
632.87	8.717
633.19	8.687
633.52	8.612
633.85	8.586
634.18	8.521
634.50	8.431
634.83	8.350
635.16	8.258
635.48	8.178
635.81	8.078
636.14	8.021
636.46	7.918
636.79	7.852
637.11	7.737
637.44	7.569
637.77	7.468
638.09	7.356
638.42	7.266
638.75	7.170
639.07	7.106
639.40	7.032
639.73	6.910
640.05	6.870
640.38	6.791
640.70	6.672
641.03	6.624
641.36	6.566
641.68	6.497
642.01	6.442
642.33	6.371
642.66	6.332
642.98	6.257
643.31	6.209
643.64	6.118
643.96	6.032
644.29	6.031
644.61	5.985
644.94	5.924
645.26	5.899
645.59	5.890
645.91	5.859
646.24	5.786
646.56	5.738
646.89	5.718
647.22	5.694
647.54	5.693
647.87	5.678
648.19	5.625
648.52	5.603
648.84	5.575
649.17	5.527
649.49	5.515
649.82	5.500
650.14	5.518
650.47	5.468
650.79	5.445
651.11	5.412
651.44	5.403
651.76	5.408
652.09	5.439
652.41	5.440
652.74	5.401
653.06	5.385
653.39	5.426
653.71	5.452
654.04	5.470
654.36	5.488
654.68	5.502
655.01	5.507
655.33	5.508
655.66	5.499
655.98	5.506
656.30	5.494
656.63	5.488
656.95	5.464
657.28	5.425
657.60	5.386
657.92	5.381
658.25	5.336
658.57	5.312
658.90	5.287
659.22	5.236
659.54	5.202
659.87	5.190
660.19	5.153
660.51	5.090
660.84	5.052
661.16	5.052
661.48	4.998
661.81	4.967
662.13	4.898
662.45	4.879
662.78	4.873
663.10	4.849
663.42	4.843
663.75	4.833
664.07	4.831
664.39	4.854
664.72	4.869
665.04	4.895
665.36	4.981
665.69	5.044
666.01	5.101
666.33	5.175
666.65	5.220
666.98	5.325
667.30	5.412
667.62	5.543
667.94	5.589
668.27	5.682
668.59	5.807
668.91	5.900
669.23	6.025
669.56	6.190
669.88	6.356
670.20	6.476
670.52	6.598
670.85	6.716
671.17	6.832
671.49	6.982
671.81	7.147
672.13	7.289
672.46	7.425
672.78	7.578
673.10	7.726
673.42	7.874
673.74	8.104
674.07	8.300
674.39	8.597
674.71	8.769
675.03	9.077
675.35	9.260
675.67	9.410
676.00	9.606
676.32	9.794
676.64	9.961
676.96	10.112
677.28	10.274
677.60	10.438
677.92	10.517
678.25	10.678
678.57	10.762
678.89	10.917
679.21	11.128
679.53	11.331
679.85	11.569
680.17	11.795
680.49	12.034
680.81	12.242
681.13	12.477
681.46	12.725
681.78	13.005
682.10	13.300
682.42	13.588
682.74	13.829
683.06	14.128
683.38	14.345
683.70	14.638
684.02	14.895
684.34	15.213
684.66	15.433
684.98	15.703
685.30	15.953
685.62	16.112
685.94	16.352
686.26	16.544
686.58	16.640
686.90	16.829
687.22	16.960
687.54	17.076
687.86	17.196
688.18	17.401
688.50	17.578
688.82	17.715
689.14	17.971
689.46	18.174
689.78	18.395
690.10	18.693
690.42	18.932
690.74	19.241
691.06	19.506
691.38	19.761
691.70	20.033
692.02	20.302
692.34	20.565
692.66	20.721
692.98	20.922
693.30	21.190
693.62	21.365
693.94	21.550
694.26	21.645
694.57	21.835
694.89	22.019
695.21	22.124
695.53	22.260
695.85	22.424
696.17	22.628
696.49	22.839
696.81	23.014
697.13	23.221
697.44	23.428
697.76	23.695
698.08	23.947
698.40	24.243
698.72	24.574
699.04	24.873
699.36	25.278
699.67	25.676
699.99	26.008
700.31	26.482
700.63	26.858
700.95	27.316
701.27	27.726
701.58	28.119
701.90	28.449
702.22	28.797
702.54	29.122
702.86	29.313
703.17	29.570
703.49	29.908
703.81	30.167
704.13	30.409
704.45	30.596
704.76	30.761
705.08	31.090
705.40	31.335
705.72	31.555
706.03	31.845
706.35	32.068
706.67	32.326
706.99	32.556
707.30	32.701
707.62	32.964
707.94	33.222
708.26	33.410
708.57	33.496
708.89	33.706
709.21	33.963
709.53	34.160
709.84	34.482
710.16	34.722
710.48	35.002
710.79	35.285
711.11	35.522
711.43	35.760
711.74	36.079
712.06	36.380
712.38	36.611
712.69	36.817
713.01	37.113
713.33	37.425
713.64	37.794
713.96	38.049
714.28	38.369
714.59	38.727
714.91	39.043
715.23	39.387
715.54	39.794
715.86	40.202
716.17	40.558
716.49	40.981
716.81	41.280
717.12	41.500
717.44	41.814
717.76	42.172
718.07	42.514
718.39	42.790
718.70	43.051
719.02	43.263
719.33	43.510
719.65	43.801
719.97	43.869
720.28	44.180
720.60	44.479
720.91	44.701
721.23	44.828
721.54	45.068
721.86	45.390
722.17	45.700
722.49	45.994
722.81	46.097
723.12	46.269
723.44	46.539
723.75	46.603
724.07	46.703
724.38	46.893
724.70	47.188
725.01	47.301
725.33	47.411
725.64	47.535
725.96	47.559
726.27	47.591
726.59	47.712
726.90	47.749
727.22	47.699
727.53	47.813
727.84	47.814
728.16	47.686
728.47	47.790
728.79	47.880
729.10	47.909
729.42	47.903
729.73	48.075
730.05	48.104
730.36	48.298
730.67	48.568
730.99	48.764
731.30	48.880
731.62	49.168
731.93	49.154
732.24	49.249
732.56	49.366
732.87	49.692
733.19	49.913
733.50	50.075
733.81	50.072
734.13	50.115
734.44	50.138
734.76	50.276
735.07	50.315
735.38	50.570
735.70	50.752
736.01	50.902
736.32	50.891
736.64	50.980
736.95	51.027
737.26	51.224
737.58	51.390
737.89	51.432
738.20	51.458
738.52	51.532
738.83	51.678
739.14	51.682
739.45	51.746
739.77	51.822
740.08	51.899
740.39	52.064
740.71	52.195
741.02	52.340
741.33	52.485
741.64	52.775
741.96	52.869
742.27	52.751
742.58	52.771
742.90	52.815
743.21	52.888
743.52	52.920
743.83	52.940
744.14	52.870
744.46	52.854
744.77	52.656
745.08	52.419
745.39	52.451
745.71	52.391
746.02	52.398
746.33	52.186
746.64	52.168
746.95	52.059
747.27	52.191
747.58	52.152
747.89	51.973
748.20	52.008
748.51	52.138
748.82	51.939
749.14	51.960
749.45	51.986
749.76	52.222
750.07	52.316
750.38	52.403
750.69	52.246
751.01	52.326
751.32	52.346
751.63	52.565
751.94	52.375
752.25	52.379
752.56	52.373
752.87	52.181
753.18	51.946
753.49	51.827
753.81	51.835
754.12	51.757
754.43	51.762
754.74	51.606
755.05	51.510
755.36	51.628
755.67	51.750
755.98	51.949
756.29	51.971
756.60	52.204
756.91	52.243
757.22	52.295
757.53	52.434
757.84	52.463
758.15	52.774
758.46	52.886
758.77	52.800
759.09	52.758
759.40	52.634
759.71	52.653
760.02	52.507
760.33	52.344
760.64	52.226
760.95	52.125
761.26	51.896
761.57	51.693
761.88	51.512
762.18	51.491
762.49	51.433
762.80	51.392
763.11	51.406
763.42	51.315
763.73	51.261
764.04	51.244
764.35	51.235
764.66	51.258
764.97	51.216
765.28	51.282
765.59	51.130
765.90	50.972
766.21	50.688
766.52	50.547
766.83	50.563
767.14	50.602
767.44	50.237
767.75	49.974
768.06	50.008
768.37	49.810
768.68	49.594
768.99	49.569
769.30	49.456
769.61	49.391
769.91	49.189
770.22	48.634
770.53	48.374
770.84	48.210
771.15	48.226
771.46	47.779
771.77	47.991
772.07	47.842
772.38	47.740
772.69	47.684
773.00	47.654
773.31	47.739
773.61	47.713
773.92	47.738
774.23	48.002
774.54	47.834
774.85	47.920
775.15	47.480
775.46	47.321
775.77	47.299
776.08	47.169
776.39	46.978
776.69	46.956
777.00	47.292
777.31	47.294
777.62	47.062
777.92	47.102
778.23	47.156
778.54	47.492
778.85	47.630
779.15	47.561
779.46	47.812
779.77	47.869
780.07	47.889
780.38	47.924
780.69	47.735
781.00	48.006
781.30	47.989
781.61	47.753
781.92	47.574
782.22	47.634
782.53	47.570
782.84	47.521
783.14	47.986
783.45	47.759
783.76	47.838
784.06	47.843
784.37	47.539
784.68	47.599
784.98	47.721
785.29	47.853
785.60	48.007
785.90	48.277
786.21	48.220
786.51	47.978
786.82	48.127
787.13	48.268
787.43	48.478
787.74	48.725
788.04	48.859
788.35	48.913
788.66	48.884
788.96	48.725
789.27	48.615
789.57	48.489
789.88	48.585
790.19	48.406
790.49	48.104
790.80	47.887
791.10	47.886
791.41	47.510
791.71	47.798
792.02	47.891
792.32	47.740
792.63	47.692
792.93	47.847
793.24	47.862
793.54	48.081
793.85	48.062
794.15	48.041
794.46	48.170
794.76	48.287
795.07	48.142
795.37	47.898
795.68	47.805
795.98	48.196
796.29	48.470
796.59	48.313
796.90	48.177
797.20	48.501
797.51	48.484
797.81	48.283
798.12	48.394
798.42	48.321
798.72	48.729
799.03	48.956
799.33	48.531
799.64	48.145
799.94	47.769
800.25	47.686
800.55	47.578
800.85	47.995
801.16	48.121
801.46	47.963
801.77	47.963
802.07	47.898
802.37	47.982
802.68	47.803
802.98	48.043
803.28	48.605
803.59	48.768
803.89	48.671
804.20	48.454
804.50	48.197
804.80	48.078
805.11	47.855
805.41	47.591
805.71	47.415
806.02	47.572
806.32	47.792
806.62	48.049
806.93	48.401
807.23	48.475
807.53	48.643
807.83	48.602
808.14	49.185
808.44	49.785
808.74	49.623
809.05	49.708
809.35	49.636
809.65	49.484
809.95	48.987
810.26	48.440
810.56	48.449
810.86	48.297
811.16	48.812
811.47	48.746
811.77	48.695
812.07	48.827
812.37	48.922
812.68	49.509
812.98	49.581
813.28	49.708
813.58	50.217
813.88	50.262
814.19	51.012
814.49	51.344
814.79	51.287
815.09	51.313
815.39	51.319
815.70	51.439
816.00	51.218
816.30	51.154
816.60	51.242
816.90	50.974
817.20	51.207
817.50	50.891
817.81	50.400
818.11	50.536
818.41	50.457
818.71	50.469
819.01	50.547
819.31	50.783
819.61	51.078
819.92	51.260
820.22	51.593
820.52	51.769
820.82	51.930
821.12	52.287
821.42	52.607
821.72	52.849
822.02	53.216
822.32	53.545
822.62	53.782
822.92	53.975
823.22	54.253
823.52	54.370
823.83	54.468
824.13	54.680
824.43	54.611
824.73	54.513
825.03	54.499
825.33	54.398
825.63	54.176
825.93	54.076
826.23	53.828
826.53	53.594
826.83	53.498
827.13	53.541
827.43	53.414
827.73	53.635
828.03	53.678
828.33	53.955
828.63	54.026
828.93	53.981
829.23	54.029
829.53	54.173
829.83	54.140
830.13	53.990
830.42	53.553
830.72	53.039
831.02	52.684
831.32	52.579
831.62	52.396
831.92	52.315
832.22	52.574
832.52	52.225
832.82	52.322
833.12	52.299
833.42	52.405
833.72	52.766
834.01	53.245
834.31	53.417
834.61	53.496
834.91	53.826
835.21	53.882
835.51	53.964
835.81	54.140
836.11	54.261
836.40	54.196
836.70	54.108
837.00	54.137
837.30	53.667
837.60	53.615
837.90	53.573
838.19	52.796
838.49	52.923
838.79	53.064
839.09	53.249
839.39	52.678
839.68	52.748
839.98	52.545
840.28	51.710
840.58	52.422
840.88	52.365
841.17	51.997
841.47	52.410
841.77	51.924
842.07	51.012
842.36	51.186
842.66	50.770
842.96	50.755
843.26	50.026
843.55	50.135
843.85	49.041
844.15	48.983
844.45	48.463
844.74	48.356
845.04	48.426
845.34	49.088
845.63	48.375
845.93	50.323
846.23	51.057
846.53	51.999
846.82	51.330
847.12	51.579
847.42	50.481
847.71	49.425
848.01	48.239
848.31	47.801
848.60	47.595
848.90	48.237
849.19	46.013
849.49	45.687
849.79	45.701
850.08	46.771
850.38	46.077
850.68	47.411
850.97	49.665
851.27	50.348
851.56	51.048
851.86	50.310
852.16	49.699
852.45	49.739
852.75	48.906
853.04	48.906
853.34	48.502
853.64	49.892
853.93	49.530
854.23	47.956
854.52	47.815
854.82	47.694
855.11	47.121
855.41	48.873
855.70	51.034
856.00	51.121
856.30	50.809
856.59	51.344
856.89	51.853
857.18	51.828
857.48	52.527
857.77	51.346
858.07	50.885
858.36	50.292
858.66	48.824
858.95	47.494
859.25	48.194
859.54	48.204
859.84	47.516
860.13	44.540
860.42	43.856
860.72	43.756
861.01	45.295
861.31	45.368
861.60	46.887
861.90	46.129
862.19	45.106
862.49	44.181
862.78	44.622
863.07	45.395
863.37	47.965
863.66	46.813
863.96	47.747
864.25	47.868
864.54	47.908
864.84	48.721
865.13	48.525
865.43	50.283
865.72	60.893
866.01	46.437
866.31	58.969
866.60	40.439
866.89	58.015
>>>>>End Spectral Data<<<<<
