OOIBase32 Version 2.0.0.6 Data File
++++++++++++++++++++++++++++++++++++
Date: 01-23-2012, 23:08:04
User: Valued Ocean Optics Customer
Spectrometer Serial Number: USB2E2917
Spectrometer Channel: Master
Integration Time (msec): 5
Spectra Averaged: 10
Boxcar Smoothing: 5
Correct for Electrical Dark: Enabled
Time Normalized: Disabled
Dual-beam Reference: Disabled
Reference Channel: Master
Temperature: Not acquired
Spectrometer Type: S2000
ADC Type: USB2000
Number of Pixels in File: 2048
Graph Title: 
>>>>>Begin Spectral Data<<<<<
180.30	0.000
180.67	0.000
181.03	-140.160
181.40	771.125
181.77	10069.954
182.14	102.571
182.51	-160.446
182.88	108.464
183.25	62.584
183.62	-16.312
183.99	80.628
184.36	-19.146
184.73	-78.174
185.10	-100.773
185.46	365.778
185.83	120.143
186.20	883.169
186.57	-59.736
186.94	61.634
187.31	81.304
187.68	9.451
188.05	-8.638
188.42	0.489
188.78	-134.355
189.15	-392.498
189.52	261.759
189.89	133.825
190.26	113.882
190.63	72.467
191.00	72.189
191.37	73.005
191.73	63.297
192.10	57.667
192.47	56.805
192.84	46.489
193.21	51.315
193.58	33.647
193.94	28.917
194.31	26.044
194.68	26.314
195.05	16.440
195.42	23.815
195.79	10.028
196.15	19.571
196.52	17.458
196.89	18.652
197.26	-29.213
197.63	4.523
198.00	4.115
198.36	3.496
198.73	-20.815
199.10	-37.721
199.47	-38.991
199.84	-19.766
200.20	-21.761
200.57	-5.244
200.94	10.200
201.31	36.832
201.68	35.774
202.04	33.781
202.41	35.043
202.78	38.486
203.15	55.993
203.51	47.730
203.88	31.852
204.25	20.368
204.62	6.405
204.98	-14.405
205.35	-2.270
205.72	0.111
206.09	11.905
206.46	18.317
206.82	8.539
207.19	9.140
207.56	-12.597
207.92	8.066
208.29	28.355
208.66	29.588
209.03	29.141
209.39	35.617
209.76	25.314
210.13	-11.042
210.50	-13.058
210.86	23.194
211.23	21.412
211.60	20.516
211.96	10.565
212.33	11.833
212.70	7.297
213.07	2.750
213.43	-35.464
213.80	-21.871
214.17	10.749
214.53	11.674
214.90	3.310
215.27	5.326
215.63	11.334
216.00	15.174
216.37	17.149
216.74	3.005
217.10	8.953
217.47	13.117
217.84	14.402
218.20	5.680
218.57	11.502
218.94	9.976
219.30	6.383
219.67	5.536
220.04	2.615
220.40	-4.822
220.77	1.422
221.13	5.153
221.50	5.803
221.87	6.519
222.23	6.607
222.60	-0.722
222.97	-5.678
223.33	-5.736
223.70	-5.096
224.07	-8.042
224.43	-6.209
224.80	-3.098
225.16	-7.586
225.53	-6.666
225.90	-9.883
226.26	-7.226
226.63	-5.756
226.99	-2.571
227.36	-0.372
227.73	1.766
228.09	2.459
228.46	3.996
228.82	4.376
229.19	5.444
229.56	5.760
229.92	8.486
230.29	8.198
230.65	8.108
231.02	5.164
231.38	1.182
231.75	-2.564
232.12	-3.129
232.48	-5.293
232.85	-6.996
233.21	-7.154
233.58	-8.747
233.94	-9.734
234.31	-6.917
234.68	-5.798
235.04	-4.061
235.41	-1.548
235.77	1.292
236.14	1.439
236.50	1.804
236.87	2.964
237.23	3.910
237.60	3.135
237.96	3.641
238.33	2.206
238.69	1.596
239.06	0.942
239.42	1.236
239.79	0.501
240.15	1.339
240.52	1.712
240.88	1.761
241.25	1.281
241.61	1.712
241.98	1.463
242.34	0.964
242.71	0.984
243.07	1.208
243.44	0.942
243.80	0.731
244.17	0.525
244.53	0.300
244.90	0.328
245.26	0.577
245.63	0.556
245.99	0.465
246.36	0.532
246.72	0.745
247.09	0.402
247.45	0.480
247.81	0.817
248.18	0.723
248.54	0.633
248.91	0.020
249.27	0.094
249.64	0.186
250.00	0.271
250.36	0.575
250.73	0.337
251.09	0.788
251.46	1.133
251.82	1.028
252.19	1.540
252.55	1.403
252.91	1.991
253.28	1.918
253.64	1.522
254.01	1.522
254.37	1.467
254.73	1.794
255.10	1.723
255.46	1.752
255.83	1.615
256.19	1.181
256.55	1.251
256.92	1.232
257.28	1.094
257.65	1.440
258.01	1.489
258.37	1.544
258.74	1.228
259.10	1.047
259.46	0.781
259.83	0.711
260.19	0.706
260.55	1.040
260.92	0.954
261.28	0.868
261.64	0.713
262.01	0.527
262.37	0.410
262.73	0.539
263.10	0.787
263.46	0.907
263.82	0.886
264.19	0.893
264.55	0.421
264.91	0.494
265.28	0.223
265.64	-0.013
266.00	0.157
266.37	0.186
266.73	0.474
267.09	0.415
267.46	0.160
267.82	0.189
268.18	0.353
268.54	0.518
268.91	0.378
269.27	0.622
269.63	1.005
270.00	0.979
270.36	0.833
270.72	0.815
271.08	0.930
271.45	1.000
271.81	1.016
272.17	1.016
272.53	1.104
272.90	1.398
273.26	1.711
273.62	1.531
273.98	1.411
274.35	1.262
274.71	1.092
275.07	1.016
275.43	1.199
275.80	1.114
276.16	1.147
276.52	0.887
276.88	0.688
277.25	0.154
277.61	-0.015
277.97	-0.073
278.33	0.241
278.69	0.194
279.06	0.223
279.42	0.280
279.78	0.373
280.14	0.510
280.50	0.601
280.87	0.638
281.23	0.727
281.59	0.815
281.95	0.856
282.31	0.817
282.68	0.631
283.04	0.566
283.40	0.637
283.76	0.770
284.12	0.807
284.48	0.820
284.85	0.790
285.21	0.906
285.57	0.872
285.93	0.901
286.29	0.721
286.65	0.960
287.02	1.289
287.38	1.195
287.74	1.051
288.10	0.903
288.46	0.856
288.82	0.735
289.18	0.607
289.54	0.670
289.91	0.749
290.27	0.861
290.63	0.934
290.99	0.850
291.35	0.833
291.71	0.909
292.07	0.691
292.43	0.748
292.79	0.895
293.16	0.954
293.52	0.984
293.88	1.084
294.24	1.084
294.60	1.164
294.96	0.903
295.32	1.009
295.68	0.991
296.04	1.085
296.40	1.069
296.76	1.130
297.12	1.094
297.49	0.994
297.85	0.780
298.21	0.854
298.57	0.596
298.93	0.818
299.29	0.540
299.65	0.586
300.01	0.700
300.37	0.778
300.73	0.797
301.09	0.916
301.45	1.050
301.81	1.199
302.17	1.196
302.53	1.143
302.89	1.127
303.25	1.244
303.61	1.210
303.97	0.995
304.33	1.081
304.69	1.184
305.05	1.328
305.41	1.298
305.77	1.228
306.13	1.104
306.49	1.138
306.85	1.062
307.21	1.134
307.57	1.076
307.93	1.143
308.29	1.115
308.65	0.962
309.01	0.760
309.37	0.695
309.73	0.736
310.09	0.889
310.45	0.937
310.81	0.967
311.17	0.993
311.53	1.070
311.89	1.149
312.25	1.093
312.61	1.124
312.96	1.249
313.32	1.354
313.68	1.355
314.04	1.182
314.40	1.207
314.76	1.188
315.12	1.094
315.48	1.084
315.84	1.046
316.20	0.968
316.56	0.984
316.92	0.933
317.27	0.864
317.63	0.848
317.99	0.921
318.35	0.905
318.71	0.868
319.07	0.970
319.43	1.029
319.79	1.038
320.15	1.141
320.50	1.119
320.86	1.047
321.22	1.060
321.58	1.030
321.94	0.954
322.30	0.884
322.66	0.924
323.01	0.879
323.37	0.831
323.73	0.829
324.09	0.749
324.45	0.823
324.81	0.887
325.17	0.916
325.52	0.862
325.88	0.845
326.24	0.948
326.60	0.976
326.96	1.018
327.31	0.967
327.67	0.879
328.03	0.910
328.39	0.777
328.75	0.819
329.11	0.790
329.46	0.828
329.82	0.931
330.18	0.889
330.54	0.755
330.90	0.659
331.25	0.691
331.61	0.884
331.97	0.908
332.33	1.024
332.68	1.026
333.04	1.072
333.40	1.027
333.76	0.978
334.11	0.985
334.47	1.047
334.83	1.085
335.19	1.062
335.54	1.006
335.90	0.945
336.26	0.929
336.62	0.812
336.97	0.785
337.33	0.816
337.69	0.831
338.05	0.745
338.40	0.770
338.76	0.794
339.12	0.914
339.48	0.847
339.83	0.896
340.19	0.843
340.55	0.962
340.90	0.882
341.26	0.909
341.62	0.911
341.97	0.986
342.33	0.996
342.69	1.020
343.04	0.941
343.40	0.891
343.76	0.885
344.12	0.973
344.47	0.996
344.83	1.167
345.19	1.153
345.54	1.236
345.90	1.302
346.26	1.363
346.61	1.352
346.97	1.376
347.32	1.485
347.68	1.516
348.04	1.452
348.39	1.367
348.75	1.302
349.11	1.330
349.46	1.267
349.82	1.255
350.18	1.201
350.53	1.227
350.89	1.298
351.24	1.303
351.60	1.338
351.96	1.470
352.31	1.585
352.67	1.669
353.02	1.722
353.38	1.807
353.74	1.829
354.09	1.860
354.45	1.933
354.80	1.940
355.16	1.988
355.52	1.977
355.87	1.926
356.23	1.962
356.58	1.969
356.94	2.020
357.29	2.015
357.65	2.121
358.00	2.182
358.36	2.271
358.72	2.282
359.07	2.390
359.43	2.478
359.78	2.572
360.14	2.597
360.49	2.667
360.85	2.686
361.20	2.769
361.56	2.786
361.91	2.854
362.27	2.834
362.62	2.956
362.98	2.972
363.33	3.006
363.69	3.024
364.04	3.098
364.40	3.111
364.75	3.151
365.11	3.171
365.46	3.202
365.82	3.313
366.17	3.382
366.53	3.350
366.88	3.365
367.24	3.491
367.59	3.577
367.95	3.676
368.30	3.708
368.66	3.807
369.01	3.892
369.37	3.970
369.72	3.964
370.08	4.056
370.43	4.176
370.78	4.251
371.14	4.178
371.49	4.198
371.85	4.196
372.20	4.267
372.56	4.296
372.91	4.336
373.26	4.366
373.62	4.345
373.97	4.379
374.33	4.376
374.68	4.385
375.03	4.512
375.39	4.537
375.74	4.546
376.10	4.562
376.45	4.600
376.80	4.665
377.16	4.656
377.51	4.781
377.87	4.801
378.22	4.815
378.57	4.879
378.93	4.957
379.28	5.051
379.63	5.093
379.99	5.198
380.34	5.253
380.70	5.271
381.05	5.366
381.40	5.373
381.76	5.444
382.11	5.502
382.46	5.570
382.82	5.607
383.17	5.665
383.52	5.716
383.88	5.736
384.23	5.790
384.58	5.782
384.94	5.786
385.29	5.828
385.64	5.838
385.99	5.904
386.35	5.921
386.70	5.938
387.05	5.889
387.41	5.963
387.76	5.950
388.11	5.941
388.47	5.989
388.82	6.048
389.17	6.065
389.52	6.079
389.88	6.103
390.23	6.138
390.58	6.144
390.93	6.189
391.29	6.186
391.64	6.238
391.99	6.323
392.34	6.392
392.70	6.413
393.05	6.439
393.40	6.465
393.75	6.471
394.11	6.467
394.46	6.460
394.81	6.464
395.16	6.466
395.52	6.468
395.87	6.446
396.22	6.421
396.57	6.414
396.92	6.393
397.28	6.355
397.63	6.315
397.98	6.315
398.33	6.289
398.68	6.285
399.04	6.290
399.39	6.282
399.74	6.244
400.09	6.243
400.44	6.223
400.80	6.241
401.15	6.241
401.50	6.249
401.85	6.251
402.20	6.244
402.55	6.254
402.90	6.221
403.26	6.210
403.61	6.189
403.96	6.184
404.31	6.189
404.66	6.161
405.01	6.149
405.36	6.157
405.72	6.107
406.07	6.116
406.42	6.088
406.77	6.090
407.12	6.081
407.47	6.103
407.82	6.082
408.17	6.054
408.53	6.073
408.88	6.061
409.23	6.015
409.58	6.038
409.93	6.051
410.28	6.066
410.63	6.038
410.98	6.027
411.33	5.983
411.68	5.986
412.03	6.014
412.38	5.977
412.73	6.038
413.09	6.061
413.44	6.073
413.79	6.072
414.14	6.072
414.49	6.090
414.84	6.119
415.19	6.165
415.54	6.217
415.89	6.217
416.24	6.263
416.59	6.261
416.94	6.300
417.29	6.312
417.64	6.308
417.99	6.325
418.34	6.345
418.69	6.340
419.04	6.315
419.39	6.303
419.74	6.299
420.09	6.293
420.44	6.286
420.79	6.271
421.14	6.260
421.49	6.275
421.84	6.255
422.19	6.257
422.54	6.252
422.89	6.269
423.24	6.248
423.59	6.244
423.94	6.216
424.29	6.209
424.64	6.197
424.99	6.187
425.34	6.156
425.68	6.157
426.03	6.125
426.38	6.109
426.73	6.096
427.08	6.071
427.43	6.082
427.78	6.102
428.13	6.073
428.48	6.048
428.83	6.028
429.18	6.020
429.53	6.012
429.87	5.998
430.22	6.000
430.57	6.009
430.92	6.014
431.27	6.005
431.62	5.983
431.97	5.979
432.32	6.005
432.67	6.002
433.01	6.007
433.36	5.997
433.71	5.988
434.06	5.965
434.41	5.932
434.76	5.930
435.11	5.922
435.45	5.922
435.80	5.932
436.15	5.925
436.50	5.941
436.85	5.960
437.20	5.968
437.54	5.985
437.89	6.006
438.24	6.018
438.59	6.027
438.94	6.024
439.29	6.029
439.63	6.062
439.98	6.084
440.33	6.102
440.68	6.109
441.03	6.143
441.37	6.177
441.72	6.211
442.07	6.257
442.42	6.296
442.76	6.350
443.11	6.392
443.46	6.415
443.81	6.428
444.16	6.461
444.50	6.484
444.85	6.494
445.20	6.511
445.55	6.541
445.89	6.546
446.24	6.569
446.59	6.568
446.94	6.603
447.28	6.623
447.63	6.650
447.98	6.673
448.32	6.683
448.67	6.730
449.02	6.760
449.37	6.776
449.71	6.819
450.06	6.842
450.41	6.885
450.75	6.902
451.10	6.930
451.45	6.944
451.79	6.959
452.14	6.997
452.49	7.014
452.84	7.035
453.18	7.044
453.53	7.045
453.88	7.075
454.22	7.082
454.57	7.086
454.92	7.090
455.26	7.114
455.61	7.157
455.95	7.193
456.30	7.212
456.65	7.233
456.99	7.251
457.34	7.287
457.69	7.290
458.03	7.295
458.38	7.331
458.73	7.338
459.07	7.336
459.42	7.310
459.76	7.283
460.11	7.254
460.46	7.233
460.80	7.225
461.15	7.192
461.49	7.158
461.84	7.151
462.19	7.100
462.53	7.088
462.88	7.085
463.22	7.095
463.57	7.114
463.91	7.117
464.26	7.146
464.61	7.149
464.95	7.142
465.30	7.159
465.64	7.177
465.99	7.189
466.33	7.199
466.68	7.196
467.02	7.196
467.37	7.175
467.71	7.177
468.06	7.166
468.41	7.149
468.75	7.161
469.10	7.155
469.44	7.134
469.79	7.111
470.13	7.070
470.48	7.060
470.82	7.040
471.17	7.041
471.51	7.048
471.86	7.033
472.20	7.047
472.55	7.047
472.89	7.053
473.23	7.053
473.58	7.071
473.92	7.103
474.27	7.117
474.61	7.126
474.96	7.144
475.30	7.151
475.65	7.139
475.99	7.147
476.34	7.151
476.68	7.155
477.02	7.180
477.37	7.186
477.71	7.222
478.06	7.282
478.40	7.377
478.75	7.466
479.09	7.579
479.43	7.738
479.78	7.913
480.12	8.093
480.47	8.279
480.81	8.449
481.15	8.639
481.50	8.818
481.84	9.023
482.19	9.221
482.53	9.398
482.87	9.498
483.22	9.506
483.56	9.407
483.90	9.260
484.25	9.084
484.59	8.895
484.94	8.715
485.28	8.559
485.62	8.377
485.97	8.181
486.31	8.012
486.65	7.913
487.00	7.873
487.34	7.918
487.68	7.986
488.03	8.079
488.37	8.171
488.71	8.241
489.06	8.264
489.40	8.282
489.74	8.290
490.09	8.303
490.43	8.304
490.77	8.312
491.11	8.315
491.46	8.348
491.80	8.345
492.14	8.355
492.49	8.373
492.83	8.391
493.17	8.395
493.51	8.428
493.86	8.458
494.20	8.516
494.54	8.583
494.88	8.641
495.23	8.694
495.57	8.775
495.91	8.855
496.25	8.926
496.60	9.011
496.94	9.077
497.28	9.148
497.62	9.214
497.97	9.299
498.31	9.394
498.65	9.476
498.99	9.566
499.33	9.681
499.68	9.789
500.02	9.885
500.36	9.962
500.70	10.068
501.04	10.174
501.39	10.289
501.73	10.394
502.07	10.492
502.41	10.607
502.75	10.737
503.09	10.846
503.44	10.973
503.78	11.088
504.12	11.244
504.46	11.388
504.80	11.545
505.14	11.708
505.49	11.857
505.83	11.999
506.17	12.162
506.51	12.291
506.85	12.432
507.19	12.562
507.53	12.710
507.87	12.853
508.22	12.987
508.56	13.109
508.90	13.210
509.24	13.324
509.58	13.472
509.92	13.620
510.26	13.761
510.60	13.907
510.94	14.067
511.28	14.206
511.63	14.338
511.97	14.496
512.31	14.674
512.65	14.848
512.99	15.039
513.33	15.248
513.67	15.435
514.01	15.662
514.35	15.846
514.69	16.053
515.03	16.264
515.37	16.465
515.71	16.643
516.05	16.793
516.39	16.974
516.73	17.118
517.07	17.250
517.41	17.371
517.75	17.460
518.09	17.576
518.43	17.666
518.77	17.743
519.11	17.844
519.45	17.948
519.79	18.070
520.13	18.176
520.47	18.312
520.81	18.433
521.15	18.606
521.49	18.772
521.83	18.967
522.17	19.136
522.51	19.346
522.85	19.557
523.19	19.788
523.53	20.056
523.87	20.342
524.21	20.627
524.55	20.894
524.89	21.120
525.23	21.350
525.57	21.543
525.91	21.735
526.25	21.912
526.58	22.051
526.92	22.179
527.26	22.245
527.60	22.270
527.94	22.288
528.28	22.284
528.62	22.266
528.96	22.236
529.30	22.200
529.64	22.161
529.97	22.112
530.31	22.067
530.65	22.039
530.99	22.039
531.33	22.068
531.67	22.092
532.01	22.116
532.35	22.134
532.68	22.146
533.02	22.147
533.36	22.136
533.70	22.117
534.04	22.114
534.38	22.080
534.71	22.065
535.05	22.054
535.39	22.036
535.73	22.037
536.07	22.055
536.41	22.077
536.74	22.152
537.08	22.211
537.42	22.314
537.76	22.395
538.10	22.502
538.43	22.581
538.77	22.669
539.11	22.759
539.45	22.817
539.79	22.868
540.12	22.906
540.46	22.904
540.80	22.899
541.14	22.860
541.47	22.816
541.81	22.764
542.15	22.731
542.49	22.663
542.82	22.562
543.16	22.497
543.50	22.437
543.84	22.401
544.17	22.351
544.51	22.351
544.85	22.342
545.18	22.334
545.52	22.323
545.86	22.298
546.20	22.301
546.53	22.311
546.87	22.292
547.21	22.275
547.54	22.245
547.88	22.252
548.22	22.228
548.55	22.201
548.89	22.221
549.23	22.228
549.56	22.217
549.90	22.211
550.24	22.205
550.57	22.211
550.91	22.195
551.25	22.211
551.58	22.197
551.92	22.187
552.26	22.174
552.59	22.180
552.93	22.158
553.27	22.152
553.60	22.130
553.94	22.106
554.27	22.099
554.61	22.123
554.95	22.088
555.28	22.062
555.62	22.047
555.95	22.060
556.29	22.011
556.63	21.977
556.96	21.939
557.30	21.902
557.63	21.859
557.97	21.803
558.31	21.720
558.64	21.675
558.98	21.656
559.31	21.644
559.65	21.587
559.98	21.522
560.32	21.462
560.65	21.421
560.99	21.372
561.33	21.326
561.66	21.277
562.00	21.246
562.33	21.232
562.67	21.196
563.00	21.116
563.34	21.065
563.67	21.042
564.01	20.991
564.34	20.900
564.68	20.847
565.01	20.812
565.35	20.770
565.68	20.693
566.02	20.591
566.35	20.518
566.69	20.416
567.02	20.334
567.36	20.240
567.69	20.172
568.03	20.131
568.36	20.059
568.69	19.963
569.03	19.892
569.36	19.834
569.70	19.769
570.03	19.676
570.37	19.627
570.70	19.574
571.04	19.509
571.37	19.429
571.70	19.358
572.04	19.289
572.37	19.226
572.71	19.148
573.04	19.088
573.37	19.025
573.71	18.976
574.04	18.918
574.38	18.853
574.71	18.793
575.04	18.738
575.38	18.661
575.71	18.569
576.05	18.484
576.38	18.424
576.71	18.333
577.05	18.270
577.38	18.195
577.71	18.110
578.05	18.006
578.38	17.924
578.71	17.854
579.05	17.772
579.38	17.727
579.71	17.684
580.05	17.609
580.38	17.591
580.71	17.524
581.05	17.467
581.38	17.419
581.71	17.382
582.05	17.323
582.38	17.302
582.71	17.267
583.04	17.247
583.38	17.198
583.71	17.153
584.04	17.104
584.38	17.090
584.71	17.063
585.04	17.060
585.37	17.052
585.71	17.041
586.04	17.018
586.37	17.043
586.70	17.005
587.04	16.984
587.37	16.971
587.70	16.936
588.03	16.903
588.37	16.892
588.70	16.861
589.03	16.827
589.36	16.808
589.69	16.757
590.03	16.725
590.36	16.717
590.69	16.684
591.02	16.642
591.35	16.620
591.69	16.603
592.02	16.554
592.35	16.515
592.68	16.514
593.01	16.492
593.35	16.477
593.68	16.421
594.01	16.413
594.34	16.399
594.67	16.372
595.00	16.333
595.34	16.281
595.67	16.254
596.00	16.221
596.33	16.153
596.66	16.103
596.99	16.045
597.32	16.013
597.65	15.961
597.99	15.918
598.32	15.893
598.65	15.841
598.98	15.822
599.31	15.788
599.64	15.771
599.97	15.721
600.30	15.707
600.63	15.700
600.96	15.680
601.30	15.633
601.63	15.617
601.96	15.603
602.29	15.614
602.62	15.588
602.95	15.549
603.28	15.520
603.61	15.528
603.94	15.491
604.27	15.469
604.60	15.438
604.93	15.407
605.26	15.354
605.59	15.320
605.92	15.252
606.25	15.207
606.58	15.187
606.91	15.121
607.24	15.067
607.57	15.035
607.90	14.985
608.23	14.917
608.56	14.858
608.89	14.821
609.22	14.771
609.55	14.729
609.88	14.656
610.21	14.595
610.54	14.540
610.87	14.472
611.20	14.381
611.53	14.295
611.86	14.232
612.19	14.162
612.52	14.061
612.85	13.975
613.18	13.921
613.51	13.829
613.84	13.745
614.17	13.678
614.49	13.647
614.82	13.587
615.15	13.556
615.48	13.552
615.81	13.535
616.14	13.521
616.47	13.468
616.80	13.416
617.13	13.387
617.46	13.366
617.78	13.318
618.11	13.254
618.44	13.214
618.77	13.180
619.10	13.106
619.43	13.042
619.76	12.999
620.09	12.976
620.41	12.951
620.74	12.966
621.07	12.933
621.40	12.924
621.73	12.912
622.06	12.931
622.38	12.922
622.71	12.938
623.04	12.964
623.37	12.978
623.70	12.985
624.02	13.003
624.35	13.019
624.68	13.043
625.01	13.043
625.34	13.071
625.66	13.064
625.99	13.060
626.32	13.044
626.65	13.065
626.98	13.077
627.30	13.068
627.63	13.026
627.96	12.959
628.29	12.905
628.61	12.929
628.94	12.897
629.27	12.859
629.60	12.804
629.92	12.813
630.25	12.736
630.58	12.694
630.91	12.651
631.23	12.651
631.56	12.646
631.89	12.615
632.21	12.559
632.54	12.526
632.87	12.478
633.19	12.474
633.52	12.373
633.85	12.324
634.18	12.239
634.50	12.192
634.83	12.107
635.16	12.020
635.48	11.937
635.81	11.821
636.14	11.692
636.46	11.624
636.79	11.511
637.11	11.438
637.44	11.310
637.77	11.224
638.09	11.104
638.42	11.012
638.75	10.905
639.07	10.826
639.40	10.738
639.73	10.639
640.05	10.541
640.38	10.477
640.70	10.380
641.03	10.285
641.36	10.189
641.68	10.132
642.01	10.053
642.33	9.987
642.66	9.897
642.98	9.811
643.31	9.778
643.64	9.717
643.96	9.654
644.29	9.597
644.61	9.566
644.94	9.526
645.26	9.492
645.59	9.480
645.91	9.475
646.24	9.479
646.56	9.491
646.89	9.442
647.22	9.423
647.54	9.396
647.87	9.392
648.19	9.362
648.52	9.327
648.84	9.302
649.17	9.262
649.49	9.252
649.82	9.215
650.14	9.179
650.47	9.157
650.79	9.114
651.11	9.093
651.44	9.064
651.76	9.041
652.09	9.119
652.41	9.104
652.74	9.085
653.06	9.061
653.39	9.057
653.71	9.077
654.04	9.064
654.36	9.057
654.68	9.029
655.01	9.022
655.33	9.031
655.66	8.973
655.98	8.987
656.30	8.937
656.63	8.908
656.95	8.898
657.28	8.833
657.60	8.782
657.92	8.752
658.25	8.707
658.57	8.698
658.90	8.665
659.22	8.598
659.54	8.508
659.87	8.466
660.19	8.346
660.51	8.276
660.84	8.218
661.16	8.204
661.48	8.197
661.81	8.154
662.13	8.006
662.45	8.012
662.78	8.001
663.10	8.014
663.42	7.993
663.75	8.072
664.07	8.033
664.39	8.033
664.72	8.042
665.04	8.021
665.36	8.089
665.69	8.179
666.01	8.223
666.33	8.289
666.65	8.284
666.98	8.401
667.30	8.479
667.62	8.590
667.94	8.716
668.27	8.836
668.59	8.953
668.91	9.054
669.23	9.192
669.56	9.276
669.88	9.381
670.20	9.538
670.52	9.640
670.85	9.775
671.17	9.937
671.49	10.054
671.81	10.197
672.13	10.348
672.46	10.474
672.78	10.673
673.10	10.886
673.42	11.116
673.74	11.310
674.07	11.566
674.39	11.797
674.71	11.967
675.03	12.170
675.35	12.347
675.67	12.477
676.00	12.654
676.32	12.732
676.64	12.853
676.96	12.984
677.28	13.183
677.60	13.272
677.92	13.364
678.25	13.577
678.57	13.789
678.89	13.981
679.21	14.225
679.53	14.456
679.85	14.734
680.17	14.997
680.49	15.220
680.81	15.433
681.13	15.698
681.46	16.003
681.78	16.216
682.10	16.473
682.42	16.746
682.74	17.021
683.06	17.288
683.38	17.537
683.70	17.812
684.02	18.119
684.34	18.406
684.66	18.701
684.98	18.955
685.30	19.208
685.62	19.402
685.94	19.607
686.26	19.769
686.58	19.910
686.90	20.091
687.22	20.176
687.54	20.268
687.86	20.363
688.18	20.483
688.50	20.608
688.82	20.761
689.14	20.967
689.46	21.181
689.78	21.416
690.10	21.743
690.42	21.987
690.74	22.304
691.06	22.573
691.38	22.886
691.70	23.138
692.02	23.368
692.34	23.620
692.66	23.831
692.98	23.992
693.30	24.195
693.62	24.349
693.94	24.474
694.26	24.560
694.57	24.717
694.89	24.844
695.21	24.953
695.53	25.117
695.85	25.187
696.17	25.289
696.49	25.465
696.81	25.582
697.13	25.697
697.44	25.897
697.76	26.123
698.08	26.358
698.40	26.557
698.72	26.782
699.04	26.999
699.36	27.311
699.67	27.616
699.99	27.870
700.31	28.256
700.63	28.580
700.95	28.899
701.27	29.202
701.58	29.453
701.90	29.699
702.22	30.114
702.54	30.364
702.86	30.704
703.17	30.881
703.49	31.163
703.81	31.329
704.13	31.523
704.45	31.720
704.76	31.965
705.08	32.182
705.40	32.343
705.72	32.433
706.03	32.666
706.35	32.828
706.67	33.092
706.99	33.204
707.30	33.511
707.62	33.767
707.94	33.995
708.26	34.160
708.57	34.361
708.89	34.680
709.21	34.862
709.53	35.138
709.84	35.294
710.16	35.498
710.48	35.836
710.79	35.982
711.11	36.105
711.43	36.230
711.74	36.508
712.06	36.729
712.38	37.017
712.69	37.334
713.01	37.606
713.33	37.923
713.64	38.303
713.96	38.474
714.28	38.738
714.59	39.152
714.91	39.649
715.23	39.971
715.54	40.258
715.86	40.549
716.17	40.883
716.49	41.215
716.81	41.558
717.12	41.793
717.44	42.247
717.76	42.679
718.07	42.941
718.39	43.103
718.70	43.367
719.02	43.549
719.33	43.750
719.65	43.963
719.97	44.143
720.28	44.350
720.60	44.560
720.91	44.827
721.23	45.013
721.54	45.260
721.86	45.582
722.17	45.759
722.49	45.990
722.81	46.083
723.12	46.249
723.44	46.408
723.75	46.509
724.07	46.719
724.38	46.783
724.70	46.920
725.01	47.003
725.33	47.030
725.64	47.149
725.96	47.364
726.27	47.457
726.59	47.630
726.90	47.726
727.22	47.771
727.53	47.951
727.84	48.073
728.16	48.047
728.47	48.076
728.79	48.169
729.10	48.278
729.42	48.339
729.73	48.461
730.05	48.593
730.36	48.726
730.67	48.972
730.99	49.019
731.30	49.046
731.62	49.279
731.93	49.441
732.24	49.542
732.56	49.617
732.87	49.787
733.19	50.035
733.50	50.120
733.81	50.188
734.13	50.305
734.44	50.333
734.76	50.472
735.07	50.486
735.38	50.603
735.70	50.798
736.01	50.911
736.32	50.928
736.64	51.034
736.95	50.932
737.26	50.963
737.58	50.837
737.89	50.867
738.20	50.819
738.52	50.916
738.83	50.910
739.14	50.853
739.45	50.877
739.77	51.069
740.08	51.115
740.39	51.213
740.71	51.408
741.02	51.626
741.33	51.733
741.64	51.929
741.96	52.124
742.27	52.361
742.58	52.551
742.90	52.627
743.21	52.534
743.52	52.449
743.83	52.575
744.14	52.584
744.46	52.683
744.77	52.801
745.08	52.717
745.39	52.483
745.71	52.298
746.02	52.140
746.33	52.134
746.64	52.112
746.95	52.236
747.27	52.337
747.58	52.349
747.89	52.279
748.20	52.238
748.51	52.417
748.82	52.324
749.14	52.334
749.45	52.459
749.76	52.455
750.07	52.614
750.38	52.509
750.69	52.450
751.01	52.237
751.32	52.199
751.63	52.183
751.94	52.039
752.25	52.012
752.56	52.017
752.87	51.835
753.18	51.779
753.49	51.751
753.81	51.729
754.12	51.505
754.43	51.608
754.74	51.665
755.05	51.741
755.36	51.867
755.67	52.099
755.98	52.206
756.29	52.295
756.60	52.437
756.91	52.412
757.22	52.528
757.53	52.800
757.84	52.993
758.15	53.062
758.46	53.134
758.77	53.068
759.09	53.025
759.40	52.913
759.71	52.835
760.02	52.711
760.33	52.583
760.64	52.532
760.95	52.561
761.26	52.313
761.57	52.084
761.88	51.846
762.18	51.747
762.49	51.672
762.80	51.630
763.11	51.657
763.42	51.624
763.73	51.625
764.04	51.589
764.35	51.378
764.66	51.301
764.97	51.305
765.28	51.444
765.59	51.373
765.90	51.122
766.21	50.919
766.52	50.772
766.83	50.690
767.14	50.593
767.44	50.194
767.75	49.933
768.06	49.971
768.37	49.775
768.68	49.314
768.99	49.193
769.30	49.276
769.61	49.212
769.91	49.183
770.22	48.677
770.53	48.450
770.84	48.587
771.15	48.651
771.46	48.357
771.77	48.515
772.07	48.386
772.38	48.334
772.69	48.279
773.00	48.350
773.31	48.193
773.61	48.330
773.92	48.036
774.23	47.910
774.54	47.653
774.85	47.471
775.15	47.171
775.46	47.303
775.77	47.477
776.08	47.354
776.39	47.362
776.69	47.357
777.00	47.451
777.31	48.134
777.62	47.975
777.92	48.058
778.23	48.079
778.54	48.093
778.85	48.161
779.15	47.934
779.46	48.214
779.77	48.144
780.07	48.150
780.38	48.319
780.69	47.696
781.00	47.892
781.30	47.786
781.61	47.851
781.92	48.192
782.22	48.349
782.53	48.187
782.84	47.818
783.14	47.934
783.45	47.946
783.76	48.264
784.06	48.407
784.37	48.348
784.68	48.469
784.98	48.709
785.29	48.586
785.60	48.562
785.90	48.693
786.21	48.861
786.51	48.606
786.82	48.798
787.13	48.600
787.43	48.682
787.74	48.750
788.04	49.021
788.35	49.148
788.66	49.059
788.96	49.102
789.27	49.155
789.57	49.186
789.88	49.530
790.19	49.497
790.49	49.345
790.80	49.417
791.10	49.081
791.41	49.139
791.71	48.903
792.02	49.096
792.32	48.782
792.63	48.752
792.93	48.703
793.24	48.594
793.54	48.389
793.85	48.195
794.15	48.270
794.46	48.777
794.76	48.373
795.07	48.489
795.37	48.288
795.68	48.636
795.98	48.958
796.29	49.284
796.59	49.276
796.90	49.336
797.20	49.507
797.51	49.521
797.81	49.112
798.12	49.469
798.42	49.662
798.72	49.636
799.03	49.499
799.33	49.077
799.64	48.746
799.94	49.027
800.25	48.903
800.55	48.756
800.85	49.058
801.16	49.520
801.46	49.070
801.77	48.835
802.07	49.396
802.37	49.432
802.68	49.480
802.98	49.658
803.28	49.422
803.59	49.815
803.89	50.054
804.20	49.782
804.50	49.822
804.80	50.190
805.11	50.030
805.41	49.568
805.71	49.575
806.02	50.021
806.32	49.915
806.62	50.089
806.93	49.810
807.23	50.314
807.53	50.232
807.83	50.180
808.14	50.389
808.44	50.526
808.74	50.595
809.05	50.408
809.35	50.089
809.65	50.522
809.95	50.603
810.26	50.871
810.56	50.528
810.86	50.753
811.16	51.072
811.47	51.514
811.77	52.145
812.07	52.111
812.37	52.384
812.68	52.682
812.98	52.693
813.28	52.737
813.58	53.056
813.88	52.972
814.19	53.139
814.49	52.995
814.79	52.677
815.09	52.749
815.39	52.757
815.70	52.803
816.00	52.590
816.30	52.532
816.60	52.548
816.90	52.617
817.20	53.074
817.50	52.880
817.81	52.642
818.11	52.512
818.41	52.417
818.71	52.217
819.01	52.222
819.31	52.425
819.61	52.736
819.92	52.891
820.22	52.928
820.52	52.960
820.82	53.027
821.12	53.241
821.42	53.393
821.72	53.539
822.02	53.904
822.32	54.216
822.62	54.451
822.92	54.552
823.22	54.796
823.52	55.043
823.83	55.133
824.13	55.283
824.43	55.276
824.73	55.406
825.03	55.414
825.33	55.359
825.63	55.079
825.93	54.893
826.23	54.669
826.53	54.462
826.83	54.258
827.13	54.418
827.43	54.608
827.73	54.955
828.03	55.181
828.33	55.339
828.63	55.442
828.93	55.916
829.23	55.799
829.53	55.751
829.83	55.482
830.13	55.417
830.42	54.854
830.72	54.586
831.02	54.107
831.32	53.581
831.62	53.555
831.92	53.401
832.22	53.235
832.52	53.139
832.82	53.249
833.12	53.328
833.42	53.359
833.72	53.459
834.01	53.662
834.31	53.809
834.61	54.017
834.91	54.435
835.21	54.681
835.51	54.943
835.81	55.310
836.11	55.570
836.40	55.771
836.70	55.884
837.00	56.458
837.30	55.977
837.60	55.663
837.90	55.761
838.19	54.978
838.49	54.629
838.79	54.051
839.09	54.472
839.39	54.165
839.68	54.569
839.98	53.931
840.28	53.469
840.58	53.205
840.88	53.540
841.17	52.631
841.47	53.328
841.77	53.656
842.07	54.017
842.36	53.336
842.66	53.128
842.96	51.604
843.26	51.673
843.55	51.187
843.85	52.258
844.15	51.461
844.45	51.671
844.74	51.819
845.04	51.179
845.34	50.852
845.63	50.270
845.93	50.808
846.23	51.458
846.53	50.971
846.82	51.347
847.12	49.895
847.42	50.179
847.71	50.836
848.01	50.054
848.31	49.821
848.60	49.333
848.90	49.172
849.19	47.407
849.49	47.829
849.79	48.710
850.08	49.033
850.38	49.732
850.68	49.990
850.97	50.661
851.27	49.278
851.56	50.172
851.86	51.334
852.16	52.003
852.45	52.519
852.75	51.200
853.04	53.070
853.34	53.106
853.64	52.596
853.93	50.892
854.23	48.865
854.52	48.774
854.82	47.515
855.11	45.895
855.41	47.436
855.70	49.549
856.00	49.514
856.30	47.850
856.59	47.770
856.89	49.409
857.18	52.299
857.48	52.301
857.77	50.272
858.07	50.666
858.36	50.510
858.66	48.137
858.95	48.169
859.25	48.676
859.54	49.086
859.84	49.373
860.13	47.786
860.42	46.153
860.72	46.616
861.01	50.101
861.31	51.410
861.60	53.764
861.90	54.427
862.19	53.959
862.49	53.664
862.78	53.032
863.07	51.789
863.37	52.298
863.66	51.862
863.96	54.458
864.25	52.991
864.54	51.804
864.84	51.202
865.13	50.880
865.43	50.958
865.72	50.053
866.01	52.503
866.31	64.805
866.60	41.519
866.89	57.766
>>>>>End Spectral Data<<<<<
