OOIBase32 Version 2.0.0.6 Data File
++++++++++++++++++++++++++++++++++++
Date: 01-23-2012, 23:09:28
User: Valued Ocean Optics Customer
Spectrometer Serial Number: USB2E2917
Spectrometer Channel: Master
Integration Time (msec): 5
Spectra Averaged: 10
Boxcar Smoothing: 5
Correct for Electrical Dark: Enabled
Time Normalized: Disabled
Dual-beam Reference: Disabled
Reference Channel: Master
Temperature: Not acquired
Spectrometer Type: S2000
ADC Type: USB2000
Number of Pixels in File: 2048
Graph Title: 
>>>>>Begin Spectral Data<<<<<
180.30	0.000
180.67	0.000
181.03	30.811
181.40	476.839
181.77	-9832.951
182.14	-12.676
182.51	-746.575
182.88	-99.038
183.25	42.846
183.62	40.852
183.99	98.210
184.36	81.971
184.73	610.532
185.10	42.859
185.46	148.009
185.83	-572.003
186.20	90.254
186.57	38.912
186.94	-63.466
187.31	-3.431
187.68	91.782
188.05	107.644
188.42	105.423
188.78	221.633
189.15	367.424
189.52	-119.808
189.89	-21.544
190.26	5.762
190.63	19.444
191.00	32.100
191.37	35.889
191.73	50.892
192.10	51.031
192.47	43.436
192.84	51.323
193.21	52.941
193.58	49.397
193.94	59.729
194.31	52.288
194.68	38.332
195.05	35.853
195.42	45.913
195.79	33.885
196.15	29.671
196.52	47.055
196.89	27.723
197.26	7.844
197.63	30.860
198.00	30.087
198.36	34.944
198.73	34.226
199.10	2.308
199.47	-5.153
199.84	-5.573
200.20	-17.707
200.57	-30.245
200.94	-23.333
201.31	-9.902
201.68	-20.568
202.04	-26.689
202.41	-28.180
202.78	-31.462
203.15	-25.580
203.51	-25.936
203.88	-23.066
204.25	-11.632
204.62	-27.550
204.98	-51.407
205.35	-36.540
205.72	-33.552
206.09	-12.150
206.46	-66.112
206.82	-48.861
207.19	-49.729
207.56	-78.639
207.92	-82.100
208.29	-87.319
208.66	-43.732
209.03	-17.233
209.39	-23.138
209.76	-35.524
210.13	-97.865
210.50	-52.566
210.86	-55.283
211.23	-67.165
211.60	-59.558
211.96	-63.484
212.33	-50.988
212.70	-64.548
213.07	-71.994
213.43	-109.253
213.80	-94.216
214.17	-60.942
214.53	-59.940
214.90	-47.777
215.27	-36.950
215.63	-41.761
216.00	-28.586
216.37	-35.102
216.74	-41.308
217.10	-37.276
217.47	-37.298
217.84	-28.540
218.20	-24.742
218.57	-9.940
218.94	-8.367
219.30	-12.119
219.67	-9.320
220.04	-12.665
220.40	-12.351
220.77	-7.826
221.13	-4.769
221.50	5.848
221.87	4.306
222.23	0.686
222.60	-4.950
222.97	-5.281
223.33	-7.297
223.70	-6.073
224.07	-8.076
224.43	-7.671
224.80	-6.424
225.16	-7.886
225.53	-11.093
225.90	-13.196
226.26	-9.884
226.63	-7.485
226.99	-5.929
227.36	-5.432
227.73	-4.441
228.09	-3.631
228.46	-2.158
228.82	-1.360
229.19	-1.627
229.56	-0.004
229.92	2.624
230.29	2.392
230.65	3.022
231.02	-0.559
231.38	-1.470
231.75	-2.551
232.12	-4.561
232.48	-7.348
232.85	-8.660
233.21	-6.631
233.58	-10.069
233.94	-9.721
234.31	-9.702
234.68	-9.735
235.04	-7.765
235.41	-6.041
235.77	-4.796
236.14	-1.779
236.50	-0.528
236.87	-0.764
237.23	-1.155
237.60	-0.181
237.96	-0.654
238.33	-0.740
238.69	-2.049
239.06	-1.694
239.42	-1.696
239.79	-1.888
240.15	-1.817
240.52	-1.038
240.88	-0.094
241.25	0.086
241.61	0.522
241.98	0.549
242.34	0.320
242.71	0.849
243.07	0.774
243.44	0.703
243.80	0.690
244.17	0.298
244.53	-0.034
244.90	-0.079
245.26	-0.061
245.63	-0.251
245.99	-0.421
246.36	-0.333
246.72	-0.336
247.09	-0.616
247.45	-0.371
247.81	-0.065
248.18	-0.185
248.54	-0.089
248.91	-0.504
249.27	-0.705
249.64	-0.226
250.00	0.084
250.36	-0.288
250.73	-0.320
251.09	-0.163
251.46	-0.712
251.82	-0.978
252.19	-0.674
252.55	-0.765
252.91	-0.079
253.28	0.077
253.64	-0.659
254.01	-0.954
254.37	0.072
254.73	0.022
255.10	0.483
255.46	1.103
255.83	1.101
256.19	1.163
256.55	1.055
256.92	0.769
257.28	0.624
257.65	0.768
258.01	0.896
258.37	0.635
258.74	0.545
259.10	0.378
259.46	0.081
259.83	0.041
260.19	-0.066
260.55	-0.103
260.92	-0.279
261.28	-0.298
261.64	-0.262
262.01	-0.307
262.37	-0.444
262.73	-0.428
263.10	-0.291
263.46	-0.356
263.82	-0.550
264.19	-0.622
264.55	-0.786
264.91	-0.801
265.28	-0.754
265.64	-0.947
266.00	-1.060
266.37	-1.039
266.73	-1.122
267.09	-1.145
267.46	-0.666
267.82	-0.658
268.18	-0.553
268.54	-0.143
268.91	0.063
269.27	0.111
269.63	0.558
270.00	0.607
270.36	0.646
270.72	0.953
271.08	1.024
271.45	0.666
271.81	0.686
272.17	0.715
272.53	0.360
272.90	0.211
273.26	0.463
273.62	0.121
273.98	0.185
274.35	0.062
274.71	-0.166
275.07	-0.168
275.43	0.103
275.80	0.206
276.16	0.090
276.52	0.256
276.88	0.357
277.25	-0.077
277.61	-0.202
277.97	-0.594
278.33	-0.414
278.69	-0.398
279.06	-0.426
279.42	-0.616
279.78	-0.591
280.14	-0.332
280.50	-0.237
280.87	-0.084
281.23	0.010
281.59	0.176
281.95	0.428
282.31	0.528
282.68	0.469
283.04	0.317
283.40	0.508
283.76	0.549
284.12	0.483
284.48	0.446
284.85	0.469
285.21	0.609
285.57	0.676
285.93	0.652
286.29	0.506
286.65	0.617
287.02	1.056
287.38	1.024
287.74	0.881
288.10	0.884
288.46	0.857
288.82	0.619
289.18	0.599
289.54	0.470
289.91	0.485
290.27	0.592
290.63	0.720
290.99	0.594
291.35	0.635
291.71	0.955
292.07	0.936
292.43	0.876
292.79	1.050
293.16	1.085
293.52	1.277
293.88	1.383
294.24	1.450
294.60	1.273
294.96	1.157
295.32	1.180
295.68	0.889
296.04	0.814
296.40	0.889
296.76	0.869
297.12	0.788
297.49	0.645
297.85	0.540
298.21	0.502
298.57	0.372
298.93	0.400
299.29	0.199
299.65	0.433
300.01	0.524
300.37	0.598
300.73	0.749
301.09	0.851
301.45	0.852
301.81	0.875
302.17	0.884
302.53	0.855
302.89	0.788
303.25	0.872
303.61	0.787
303.97	0.662
304.33	0.552
304.69	0.473
305.05	0.355
305.41	0.395
305.77	0.508
306.13	0.576
306.49	0.774
306.85	0.801
307.21	0.896
307.57	0.934
307.93	1.037
308.29	1.175
308.65	1.148
309.01	1.156
309.37	1.157
309.73	1.071
310.09	1.105
310.45	1.073
310.81	1.083
311.17	0.905
311.53	0.847
311.89	0.855
312.25	0.790
312.61	0.734
312.96	0.787
313.32	0.917
313.68	0.959
314.04	0.800
314.40	0.850
314.76	0.831
315.12	0.855
315.48	0.856
315.84	0.866
316.20	0.857
316.56	0.824
316.92	0.726
317.27	0.500
317.63	0.395
317.99	0.305
318.35	0.341
318.71	0.340
319.07	0.438
319.43	0.490
319.79	0.497
320.15	0.443
320.50	0.535
320.86	0.583
321.22	0.612
321.58	0.669
321.94	0.672
322.30	0.590
322.66	0.487
323.01	0.387
323.37	0.349
323.73	0.282
324.09	0.253
324.45	0.342
324.81	0.217
325.17	0.302
325.52	0.206
325.88	0.238
326.24	0.227
326.60	0.308
326.96	0.415
327.31	0.326
327.67	0.225
328.03	0.209
328.39	0.037
328.75	0.171
329.11	0.154
329.46	0.266
329.82	0.349
330.18	0.347
330.54	0.356
330.90	0.280
331.25	0.381
331.61	0.583
331.97	0.613
332.33	0.783
332.68	0.871
333.04	0.891
333.40	0.747
333.76	0.644
334.11	0.672
334.47	0.643
334.83	0.577
335.19	0.574
335.54	0.510
335.90	0.550
336.26	0.436
336.62	0.342
336.97	0.184
337.33	0.248
337.69	0.265
338.05	0.255
338.40	0.190
338.76	0.251
339.12	0.231
339.48	0.194
339.83	0.140
340.19	0.151
340.55	0.197
340.90	0.238
341.26	0.239
341.62	0.262
341.97	0.222
342.33	0.343
342.69	0.386
343.04	0.398
343.40	0.357
343.76	0.335
344.12	0.381
344.47	0.406
344.83	0.475
345.19	0.583
345.54	0.612
345.90	0.653
346.26	0.670
346.61	0.711
346.97	0.670
347.32	0.701
347.68	0.724
348.04	0.611
348.39	0.497
348.75	0.520
349.11	0.451
349.46	0.393
349.82	0.365
350.18	0.290
350.53	0.286
350.89	0.313
351.24	0.311
351.60	0.298
351.96	0.328
352.31	0.361
352.67	0.364
353.02	0.375
353.38	0.416
353.74	0.397
354.09	0.403
354.45	0.408
354.80	0.424
355.16	0.499
355.52	0.557
355.87	0.541
356.23	0.580
356.58	0.548
356.94	0.548
357.29	0.567
357.65	0.653
358.00	0.652
358.36	0.605
358.72	0.589
359.07	0.549
359.43	0.577
359.78	0.617
360.14	0.603
360.49	0.566
360.85	0.575
361.20	0.524
361.56	0.456
361.91	0.456
362.27	0.451
362.62	0.488
362.98	0.522
363.33	0.467
363.69	0.487
364.04	0.539
364.40	0.605
364.75	0.573
365.11	0.603
365.46	0.595
365.82	0.623
366.17	0.601
366.53	0.572
366.88	0.559
367.24	0.584
367.59	0.553
367.95	0.541
368.30	0.501
368.66	0.533
369.01	0.522
369.37	0.576
369.72	0.609
370.08	0.689
370.43	0.674
370.78	0.635
371.14	0.563
371.49	0.574
371.85	0.541
372.20	0.580
372.56	0.547
372.91	0.588
373.26	0.603
373.62	0.514
373.97	0.492
374.33	0.504
374.68	0.541
375.03	0.627
375.39	0.610
375.74	0.603
376.10	0.575
376.45	0.666
376.80	0.663
377.16	0.588
377.51	0.633
377.87	0.669
378.22	0.679
378.57	0.671
378.93	0.682
379.28	0.725
379.63	0.749
379.99	0.803
380.34	0.740
380.70	0.776
381.05	0.842
381.40	0.851
381.76	0.848
382.11	0.846
382.46	0.888
382.82	0.883
383.17	0.916
383.52	0.920
383.88	0.881
384.23	0.910
384.58	0.912
384.94	0.911
385.29	0.935
385.64	0.978
385.99	1.063
386.35	1.093
386.70	1.101
387.05	1.067
387.41	1.072
387.76	1.077
388.11	1.066
388.47	1.038
388.82	1.090
389.17	1.117
389.52	1.090
389.88	1.079
390.23	1.078
390.58	1.138
390.93	1.161
391.29	1.204
391.64	1.264
391.99	1.304
392.34	1.354
392.70	1.359
393.05	1.354
393.40	1.367
393.75	1.328
394.11	1.302
394.46	1.284
394.81	1.307
395.16	1.276
395.52	1.249
395.87	1.248
396.22	1.278
396.57	1.235
396.92	1.235
397.28	1.230
397.63	1.231
397.98	1.271
398.33	1.277
398.68	1.273
399.04	1.301
399.39	1.297
399.74	1.272
400.09	1.216
400.44	1.254
400.80	1.264
401.15	1.268
401.50	1.306
401.85	1.316
402.20	1.308
402.55	1.319
402.90	1.294
403.26	1.311
403.61	1.342
403.96	1.380
404.31	1.369
404.66	1.391
405.01	1.392
405.36	1.399
405.72	1.382
406.07	1.395
406.42	1.406
406.77	1.432
407.12	1.427
407.47	1.477
407.82	1.474
408.17	1.470
408.53	1.445
408.88	1.436
409.23	1.440
409.58	1.432
409.93	1.427
410.28	1.430
410.63	1.433
410.98	1.463
411.33	1.437
411.68	1.460
412.03	1.506
412.38	1.536
412.73	1.588
413.09	1.622
413.44	1.664
413.79	1.696
414.14	1.716
414.49	1.739
414.84	1.735
415.19	1.745
415.54	1.777
415.89	1.785
416.24	1.821
416.59	1.831
416.94	1.835
417.29	1.855
417.64	1.860
417.99	1.883
418.34	1.919
418.69	1.967
419.04	1.986
419.39	1.997
419.74	2.012
420.09	2.025
420.44	2.046
420.79	2.051
421.14	2.055
421.49	2.070
421.84	2.062
422.19	2.058
422.54	2.047
422.89	2.039
423.24	2.013
423.59	2.013
423.94	1.986
424.29	1.981
424.64	1.985
424.99	1.965
425.34	1.952
425.68	1.956
426.03	1.925
426.38	1.917
426.73	1.927
427.08	1.938
427.43	1.932
427.78	1.961
428.13	1.936
428.48	1.933
428.83	1.964
429.18	1.961
429.53	1.965
429.87	1.969
430.22	1.964
430.57	1.968
430.92	1.968
431.27	1.968
431.62	1.957
431.97	1.969
432.32	1.963
432.67	1.932
433.01	1.911
433.36	1.901
433.71	1.892
434.06	1.872
434.41	1.844
434.76	1.864
435.11	1.874
435.45	1.880
435.80	1.879
436.15	1.898
436.50	1.929
436.85	1.954
437.20	1.945
437.54	1.951
437.89	1.968
438.24	1.999
438.59	1.987
438.94	1.974
439.29	1.960
439.63	1.968
439.98	1.949
440.33	1.953
440.68	1.973
441.03	1.989
441.37	2.022
441.72	2.029
442.07	2.025
442.42	2.041
442.76	2.066
443.11	2.090
443.46	2.108
443.81	2.132
444.16	2.142
444.50	2.138
444.85	2.140
445.20	2.135
445.55	2.140
445.89	2.150
446.24	2.141
446.59	2.129
446.94	2.116
447.28	2.091
447.63	2.077
447.98	2.073
448.32	2.070
448.67	2.067
449.02	2.051
449.37	2.037
449.71	2.054
450.06	2.072
450.41	2.074
450.75	2.091
451.10	2.109
451.45	2.103
451.79	2.080
452.14	2.065
452.49	2.076
452.84	2.091
453.18	2.089
453.53	2.062
453.88	2.051
454.22	2.069
454.57	2.089
454.92	2.100
455.26	2.126
455.61	2.172
455.95	2.205
456.30	2.222
456.65	2.248
456.99	2.290
457.34	2.313
457.69	2.328
458.03	2.331
458.38	2.334
458.73	2.328
459.07	2.321
459.42	2.302
459.76	2.288
460.11	2.259
460.46	2.223
460.80	2.183
461.15	2.155
461.49	2.127
461.84	2.120
462.19	2.092
462.53	2.090
462.88	2.103
463.22	2.080
463.57	2.078
463.91	2.088
464.26	2.105
464.61	2.120
464.95	2.113
465.30	2.119
465.64	2.107
465.99	2.123
466.33	2.116
466.68	2.105
467.02	2.107
467.37	2.089
467.71	2.074
468.06	2.065
468.41	2.040
468.75	2.034
469.10	2.016
469.44	2.011
469.79	1.977
470.13	1.936
470.48	1.916
470.82	1.910
471.17	1.924
471.51	1.913
471.86	1.890
472.20	1.898
472.55	1.914
472.89	1.924
473.23	1.902
473.58	1.911
473.92	1.933
474.27	1.932
474.61	1.917
474.96	1.911
475.30	1.934
475.65	1.939
475.99	1.925
476.34	1.927
476.68	1.922
477.02	1.936
477.37	1.931
477.71	1.971
478.06	1.999
478.40	2.082
478.75	2.152
479.09	2.230
479.43	2.319
479.78	2.419
480.12	2.506
480.47	2.609
480.81	2.692
481.15	2.786
481.50	2.867
481.84	2.960
482.19	3.033
482.53	3.102
482.87	3.148
483.22	3.158
483.56	3.126
483.90	3.075
484.25	3.000
484.59	2.936
484.94	2.867
485.28	2.805
485.62	2.726
485.97	2.648
486.31	2.579
486.65	2.522
487.00	2.494
487.34	2.496
487.68	2.510
488.03	2.529
488.37	2.542
488.71	2.552
489.06	2.539
489.40	2.539
489.74	2.536
490.09	2.524
490.43	2.511
490.77	2.494
491.11	2.471
491.46	2.452
491.80	2.428
492.14	2.403
492.49	2.387
492.83	2.358
493.17	2.327
493.51	2.313
493.86	2.307
494.20	2.305
494.54	2.298
494.88	2.316
495.23	2.341
495.57	2.372
495.91	2.414
496.25	2.438
496.60	2.483
496.94	2.504
497.28	2.526
497.62	2.536
497.97	2.556
498.31	2.591
498.65	2.608
498.99	2.622
499.33	2.659
499.68	2.689
500.02	2.726
500.36	2.754
500.70	2.797
501.04	2.823
501.39	2.862
501.73	2.916
502.07	2.984
502.41	3.047
502.75	3.109
503.09	3.148
503.44	3.209
503.78	3.249
504.12	3.295
504.46	3.365
504.80	3.451
505.14	3.536
505.49	3.602
505.83	3.658
506.17	3.732
506.51	3.803
506.85	3.886
507.19	3.952
507.53	4.025
507.87	4.113
508.22	4.177
508.56	4.235
508.90	4.287
509.24	4.359
509.58	4.413
509.92	4.477
510.26	4.540
510.60	4.603
510.94	4.667
511.28	4.733
511.63	4.807
511.97	4.895
512.31	4.978
512.65	5.075
512.99	5.170
513.33	5.310
513.67	5.434
514.01	5.575
514.35	5.711
514.69	5.855
515.03	6.004
515.37	6.147
515.71	6.273
516.05	6.391
516.39	6.486
516.73	6.585
517.07	6.674
517.41	6.743
517.75	6.819
518.09	6.890
518.43	6.941
518.77	6.975
519.11	7.027
519.45	7.080
519.79	7.158
520.13	7.253
520.47	7.362
520.81	7.459
521.15	7.584
521.49	7.686
521.83	7.805
522.17	7.929
522.51	8.095
522.85	8.245
523.19	8.430
523.53	8.612
523.87	8.810
524.21	8.974
524.55	9.153
524.89	9.311
525.23	9.474
525.57	9.599
525.91	9.735
526.25	9.840
526.58	9.937
526.92	10.016
527.26	10.072
527.60	10.103
527.94	10.139
528.28	10.150
528.62	10.155
528.96	10.159
529.30	10.169
529.64	10.163
529.97	10.168
530.31	10.169
530.65	10.166
530.99	10.188
531.33	10.226
531.67	10.250
532.01	10.279
532.35	10.308
532.68	10.308
533.02	10.334
533.36	10.344
533.70	10.348
534.04	10.353
534.38	10.365
534.71	10.365
535.05	10.351
535.39	10.374
535.73	10.394
536.07	10.429
536.41	10.475
536.74	10.497
537.08	10.531
537.42	10.601
537.76	10.654
538.10	10.705
538.43	10.758
538.77	10.810
539.11	10.830
539.45	10.856
539.79	10.887
540.12	10.910
540.46	10.938
540.80	10.950
541.14	10.931
541.47	10.901
541.81	10.879
542.15	10.866
542.49	10.848
542.82	10.839
543.16	10.829
543.50	10.794
543.84	10.781
544.17	10.749
544.51	10.749
544.85	10.720
545.18	10.733
545.52	10.731
545.86	10.708
546.20	10.690
546.53	10.681
546.87	10.659
547.21	10.653
547.54	10.615
547.88	10.594
548.22	10.564
548.55	10.570
548.89	10.571
549.23	10.546
549.56	10.546
549.90	10.592
550.24	10.597
550.57	10.591
550.91	10.568
551.25	10.584
551.58	10.580
551.92	10.576
552.26	10.564
552.59	10.557
552.93	10.568
553.27	10.571
553.60	10.540
553.94	10.501
554.27	10.499
554.61	10.523
554.95	10.484
555.28	10.467
555.62	10.427
555.95	10.423
556.29	10.406
556.63	10.368
556.96	10.338
557.30	10.295
557.63	10.261
557.97	10.232
558.31	10.174
558.64	10.150
558.98	10.121
559.31	10.130
559.65	10.090
559.98	10.055
560.32	10.023
560.65	9.970
560.99	9.936
561.33	9.921
561.66	9.879
562.00	9.861
562.33	9.828
562.67	9.789
563.00	9.733
563.34	9.707
563.67	9.669
564.01	9.649
564.34	9.609
564.68	9.566
565.01	9.506
565.35	9.480
565.68	9.416
566.02	9.357
566.35	9.306
566.69	9.244
567.02	9.197
567.36	9.131
567.69	9.067
568.03	9.036
568.36	8.984
568.69	8.939
569.03	8.863
569.36	8.816
569.70	8.767
570.03	8.731
570.37	8.693
570.70	8.643
571.04	8.594
571.37	8.542
571.70	8.473
572.04	8.417
572.37	8.370
572.71	8.306
573.04	8.245
573.37	8.208
573.71	8.150
574.04	8.083
574.38	8.018
574.71	7.964
575.04	7.909
575.38	7.852
575.71	7.799
576.05	7.733
576.38	7.727
576.71	7.674
577.05	7.616
577.38	7.566
577.71	7.533
578.05	7.474
578.38	7.422
578.71	7.361
579.05	7.318
579.38	7.286
579.71	7.252
580.05	7.183
580.38	7.144
580.71	7.082
581.05	7.034
581.38	6.971
581.71	6.937
582.05	6.892
582.38	6.869
582.71	6.830
583.04	6.785
583.38	6.744
583.71	6.719
584.04	6.697
584.38	6.694
584.71	6.690
585.04	6.691
585.37	6.675
585.71	6.692
586.04	6.682
586.37	6.696
586.70	6.687
587.04	6.700
587.37	6.693
587.70	6.693
588.03	6.679
588.37	6.667
588.70	6.661
589.03	6.646
589.36	6.625
589.69	6.592
590.03	6.553
590.36	6.532
590.69	6.480
591.02	6.438
591.35	6.397
591.69	6.377
592.02	6.338
592.35	6.325
592.68	6.328
593.01	6.285
593.35	6.295
593.68	6.282
594.01	6.260
594.34	6.244
594.67	6.241
595.00	6.219
595.34	6.184
595.67	6.155
596.00	6.121
596.33	6.067
596.66	6.032
596.99	5.981
597.32	5.940
597.65	5.908
597.99	5.874
598.32	5.821
598.65	5.786
598.98	5.734
599.31	5.719
599.64	5.682
599.97	5.654
600.30	5.632
600.63	5.647
600.96	5.654
601.30	5.650
601.63	5.662
601.96	5.678
602.29	5.669
602.62	5.678
602.95	5.664
603.28	5.652
603.61	5.629
603.94	5.595
604.27	5.570
604.60	5.524
604.93	5.491
605.26	5.435
605.59	5.377
605.92	5.373
606.25	5.338
606.58	5.310
606.91	5.275
607.24	5.267
607.57	5.266
607.90	5.216
608.23	5.158
608.56	5.124
608.89	5.081
609.22	5.055
609.55	4.970
609.88	4.917
610.21	4.850
610.54	4.791
610.87	4.710
611.20	4.653
611.53	4.584
611.86	4.565
612.19	4.490
612.52	4.449
612.85	4.382
613.18	4.375
613.51	4.311
613.84	4.272
614.17	4.234
614.49	4.244
614.82	4.181
615.15	4.176
615.48	4.139
615.81	4.132
616.14	4.098
616.47	4.065
616.80	4.010
617.13	3.993
617.46	3.935
617.78	3.900
618.11	3.864
618.44	3.843
618.77	3.775
619.10	3.744
619.43	3.692
619.76	3.664
620.09	3.677
620.41	3.653
620.74	3.692
621.07	3.723
621.40	3.732
621.73	3.742
622.06	3.768
622.38	3.802
622.71	3.831
623.04	3.874
623.37	3.919
623.70	3.932
624.02	3.991
624.35	3.999
624.68	4.006
625.01	4.020
625.34	4.011
625.66	4.028
625.99	4.024
626.32	4.015
626.65	4.029
626.98	4.024
627.30	3.999
627.63	3.967
627.96	3.905
628.29	3.879
628.61	3.848
628.94	3.813
629.27	3.790
629.60	3.733
629.92	3.709
630.25	3.641
630.58	3.590
630.91	3.556
631.23	3.510
631.56	3.523
631.89	3.479
632.21	3.451
632.54	3.401
632.87	3.347
633.19	3.337
633.52	3.293
633.85	3.254
634.18	3.222
634.50	3.156
634.83	3.127
635.16	3.046
635.48	2.971
635.81	2.901
636.14	2.854
636.46	2.808
636.79	2.734
637.11	2.641
637.44	2.548
637.77	2.470
638.09	2.433
638.42	2.334
638.75	2.277
639.07	2.254
639.40	2.256
639.73	2.182
640.05	2.107
640.38	2.086
640.70	2.003
641.03	1.960
641.36	1.918
641.68	1.891
642.01	1.883
642.33	1.844
642.66	1.806
642.98	1.719
643.31	1.747
643.64	1.736
643.96	1.702
644.29	1.720
644.61	1.732
644.94	1.722
645.26	1.706
645.59	1.721
645.91	1.722
646.24	1.749
646.56	1.745
646.89	1.715
647.22	1.714
647.54	1.725
647.87	1.756
648.19	1.752
648.52	1.744
648.84	1.738
649.17	1.726
649.49	1.706
649.82	1.680
650.14	1.693
650.47	1.683
650.79	1.693
651.11	1.702
651.44	1.715
651.76	1.692
652.09	1.732
652.41	1.754
652.74	1.728
653.06	1.756
653.39	1.797
653.71	1.812
654.04	1.831
654.36	1.828
654.68	1.854
655.01	1.902
655.33	1.950
655.66	1.936
655.98	1.952
656.30	1.952
656.63	1.951
656.95	1.967
657.28	1.972
657.60	1.963
657.92	1.978
658.25	1.939
658.57	1.906
658.90	1.889
659.22	1.877
659.54	1.843
659.87	1.835
660.19	1.857
660.51	1.800
660.84	1.788
661.16	1.787
661.48	1.781
661.81	1.782
662.13	1.763
662.45	1.803
662.78	1.819
663.10	1.880
663.42	1.918
663.75	1.965
664.07	2.026
664.39	2.074
664.72	2.125
665.04	2.168
665.36	2.238
665.69	2.309
666.01	2.395
666.33	2.469
666.65	2.507
666.98	2.640
667.30	2.743
667.62	2.832
667.94	2.924
668.27	3.053
668.59	3.154
668.91	3.309
669.23	3.447
669.56	3.536
669.88	3.738
670.20	3.870
670.52	4.031
670.85	4.118
671.17	4.261
671.49	4.472
671.81	4.662
672.13	4.831
672.46	4.992
672.78	5.150
673.10	5.358
673.42	5.481
673.74	5.683
674.07	5.790
674.39	6.015
674.71	6.194
675.03	6.402
675.35	6.595
675.67	6.796
676.00	6.935
676.32	7.076
676.64	7.211
676.96	7.402
677.28	7.571
677.60	7.759
677.92	7.910
678.25	8.115
678.57	8.189
678.89	8.266
679.21	8.424
679.53	8.585
679.85	8.793
680.17	8.961
680.49	9.101
680.81	9.275
681.13	9.429
681.46	9.605
681.78	9.791
682.10	10.031
682.42	10.221
682.74	10.358
683.06	10.554
683.38	10.652
683.70	10.835
684.02	11.044
684.34	11.259
684.66	11.464
684.98	11.580
685.30	11.645
685.62	11.679
685.94	11.799
686.26	11.901
686.58	11.970
686.90	12.065
687.22	12.100
687.54	12.061
687.86	11.995
688.18	11.985
688.50	12.047
688.82	12.081
689.14	12.214
689.46	12.327
689.78	12.387
690.10	12.480
690.42	12.589
690.74	12.760
691.06	12.921
691.38	13.064
691.70	13.227
692.02	13.343
692.34	13.536
692.66	13.615
692.98	13.655
693.30	13.758
693.62	13.835
693.94	13.890
694.26	13.914
694.57	13.938
694.89	14.009
695.21	14.053
695.53	14.105
695.85	14.134
696.17	14.211
696.49	14.339
696.81	14.470
697.13	14.603
697.44	14.757
697.76	14.910
698.08	15.136
698.40	15.334
698.72	15.546
699.04	15.755
699.36	16.070
699.67	16.348
699.99	16.609
700.31	16.917
700.63	17.252
700.95	17.626
701.27	17.972
701.58	18.240
701.90	18.512
702.22	18.753
702.54	19.064
702.86	19.245
703.17	19.434
703.49	19.710
703.81	19.931
704.13	20.022
704.45	20.176
704.76	20.354
705.08	20.464
705.40	20.624
705.72	20.815
706.03	21.042
706.35	21.218
706.67	21.454
706.99	21.655
707.30	21.845
707.62	22.087
707.94	22.236
708.26	22.393
708.57	22.697
708.89	22.940
709.21	23.111
709.53	23.293
709.84	23.525
710.16	23.759
710.48	23.924
710.79	24.137
711.11	24.344
711.43	24.551
711.74	24.805
712.06	25.011
712.38	25.248
712.69	25.517
713.01	25.766
713.33	26.105
713.64	26.412
713.96	26.704
714.28	27.117
714.59	27.508
714.91	27.885
715.23	28.252
715.54	28.484
715.86	28.879
716.17	29.237
716.49	29.537
716.81	29.870
717.12	30.071
717.44	30.454
717.76	30.695
718.07	30.882
718.39	31.224
718.70	31.359
719.02	31.626
719.33	31.811
719.65	32.015
719.97	32.169
720.28	32.294
720.60	32.567
720.91	32.799
721.23	32.939
721.54	33.227
721.86	33.363
722.17	33.683
722.49	33.970
722.81	34.179
723.12	34.480
723.44	34.875
723.75	35.126
724.07	35.363
724.38	35.448
724.70	35.676
725.01	35.742
725.33	35.885
725.64	36.011
725.96	36.193
726.27	36.283
726.59	36.443
726.90	36.491
727.22	36.367
727.53	36.423
727.84	36.555
728.16	36.564
728.47	36.694
728.79	36.771
729.10	36.769
729.42	36.898
729.73	36.974
730.05	36.952
730.36	36.878
730.67	37.131
730.99	37.196
731.30	37.222
731.62	37.298
731.93	37.451
732.24	37.585
732.56	37.884
732.87	37.900
733.19	38.049
733.50	38.128
733.81	38.384
734.13	38.479
734.44	38.564
734.76	38.687
735.07	38.916
735.38	38.949
735.70	39.274
736.01	39.288
736.32	39.479
736.64	39.643
736.95	39.711
737.26	39.728
737.58	39.766
737.89	39.875
738.20	39.873
738.52	39.866
738.83	39.874
739.14	39.654
739.45	39.648
739.77	39.594
740.08	39.581
740.39	39.682
740.71	39.886
741.02	39.872
741.33	39.735
741.64	39.957
741.96	40.057
742.27	40.155
742.58	40.204
742.90	40.264
743.21	40.276
743.52	40.361
743.83	40.341
744.14	40.288
744.46	40.525
744.77	40.875
745.08	40.707
745.39	40.635
745.71	40.578
746.02	40.670
746.33	40.555
746.64	40.547
746.95	40.424
747.27	40.569
747.58	40.420
747.89	40.094
748.20	39.861
748.51	40.068
748.82	39.990
749.14	39.997
749.45	39.924
749.76	40.034
750.07	40.150
750.38	40.170
750.69	39.978
751.01	40.043
751.32	40.175
751.63	40.237
751.94	39.953
752.25	39.859
752.56	39.711
752.87	39.673
753.18	39.562
753.49	39.482
753.81	39.487
754.12	39.455
754.43	39.426
754.74	39.535
755.05	39.585
755.36	39.795
755.67	39.979
755.98	40.293
756.29	40.250
756.60	40.391
756.91	40.435
757.22	40.548
757.53	40.814
757.84	41.038
758.15	41.108
758.46	41.309
758.77	41.248
759.09	41.219
759.40	41.153
759.71	41.056
760.02	41.024
760.33	41.025
760.64	40.871
760.95	40.834
761.26	40.655
761.57	40.461
761.88	40.237
762.18	40.171
762.49	40.045
762.80	39.912
763.11	39.879
763.42	39.773
763.73	39.620
764.04	39.525
764.35	39.373
764.66	39.151
764.97	39.055
765.28	38.882
765.59	38.654
765.90	38.400
766.21	38.122
766.52	37.953
766.83	37.589
767.14	37.435
767.44	37.134
767.75	36.649
768.06	36.644
768.37	36.292
768.68	36.169
768.99	36.024
769.30	35.957
769.61	35.823
769.91	35.565
770.22	35.460
770.53	35.256
770.84	35.397
771.15	35.546
771.46	35.284
771.77	35.373
772.07	35.291
772.38	35.232
772.69	35.263
773.00	35.324
773.31	35.372
773.61	35.412
773.92	35.246
774.23	35.227
774.54	35.065
774.85	34.987
775.15	34.969
775.46	34.818
775.77	34.716
776.08	34.488
776.39	34.153
776.69	34.207
777.00	34.229
777.31	34.349
777.62	34.057
777.92	34.160
778.23	34.293
778.54	34.073
778.85	34.176
779.15	34.011
779.46	34.222
779.77	34.676
780.07	34.837
780.38	34.918
780.69	34.918
781.00	35.069
781.30	34.604
781.61	34.446
781.92	34.426
782.22	34.558
782.53	34.642
782.84	34.796
783.14	34.812
783.45	34.347
783.76	34.449
784.06	34.720
784.37	34.324
784.68	34.638
784.98	34.929
785.29	35.146
785.60	35.256
785.90	35.502
786.21	35.264
786.51	35.171
786.82	35.660
787.13	35.618
787.43	35.562
787.74	36.013
788.04	36.237
788.35	36.134
788.66	36.259
788.96	36.120
789.27	36.102
789.57	35.977
789.88	36.155
790.19	35.957
790.49	35.855
790.80	35.762
791.10	35.814
791.41	35.847
791.71	36.020
792.02	36.138
792.32	36.166
792.63	36.152
792.93	36.268
793.24	35.930
793.54	36.007
793.85	36.251
794.15	36.390
794.46	36.456
794.76	36.169
795.07	36.105
795.37	35.728
795.68	35.511
795.98	35.533
796.29	35.581
796.59	35.666
796.90	35.861
797.20	35.689
797.51	35.427
797.81	34.958
798.12	35.161
798.42	35.172
798.72	35.451
799.03	35.777
799.33	35.704
799.64	35.934
799.94	36.222
800.25	35.818
800.55	35.688
800.85	36.039
801.16	36.134
801.46	36.062
801.77	35.850
802.07	35.691
802.37	35.529
802.68	35.595
802.98	35.434
803.28	35.517
803.59	36.201
803.89	36.314
804.20	36.222
804.50	36.289
804.80	36.526
805.11	36.875
805.41	37.114
805.71	37.325
806.02	37.038
806.32	36.922
806.62	36.930
806.93	36.741
807.23	36.782
807.53	36.965
807.83	37.135
808.14	37.126
808.44	36.748
808.74	36.405
809.05	36.181
809.35	36.353
809.65	36.944
809.95	36.887
810.26	36.520
810.56	36.680
810.86	36.698
811.16	36.819
811.47	37.402
811.77	37.778
812.07	38.392
812.37	38.320
812.68	38.786
812.98	39.306
813.28	39.507
813.58	40.124
813.88	40.060
814.19	40.519
814.49	40.524
814.79	40.324
815.09	41.147
815.39	40.566
815.70	40.641
816.00	40.710
816.30	40.002
816.60	40.009
816.90	39.779
817.20	40.099
817.50	39.915
817.81	39.648
818.11	39.420
818.41	39.270
818.71	39.490
819.01	39.527
819.31	39.745
819.61	40.031
819.92	40.240
820.22	40.431
820.52	40.653
820.82	40.826
821.12	41.205
821.42	41.453
821.72	41.635
822.02	41.944
822.32	42.352
822.62	42.579
822.92	42.757
823.22	42.960
823.52	43.197
823.83	43.234
824.13	43.235
824.43	43.111
824.73	43.100
825.03	42.977
825.33	42.829
825.63	42.670
825.93	42.391
826.23	42.188
826.53	41.881
826.83	41.752
827.13	41.794
827.43	42.021
827.73	42.193
828.03	42.298
828.33	42.598
828.63	42.690
828.93	42.355
829.23	42.355
829.53	42.230
829.83	42.163
830.13	41.812
830.42	41.649
830.72	41.168
831.02	40.901
831.32	40.751
831.62	40.629
831.92	40.527
832.22	40.804
832.52	40.856
832.82	41.013
833.12	41.034
833.42	41.021
833.72	40.794
834.01	41.108
834.31	41.208
834.61	41.544
834.91	41.603
835.21	41.786
835.51	41.517
835.81	41.274
836.11	41.432
836.40	41.623
836.70	41.750
837.00	42.293
837.30	41.355
837.60	41.172
837.90	40.319
838.19	40.295
838.49	40.388
838.79	40.872
839.09	41.556
839.39	41.243
839.68	41.150
839.98	40.437
840.28	40.049
840.58	40.668
840.88	40.826
841.17	40.681
841.47	40.422
841.77	39.658
842.07	38.927
842.36	38.255
842.66	37.334
842.96	36.734
843.26	36.766
843.55	36.007
843.85	34.424
844.15	33.905
844.45	33.586
844.74	34.376
845.04	32.903
845.34	33.967
845.63	33.548
845.93	34.170
846.23	34.447
846.53	34.554
846.82	35.278
847.12	37.731
847.42	36.782
847.71	36.623
848.01	35.403
848.31	36.369
848.60	33.982
848.90	33.082
849.19	31.436
849.49	31.449
849.79	31.274
850.08	30.190
850.38	27.912
850.68	29.345
850.97	30.239
851.27	31.310
851.56	32.917
851.86	34.700
852.16	36.538
852.45	36.886
852.75	37.077
853.04	38.704
853.34	38.951
853.64	40.416
853.93	38.100
854.23	37.237
854.52	36.102
854.82	36.998
855.11	34.977
855.41	33.777
855.70	35.587
856.00	35.023
856.30	32.616
856.59	33.816
856.89	34.437
857.18	38.448
857.48	38.637
857.77	37.671
858.07	35.104
858.36	35.227
858.66	35.700
858.95	33.771
859.25	34.188
859.54	34.939
859.84	34.208
860.13	32.674
860.42	30.355
860.72	30.021
861.01	31.874
861.31	33.383
861.60	36.379
861.90	37.162
862.19	38.452
862.49	38.098
862.78	39.012
863.07	39.749
863.37	40.449
863.66	39.859
863.96	41.845
864.25	41.465
864.54	41.117
864.84	39.405
865.13	39.356
865.43	40.278
865.72	42.227
866.01	43.213
866.31	36.287
866.60	40.553
866.89	43.376
>>>>>End Spectral Data<<<<<
