OOIBase32 Version 2.0.0.6 Data File
++++++++++++++++++++++++++++++++++++
Date: 01-23-2012, 23:12:56
User: Valued Ocean Optics Customer
Spectrometer Serial Number: USB2E2917
Spectrometer Channel: Master
Integration Time (msec): 5
Spectra Averaged: 10
Boxcar Smoothing: 5
Correct for Electrical Dark: Enabled
Time Normalized: Disabled
Dual-beam Reference: Disabled
Reference Channel: Master
Temperature: Not acquired
Spectrometer Type: S2000
ADC Type: USB2000
Number of Pixels in File: 2048
Graph Title: 
>>>>>Begin Spectral Data<<<<<
180.30	0.000
180.67	0.000
181.03	-65.008
181.40	172.780
181.77	1387.538
182.14	82.522
182.51	242.874
182.88	42.458
183.25	66.762
183.62	22.639
183.99	135.002
184.36	8.870
184.73	41.417
185.10	37.584
185.46	-230.725
185.83	208.954
186.20	956.975
186.57	72.185
186.94	59.033
187.31	15.895
187.68	84.549
188.05	80.540
188.42	145.718
188.78	268.723
189.15	727.741
189.52	-217.903
189.89	-67.228
190.26	-58.613
190.63	-36.832
191.00	-13.478
191.37	-21.543
191.73	-4.392
192.10	5.885
192.47	12.172
192.84	6.570
193.21	9.571
193.58	5.673
193.94	11.544
194.31	15.965
194.68	14.003
195.05	-5.236
195.42	16.699
195.79	14.767
196.15	9.024
196.52	0.486
196.89	15.620
197.26	-4.726
197.63	5.305
198.00	-9.243
198.36	-12.638
198.73	-33.722
199.10	-19.148
199.47	-34.304
199.84	-33.336
200.20	-41.789
200.57	-33.040
200.94	-35.879
201.31	-44.987
201.68	-49.258
202.04	-40.129
202.41	-38.767
202.78	-52.537
203.15	-81.286
203.51	-74.754
203.88	-77.657
204.25	-61.013
204.62	-84.245
204.98	-83.945
205.35	-61.085
205.72	-53.357
206.09	-40.246
206.46	-74.608
206.82	-32.020
207.19	-4.736
207.56	-16.311
207.92	-0.258
208.29	-20.866
208.66	-14.409
209.03	-23.847
209.39	-5.503
209.76	0.375
210.13	-47.774
210.50	-31.302
210.86	-29.319
211.23	-31.381
211.60	-31.263
211.96	-32.693
212.33	-21.317
212.70	-11.238
213.07	-4.614
213.43	-52.994
213.80	-79.721
214.17	-32.331
214.53	-25.184
214.90	-25.915
215.27	-23.840
215.63	-14.629
216.00	-15.229
216.37	-11.263
216.74	-19.575
217.10	-23.728
217.47	-15.101
217.84	-3.329
218.20	-1.386
218.57	1.411
218.94	5.487
219.30	-0.640
219.67	-9.382
220.04	-6.741
220.40	-8.668
220.77	-12.862
221.13	-4.823
221.50	-0.893
221.87	-0.791
222.23	-8.279
222.60	-12.215
222.97	-16.001
223.33	-8.858
223.70	-7.473
224.07	-7.637
224.43	-6.509
224.80	-0.402
225.16	-2.346
225.53	-3.297
225.90	-6.478
226.26	-4.732
226.63	-2.110
226.99	0.268
227.36	-0.230
227.73	1.323
228.09	0.281
228.46	1.819
228.82	2.028
229.19	2.499
229.56	4.135
229.92	6.766
230.29	6.965
230.65	5.501
231.02	3.461
231.38	0.763
231.75	-0.467
232.12	-1.741
232.48	-4.611
232.85	-7.438
233.21	-8.318
233.58	-12.097
233.94	-12.228
234.31	-12.883
234.68	-12.678
235.04	-12.606
235.41	-9.964
235.77	-7.889
236.14	-5.778
236.50	-3.833
236.87	-2.463
237.23	-2.188
237.60	-1.993
237.96	-2.019
238.33	-1.850
238.69	-1.646
239.06	-0.932
239.42	-0.431
239.79	-1.617
240.15	-1.856
240.52	-1.801
240.88	-1.302
241.25	-1.361
241.61	-0.529
241.98	-0.671
242.34	-0.400
242.71	0.078
243.07	0.211
243.44	0.028
243.80	0.538
244.17	0.729
244.53	0.511
244.90	0.101
245.26	0.269
245.63	0.227
245.99	0.272
246.36	0.150
246.72	0.201
247.09	-0.144
247.45	-0.034
247.81	-0.058
248.18	-0.121
248.54	0.060
248.91	-0.022
249.27	0.008
249.64	0.200
250.00	0.495
250.36	0.481
250.73	0.396
251.09	0.481
251.46	0.294
251.82	0.240
252.19	-0.064
252.55	-0.336
252.91	0.114
253.28	0.126
253.64	-0.700
254.01	-0.855
254.37	-0.456
254.73	-0.004
255.10	0.577
255.46	1.195
255.83	1.367
256.19	1.548
256.55	1.428
256.92	1.600
257.28	1.713
257.65	1.974
258.01	1.985
258.37	1.874
258.74	1.611
259.10	1.393
259.46	1.174
259.83	1.052
260.19	1.083
260.55	1.265
260.92	1.167
261.28	0.954
261.64	0.914
262.01	0.887
262.37	0.985
262.73	0.914
263.10	0.958
263.46	0.789
263.82	0.734
264.19	0.745
264.55	0.399
264.91	0.443
265.28	0.443
265.64	0.441
266.00	0.398
266.37	0.495
266.73	0.510
267.09	0.521
267.46	0.562
267.82	0.360
268.18	0.334
268.54	0.540
268.91	0.398
269.27	0.457
269.63	0.697
270.00	0.701
270.36	0.416
270.72	0.544
271.08	0.431
271.45	0.205
271.81	0.348
272.17	0.321
272.53	0.238
272.90	0.162
273.26	0.219
273.62	-0.063
273.98	-0.342
274.35	-0.217
274.71	-0.351
275.07	-0.311
275.43	-0.072
275.80	-0.093
276.16	-0.098
276.52	-0.041
276.88	0.171
277.25	-0.130
277.61	-0.334
277.97	-0.138
278.33	0.029
278.69	-0.135
279.06	-0.019
279.42	0.079
279.78	0.198
280.14	0.208
280.50	0.306
280.87	0.249
281.23	0.530
281.59	0.734
281.95	0.814
282.31	0.768
282.68	0.763
283.04	0.713
283.40	0.788
283.76	0.920
284.12	1.046
284.48	1.091
284.85	1.174
285.21	1.299
285.57	1.339
285.93	1.361
286.29	1.241
286.65	1.491
287.02	1.780
287.38	1.717
287.74	1.535
288.10	1.429
288.46	1.385
288.82	1.184
289.18	1.041
289.54	1.111
289.91	1.093
290.27	1.331
290.63	1.341
290.99	1.244
291.35	1.218
291.71	1.360
292.07	1.184
292.43	1.225
292.79	1.344
293.16	1.287
293.52	1.272
293.88	1.374
294.24	1.283
294.60	1.248
294.96	1.076
295.32	1.231
295.68	1.296
296.04	1.439
296.40	1.522
296.76	1.563
297.12	1.537
297.49	1.281
297.85	1.152
298.21	1.179
298.57	1.066
298.93	1.192
299.29	0.943
299.65	0.905
300.01	0.915
300.37	0.856
300.73	0.995
301.09	1.091
301.45	1.294
301.81	1.441
302.17	1.357
302.53	1.398
302.89	1.286
303.25	1.442
303.61	1.431
303.97	1.478
304.33	1.507
304.69	1.380
305.05	1.302
305.41	1.311
305.77	1.306
306.13	1.354
306.49	1.318
306.85	1.368
307.21	1.443
307.57	1.377
307.93	1.309
308.29	1.351
308.65	1.323
309.01	1.330
309.37	1.401
309.73	1.390
310.09	1.578
310.45	1.697
310.81	1.761
311.17	1.624
311.53	1.686
311.89	1.775
312.25	1.723
312.61	1.721
312.96	1.922
313.32	1.998
313.68	1.973
314.04	1.768
314.40	1.710
314.76	1.582
315.12	1.603
315.48	1.594
315.84	1.419
316.20	1.366
316.56	1.341
316.92	1.201
317.27	1.112
317.63	1.178
317.99	1.110
318.35	1.112
318.71	1.293
319.07	1.463
319.43	1.528
319.79	1.742
320.15	1.740
320.50	1.846
320.86	1.765
321.22	1.671
321.58	1.581
321.94	1.601
322.30	1.614
322.66	1.499
323.01	1.313
323.37	1.244
323.73	1.196
324.09	1.195
324.45	1.228
324.81	1.231
325.17	1.358
325.52	1.373
325.88	1.430
326.24	1.433
326.60	1.398
326.96	1.576
327.31	1.575
327.67	1.466
328.03	1.433
328.39	1.364
328.75	1.502
329.11	1.471
329.46	1.512
329.82	1.543
330.18	1.550
330.54	1.580
330.90	1.441
331.25	1.427
331.61	1.583
331.97	1.647
332.33	1.630
332.68	1.571
333.04	1.538
333.40	1.455
333.76	1.451
334.11	1.349
334.47	1.417
334.83	1.486
335.19	1.474
335.54	1.398
335.90	1.395
336.26	1.415
336.62	1.416
336.97	1.370
337.33	1.370
337.69	1.396
338.05	1.385
338.40	1.294
338.76	1.286
339.12	1.367
339.48	1.401
339.83	1.385
340.19	1.360
340.55	1.373
340.90	1.360
341.26	1.374
341.62	1.268
341.97	1.344
342.33	1.431
342.69	1.477
343.04	1.430
343.40	1.355
343.76	1.314
344.12	1.345
344.47	1.392
344.83	1.511
345.19	1.613
345.54	1.684
345.90	1.677
346.26	1.710
346.61	1.697
346.97	1.762
347.32	1.861
347.68	1.905
348.04	1.937
348.39	1.851
348.75	1.798
349.11	1.750
349.46	1.811
349.82	1.829
350.18	1.799
350.53	1.809
350.89	1.787
351.24	1.725
351.60	1.797
351.96	1.797
352.31	1.828
352.67	1.861
353.02	1.815
353.38	1.741
353.74	1.787
354.09	1.808
354.45	1.812
354.80	1.794
355.16	1.918
355.52	1.905
355.87	1.874
356.23	1.936
356.58	2.001
356.94	2.056
357.29	2.139
357.65	2.173
358.00	2.193
358.36	2.193
358.72	2.200
359.07	2.174
359.43	2.196
359.78	2.279
360.14	2.245
360.49	2.216
360.85	2.219
361.20	2.210
361.56	2.177
361.91	2.172
362.27	2.175
362.62	2.178
362.98	2.144
363.33	2.129
363.69	2.119
364.04	2.161
364.40	2.132
364.75	2.141
365.11	2.126
365.46	2.090
365.82	2.115
366.17	2.159
366.53	2.195
366.88	2.233
367.24	2.259
367.59	2.256
367.95	2.242
368.30	2.294
368.66	2.290
369.01	2.280
369.37	2.370
369.72	2.398
370.08	2.396
370.43	2.375
370.78	2.342
371.14	2.283
371.49	2.289
371.85	2.300
372.20	2.266
372.56	2.283
372.91	2.291
373.26	2.240
373.62	2.173
373.97	2.216
374.33	2.216
374.68	2.246
375.03	2.305
375.39	2.267
375.74	2.251
376.10	2.287
376.45	2.300
376.80	2.329
377.16	2.332
377.51	2.408
377.87	2.424
378.22	2.410
378.57	2.396
378.93	2.431
379.28	2.481
379.63	2.497
379.99	2.517
380.34	2.514
380.70	2.531
381.05	2.536
381.40	2.509
381.76	2.498
382.11	2.501
382.46	2.573
382.82	2.554
383.17	2.529
383.52	2.513
383.88	2.514
384.23	2.528
384.58	2.507
384.94	2.473
385.29	2.464
385.64	2.447
385.99	2.527
386.35	2.489
386.70	2.473
387.05	2.462
387.41	2.477
387.76	2.452
388.11	2.442
388.47	2.421
388.82	2.475
389.17	2.455
389.52	2.442
389.88	2.418
390.23	2.424
390.58	2.453
390.93	2.489
391.29	2.492
391.64	2.529
391.99	2.573
392.34	2.612
392.70	2.586
393.05	2.597
393.40	2.607
393.75	2.616
394.11	2.610
394.46	2.587
394.81	2.558
395.16	2.532
395.52	2.489
395.87	2.445
396.22	2.443
396.57	2.449
396.92	2.444
397.28	2.421
397.63	2.391
397.98	2.387
398.33	2.376
398.68	2.360
399.04	2.355
399.39	2.330
399.74	2.288
400.09	2.253
400.44	2.261
400.80	2.268
401.15	2.251
401.50	2.238
401.85	2.240
402.20	2.229
402.55	2.249
402.90	2.248
403.26	2.251
403.61	2.271
403.96	2.263
404.31	2.247
404.66	2.239
405.01	2.239
405.36	2.216
405.72	2.207
406.07	2.181
406.42	2.166
406.77	2.161
407.12	2.160
407.47	2.158
407.82	2.168
408.17	2.158
408.53	2.159
408.88	2.128
409.23	2.138
409.58	2.081
409.93	2.122
410.28	2.135
410.63	2.126
410.98	2.129
411.33	2.119
411.68	2.114
412.03	2.159
412.38	2.124
412.73	2.179
413.09	2.200
413.44	2.237
413.79	2.233
414.14	2.233
414.49	2.266
414.84	2.305
415.19	2.310
415.54	2.340
415.89	2.335
416.24	2.391
416.59	2.412
416.94	2.438
417.29	2.479
417.64	2.480
417.99	2.494
418.34	2.511
418.69	2.510
419.04	2.535
419.39	2.527
419.74	2.532
420.09	2.525
420.44	2.517
420.79	2.518
421.14	2.514
421.49	2.537
421.84	2.522
422.19	2.529
422.54	2.530
422.89	2.525
423.24	2.529
423.59	2.523
423.94	2.524
424.29	2.519
424.64	2.510
424.99	2.479
425.34	2.440
425.68	2.453
426.03	2.413
426.38	2.398
426.73	2.384
427.08	2.367
427.43	2.377
427.78	2.361
428.13	2.352
428.48	2.354
428.83	2.359
429.18	2.385
429.53	2.386
429.87	2.391
430.22	2.362
430.57	2.369
430.92	2.364
431.27	2.350
431.62	2.359
431.97	2.362
432.32	2.363
432.67	2.367
433.01	2.352
433.36	2.333
433.71	2.332
434.06	2.345
434.41	2.327
434.76	2.350
435.11	2.369
435.45	2.363
435.80	2.376
436.15	2.375
436.50	2.389
436.85	2.402
437.20	2.411
437.54	2.401
437.89	2.399
438.24	2.426
438.59	2.416
438.94	2.405
439.29	2.400
439.63	2.395
439.98	2.386
440.33	2.372
440.68	2.365
441.03	2.381
441.37	2.404
441.72	2.435
442.07	2.435
442.42	2.460
442.76	2.482
443.11	2.502
443.46	2.517
443.81	2.538
444.16	2.564
444.50	2.565
444.85	2.565
445.20	2.563
445.55	2.565
445.89	2.560
446.24	2.546
446.59	2.522
446.94	2.514
447.28	2.489
447.63	2.471
447.98	2.452
448.32	2.457
448.67	2.449
449.02	2.439
449.37	2.420
449.71	2.437
450.06	2.433
450.41	2.442
450.75	2.451
451.10	2.452
451.45	2.444
451.79	2.429
452.14	2.436
452.49	2.453
452.84	2.455
453.18	2.453
453.53	2.428
453.88	2.429
454.22	2.439
454.57	2.437
454.92	2.475
455.26	2.497
455.61	2.538
455.95	2.558
456.30	2.554
456.65	2.593
456.99	2.607
457.34	2.638
457.69	2.657
458.03	2.665
458.38	2.677
458.73	2.668
459.07	2.668
459.42	2.647
459.76	2.621
460.11	2.602
460.46	2.568
460.80	2.546
461.15	2.508
461.49	2.492
461.84	2.482
462.19	2.465
462.53	2.460
462.88	2.460
463.22	2.453
463.57	2.459
463.91	2.466
464.26	2.483
464.61	2.500
464.95	2.492
465.30	2.470
465.64	2.471
465.99	2.476
466.33	2.466
466.68	2.452
467.02	2.451
467.37	2.444
467.71	2.431
468.06	2.427
468.41	2.405
468.75	2.416
469.10	2.424
469.44	2.405
469.79	2.394
470.13	2.371
470.48	2.350
470.82	2.337
471.17	2.326
471.51	2.319
471.86	2.306
472.20	2.306
472.55	2.293
472.89	2.280
473.23	2.279
473.58	2.263
473.92	2.262
474.27	2.267
474.61	2.255
474.96	2.265
475.30	2.283
475.65	2.265
475.99	2.267
476.34	2.271
476.68	2.270
477.02	2.273
477.37	2.281
477.71	2.327
478.06	2.363
478.40	2.441
478.75	2.514
479.09	2.600
479.43	2.713
479.78	2.816
480.12	2.912
480.47	3.012
480.81	3.102
481.15	3.196
481.50	3.287
481.84	3.389
482.19	3.473
482.53	3.549
482.87	3.600
483.22	3.598
483.56	3.565
483.90	3.510
484.25	3.437
484.59	3.364
484.94	3.289
485.28	3.211
485.62	3.124
485.97	3.033
486.31	2.950
486.65	2.884
487.00	2.860
487.34	2.862
487.68	2.872
488.03	2.895
488.37	2.913
488.71	2.927
489.06	2.922
489.40	2.921
489.74	2.919
490.09	2.916
490.43	2.906
490.77	2.885
491.11	2.855
491.46	2.845
491.80	2.822
492.14	2.792
492.49	2.764
492.83	2.756
493.17	2.727
493.51	2.705
493.86	2.685
494.20	2.675
494.54	2.674
494.88	2.692
495.23	2.716
495.57	2.742
495.91	2.783
496.25	2.810
496.60	2.820
496.94	2.839
497.28	2.869
497.62	2.894
497.97	2.914
498.31	2.947
498.65	2.961
498.99	2.964
499.33	2.999
499.68	3.025
500.02	3.057
500.36	3.066
500.70	3.092
501.04	3.109
501.39	3.126
501.73	3.164
502.07	3.213
502.41	3.262
502.75	3.326
503.09	3.357
503.44	3.393
503.78	3.427
504.12	3.484
504.46	3.551
504.80	3.617
505.14	3.691
505.49	3.761
505.83	3.818
506.17	3.886
506.51	3.935
506.85	4.010
507.19	4.072
507.53	4.144
507.87	4.215
508.22	4.262
508.56	4.314
508.90	4.360
509.24	4.414
509.58	4.449
509.92	4.510
510.26	4.571
510.60	4.616
510.94	4.681
511.28	4.721
511.63	4.775
511.97	4.842
512.31	4.915
512.65	4.989
512.99	5.063
513.33	5.183
513.67	5.256
514.01	5.355
514.35	5.464
514.69	5.567
515.03	5.688
515.37	5.800
515.71	5.893
516.05	5.985
516.39	6.068
516.73	6.147
517.07	6.204
517.41	6.266
517.75	6.318
518.09	6.363
518.43	6.396
518.77	6.424
519.11	6.459
519.45	6.493
519.79	6.546
520.13	6.598
520.47	6.660
520.81	6.724
521.15	6.834
521.49	6.931
521.83	7.025
522.17	7.124
522.51	7.249
522.85	7.376
523.19	7.520
523.53	7.670
523.87	7.843
524.21	7.996
524.55	8.144
524.89	8.270
525.23	8.398
525.57	8.500
525.91	8.611
526.25	8.713
526.58	8.798
526.92	8.872
527.26	8.915
527.60	8.937
527.94	8.959
528.28	8.969
528.62	8.962
528.96	8.944
529.30	8.954
529.64	8.950
529.97	8.928
530.31	8.898
530.65	8.886
530.99	8.889
531.33	8.901
531.67	8.900
532.01	8.911
532.35	8.926
532.68	8.934
533.02	8.924
533.36	8.916
533.70	8.914
534.04	8.920
534.38	8.911
534.71	8.906
535.05	8.898
535.39	8.901
535.73	8.907
536.07	8.926
536.41	8.949
536.74	8.994
537.08	9.016
537.42	9.067
537.76	9.113
538.10	9.163
538.43	9.215
538.77	9.260
539.11	9.316
539.45	9.350
539.79	9.383
540.12	9.413
540.46	9.415
540.80	9.424
541.14	9.421
541.47	9.416
541.81	9.401
542.15	9.369
542.49	9.346
542.82	9.315
543.16	9.292
543.50	9.257
543.84	9.230
544.17	9.199
544.51	9.191
544.85	9.157
545.18	9.144
545.52	9.113
545.86	9.107
546.20	9.099
546.53	9.088
546.87	9.055
547.21	9.038
547.54	9.013
547.88	9.023
548.22	9.012
548.55	8.998
548.89	8.999
549.23	9.005
549.56	9.010
549.90	9.023
550.24	8.999
550.57	8.992
550.91	8.967
551.25	8.971
551.58	8.964
551.92	8.943
552.26	8.935
552.59	8.911
552.93	8.917
553.27	8.926
553.60	8.909
553.94	8.895
554.27	8.892
554.61	8.910
554.95	8.897
555.28	8.879
555.62	8.879
555.95	8.898
556.29	8.886
556.63	8.874
556.96	8.845
557.30	8.820
557.63	8.813
557.97	8.789
558.31	8.746
558.64	8.728
558.98	8.733
559.31	8.727
559.65	8.689
559.98	8.679
560.32	8.640
560.65	8.607
560.99	8.584
561.33	8.548
561.66	8.546
562.00	8.547
562.33	8.534
562.67	8.515
563.00	8.495
563.34	8.483
563.67	8.451
564.01	8.433
564.34	8.421
564.68	8.409
565.01	8.382
565.35	8.345
565.68	8.302
566.02	8.265
566.35	8.199
566.69	8.114
567.02	8.079
567.36	8.014
567.69	7.986
568.03	7.927
568.36	7.871
568.69	7.849
569.03	7.821
569.36	7.801
569.70	7.751
570.03	7.738
570.37	7.745
570.70	7.713
571.04	7.708
571.37	7.670
571.70	7.657
572.04	7.623
572.37	7.586
572.71	7.549
573.04	7.517
573.37	7.498
573.71	7.452
574.04	7.406
574.38	7.366
574.71	7.327
575.04	7.288
575.38	7.227
575.71	7.165
576.05	7.110
576.38	7.078
576.71	7.001
577.05	6.961
577.38	6.920
577.71	6.847
578.05	6.799
578.38	6.763
578.71	6.695
579.05	6.667
579.38	6.631
579.71	6.604
580.05	6.535
580.38	6.523
580.71	6.477
581.05	6.453
581.38	6.452
581.71	6.425
582.05	6.382
582.38	6.398
582.71	6.381
583.04	6.419
583.38	6.387
583.71	6.393
584.04	6.388
584.38	6.378
584.71	6.362
585.04	6.366
585.37	6.353
585.71	6.365
586.04	6.350
586.37	6.365
586.70	6.349
587.04	6.369
587.37	6.362
587.70	6.350
588.03	6.360
588.37	6.351
588.70	6.312
589.03	6.296
589.36	6.277
589.69	6.258
590.03	6.221
590.36	6.179
590.69	6.138
591.02	6.112
591.35	6.098
591.69	6.071
592.02	6.057
592.35	6.072
592.68	6.070
593.01	6.049
593.35	6.038
593.68	6.027
594.01	6.024
594.34	6.008
594.67	6.005
595.00	5.979
595.34	5.956
595.67	5.919
596.00	5.895
596.33	5.854
596.66	5.836
596.99	5.794
597.32	5.723
597.65	5.696
597.99	5.654
598.32	5.608
598.65	5.560
598.98	5.498
599.31	5.499
599.64	5.488
599.97	5.460
600.30	5.438
600.63	5.448
600.96	5.483
601.30	5.477
601.63	5.495
601.96	5.491
602.29	5.500
602.62	5.507
602.95	5.477
603.28	5.460
603.61	5.442
603.94	5.404
604.27	5.396
604.60	5.369
604.93	5.351
605.26	5.298
605.59	5.277
605.92	5.262
606.25	5.248
606.58	5.228
606.91	5.177
607.24	5.192
607.57	5.190
607.90	5.131
608.23	5.083
608.56	5.025
608.89	4.994
609.22	4.945
609.55	4.899
609.88	4.844
610.21	4.805
610.54	4.765
610.87	4.684
611.20	4.610
611.53	4.583
611.86	4.559
612.19	4.512
612.52	4.457
612.85	4.434
613.18	4.366
613.51	4.308
613.84	4.262
614.17	4.240
614.49	4.243
614.82	4.200
615.15	4.155
615.48	4.142
615.81	4.116
616.14	4.122
616.47	4.072
616.80	4.048
617.13	4.043
617.46	3.993
617.78	3.966
618.11	3.920
618.44	3.929
618.77	3.891
619.10	3.834
619.43	3.835
619.76	3.791
620.09	3.817
620.41	3.815
620.74	3.839
621.07	3.872
621.40	3.875
621.73	3.891
622.06	3.908
622.38	3.955
622.71	3.989
623.04	4.010
623.37	4.075
623.70	4.059
624.02	4.114
624.35	4.147
624.68	4.154
625.01	4.172
625.34	4.200
625.66	4.196
625.99	4.215
626.32	4.210
626.65	4.211
626.98	4.182
627.30	4.196
627.63	4.146
627.96	4.076
628.29	4.042
628.61	3.989
628.94	3.938
629.27	3.924
629.60	3.856
629.92	3.849
630.25	3.787
630.58	3.765
630.91	3.725
631.23	3.729
631.56	3.736
631.89	3.725
632.21	3.738
632.54	3.723
632.87	3.677
633.19	3.655
633.52	3.596
633.85	3.611
634.18	3.539
634.50	3.498
634.83	3.428
635.16	3.356
635.48	3.252
635.81	3.171
636.14	3.094
636.46	3.024
636.79	2.967
637.11	2.907
637.44	2.786
637.77	2.747
638.09	2.671
638.42	2.612
638.75	2.557
639.07	2.582
639.40	2.535
639.73	2.488
640.05	2.463
640.38	2.421
640.70	2.371
641.03	2.367
641.36	2.346
641.68	2.350
642.01	2.333
642.33	2.327
642.66	2.274
642.98	2.254
643.31	2.265
643.64	2.282
643.96	2.249
644.29	2.269
644.61	2.265
644.94	2.283
645.26	2.254
645.59	2.257
645.91	2.237
646.24	2.256
646.56	2.268
646.89	2.271
647.22	2.205
647.54	2.231
647.87	2.214
648.19	2.160
648.52	2.114
648.84	2.118
649.17	2.078
649.49	2.094
649.82	2.059
650.14	2.031
650.47	1.984
650.79	2.053
651.11	2.039
651.44	2.068
651.76	2.086
652.09	2.126
652.41	2.178
652.74	2.193
653.06	2.202
653.39	2.261
653.71	2.307
654.04	2.341
654.36	2.328
654.68	2.381
655.01	2.402
655.33	2.460
655.66	2.475
655.98	2.464
656.30	2.497
656.63	2.526
656.95	2.533
657.28	2.554
657.60	2.496
657.92	2.470
658.25	2.440
658.57	2.428
658.90	2.402
659.22	2.399
659.54	2.377
659.87	2.382
660.19	2.311
660.51	2.246
660.84	2.215
661.16	2.249
661.48	2.253
661.81	2.227
662.13	2.192
662.45	2.193
662.78	2.181
663.10	2.231
663.42	2.234
663.75	2.287
664.07	2.377
664.39	2.398
664.72	2.414
665.04	2.436
665.36	2.539
665.69	2.598
666.01	2.697
666.33	2.799
666.65	2.795
666.98	2.911
667.30	3.037
667.62	3.114
667.94	3.207
668.27	3.343
668.59	3.478
668.91	3.546
669.23	3.631
669.56	3.723
669.88	3.812
670.20	3.955
670.52	4.046
670.85	4.081
671.17	4.208
671.49	4.331
671.81	4.497
672.13	4.649
672.46	4.811
672.78	4.984
673.10	5.176
673.42	5.321
673.74	5.470
674.07	5.626
674.39	5.865
674.71	5.976
675.03	6.197
675.35	6.306
675.67	6.449
676.00	6.580
676.32	6.704
676.64	6.822
676.96	6.977
677.28	7.155
677.60	7.276
677.92	7.406
678.25	7.574
678.57	7.687
678.89	7.799
679.21	7.921
679.53	8.067
679.85	8.222
680.17	8.363
680.49	8.517
680.81	8.670
681.13	8.850
681.46	8.994
681.78	9.145
682.10	9.294
682.42	9.499
682.74	9.723
683.06	9.913
683.38	10.113
683.70	10.261
684.02	10.452
684.34	10.641
684.66	10.832
684.98	10.981
685.30	11.123
685.62	11.231
685.94	11.379
686.26	11.389
686.58	11.443
686.90	11.484
687.22	11.565
687.54	11.534
687.86	11.549
688.18	11.530
688.50	11.578
688.82	11.591
689.14	11.678
689.46	11.722
689.78	11.869
690.10	11.956
690.42	12.026
690.74	12.066
691.06	12.230
691.38	12.310
691.70	12.437
692.02	12.538
692.34	12.680
692.66	12.740
692.98	12.810
693.30	12.850
693.62	12.931
693.94	12.994
694.26	13.037
694.57	13.016
694.89	13.083
695.21	13.119
695.53	13.207
695.85	13.212
696.17	13.271
696.49	13.372
696.81	13.456
697.13	13.518
697.44	13.615
697.76	13.741
698.08	13.969
698.40	14.147
698.72	14.300
699.04	14.390
699.36	14.647
699.67	14.853
699.99	15.016
700.31	15.204
700.63	15.478
700.95	15.747
701.27	15.978
701.58	16.039
701.90	16.112
702.22	16.280
702.54	16.430
702.86	16.530
703.17	16.606
703.49	16.693
703.81	16.806
704.13	16.875
704.45	16.962
704.76	17.082
705.08	17.231
705.40	17.373
705.72	17.494
706.03	17.681
706.35	17.764
706.67	17.979
706.99	18.167
707.30	18.397
707.62	18.517
707.94	18.695
708.26	18.836
708.57	19.037
708.89	19.200
709.21	19.391
709.53	19.624
709.84	19.732
710.16	19.853
710.48	19.990
710.79	20.072
711.11	20.305
711.43	20.459
711.74	20.579
712.06	20.715
712.38	20.884
712.69	20.977
713.01	21.134
713.33	21.446
713.64	21.645
713.96	21.942
714.28	22.219
714.59	22.413
714.91	22.684
715.23	22.980
715.54	23.208
715.86	23.531
716.17	23.832
716.49	24.055
716.81	24.302
717.12	24.568
717.44	24.717
717.76	24.971
718.07	25.137
718.39	25.377
718.70	25.630
719.02	25.884
719.33	26.011
719.65	26.163
719.97	26.337
720.28	26.473
720.60	26.665
720.91	26.846
721.23	27.040
721.54	27.331
721.86	27.339
722.17	27.374
722.49	27.511
722.81	27.595
723.12	27.929
723.44	28.135
723.75	28.391
724.07	28.671
724.38	28.938
724.70	29.061
725.01	29.207
725.33	29.426
725.64	29.699
725.96	29.878
726.27	30.012
726.59	30.106
726.90	30.237
727.22	30.214
727.53	30.358
727.84	30.459
728.16	30.552
728.47	30.643
728.79	30.774
729.10	30.818
729.42	30.913
729.73	31.152
730.05	31.234
730.36	31.305
730.67	31.543
730.99	31.540
731.30	31.656
731.62	31.775
731.93	31.904
732.24	31.972
732.56	32.211
732.87	32.379
733.19	32.477
733.50	32.608
733.81	32.707
734.13	32.776
734.44	32.964
734.76	32.974
735.07	33.107
735.38	33.169
735.70	33.452
736.01	33.509
736.32	33.569
736.64	33.829
736.95	33.894
737.26	34.031
737.58	34.097
737.89	34.236
738.20	34.461
738.52	34.520
738.83	34.611
739.14	34.634
739.45	34.721
739.77	34.777
740.08	34.610
740.39	34.639
740.71	34.719
741.02	34.726
741.33	34.585
741.64	34.582
741.96	34.715
742.27	34.790
742.58	34.743
742.90	34.748
743.21	34.810
743.52	34.930
743.83	35.037
744.14	34.982
744.46	35.256
744.77	35.374
745.08	35.392
745.39	35.327
745.71	35.291
746.02	35.258
746.33	35.508
746.64	35.462
746.95	35.532
747.27	35.505
747.58	35.700
747.89	35.543
748.20	35.543
748.51	35.483
748.82	35.520
749.14	35.720
749.45	35.864
749.76	35.777
750.07	35.903
750.38	35.776
750.69	35.851
751.01	35.842
751.32	35.876
751.63	35.899
751.94	35.757
752.25	35.789
752.56	35.708
752.87	35.667
753.18	35.540
753.49	35.920
753.81	36.100
754.12	36.176
754.43	36.296
754.74	36.341
755.05	36.517
755.36	36.746
755.67	36.767
755.98	36.824
756.29	37.050
756.60	37.226
756.91	37.139
757.22	37.173
757.53	37.317
757.84	37.385
758.15	37.758
758.46	37.745
758.77	37.878
759.09	38.053
759.40	38.108
759.71	37.979
760.02	37.955
760.33	37.826
760.64	37.863
760.95	37.884
761.26	37.734
761.57	37.504
761.88	37.396
762.18	37.322
762.49	37.213
762.80	37.131
763.11	37.147
763.42	37.103
763.73	37.063
764.04	36.995
764.35	36.771
764.66	36.610
764.97	36.427
765.28	36.257
765.59	36.020
765.90	35.721
766.21	35.509
766.52	35.291
766.83	35.115
767.14	34.977
767.44	34.553
767.75	34.162
768.06	34.023
768.37	33.755
768.68	33.629
768.99	33.552
769.30	33.673
769.61	33.375
769.91	32.997
770.22	32.766
770.53	32.559
770.84	32.652
771.15	32.851
771.46	32.576
771.77	32.714
772.07	32.676
772.38	32.551
772.69	32.447
773.00	32.579
773.31	32.790
773.61	32.780
773.92	32.734
774.23	32.480
774.54	32.294
774.85	32.254
775.15	32.046
775.46	31.941
775.77	32.044
776.08	31.890
776.39	31.945
776.69	32.007
777.00	32.001
777.31	32.097
777.62	32.273
777.92	32.197
778.23	32.577
778.54	32.842
778.85	33.012
779.15	32.877
779.46	32.978
779.77	32.872
780.07	32.770
780.38	32.857
780.69	32.395
781.00	32.536
781.30	32.621
781.61	32.469
781.92	32.505
782.22	32.769
782.53	32.666
782.84	32.803
783.14	32.930
783.45	32.961
783.76	32.983
784.06	33.231
784.37	32.752
784.68	32.855
784.98	33.155
785.29	33.250
785.60	33.110
785.90	33.222
786.21	33.063
786.51	33.135
786.82	33.397
787.13	33.501
787.43	33.677
787.74	34.074
788.04	34.319
788.35	34.113
788.66	33.972
788.96	33.998
789.27	34.074
789.57	34.058
789.88	34.071
790.19	33.988
790.49	33.770
790.80	33.816
791.10	33.934
791.41	33.806
791.71	33.783
792.02	33.759
792.32	33.492
792.63	33.411
792.93	33.552
793.24	33.575
793.54	33.482
793.85	33.651
794.15	33.597
794.46	33.320
794.76	33.284
795.07	33.239
795.37	33.394
795.68	33.842
795.98	34.032
796.29	34.332
796.59	34.319
796.90	34.445
797.20	34.108
797.51	33.915
797.81	33.890
798.12	33.911
798.42	34.286
798.72	34.185
799.03	33.789
799.33	33.647
799.64	33.306
799.94	33.493
800.25	33.399
800.55	33.679
800.85	34.137
801.16	34.328
801.46	34.228
801.77	33.818
802.07	34.086
802.37	34.097
802.68	33.984
802.98	34.153
803.28	33.709
803.59	33.717
803.89	33.914
804.20	33.923
804.50	33.740
804.80	34.094
805.11	34.462
805.41	34.184
805.71	34.371
806.02	34.853
806.32	34.753
806.62	34.976
806.93	35.369
807.23	35.390
807.53	35.500
807.83	35.838
808.14	35.765
808.44	35.542
808.74	35.381
809.05	35.575
809.35	35.445
809.65	35.964
809.95	36.318
810.26	36.009
810.56	35.893
810.86	35.566
811.16	35.589
811.47	35.726
811.77	36.088
812.07	36.876
812.37	36.927
812.68	37.189
812.98	37.080
813.28	37.065
813.58	37.718
813.88	37.777
814.19	38.606
814.49	39.065
814.79	39.123
815.09	39.456
815.39	39.041
815.70	39.121
816.00	39.001
816.30	38.757
816.60	38.924
816.90	38.431
817.20	38.585
817.50	38.228
817.81	37.573
818.11	37.428
818.41	37.335
818.71	37.420
819.01	37.461
819.31	37.641
819.61	37.897
819.92	38.074
820.22	38.405
820.52	38.595
820.82	38.860
821.12	39.290
821.42	39.627
821.72	39.874
822.02	40.242
822.32	40.615
822.62	40.952
822.92	41.211
823.22	41.457
823.52	41.640
823.83	41.829
824.13	41.827
824.43	41.716
824.73	41.681
825.03	41.570
825.33	41.488
825.63	41.301
825.93	40.963
826.23	40.772
826.53	40.649
826.83	40.434
827.13	40.385
827.43	40.530
827.73	40.881
828.03	41.023
828.33	41.445
828.63	41.417
828.93	41.392
829.23	41.499
829.53	41.190
829.83	40.800
830.13	40.700
830.42	40.202
830.72	39.745
831.02	39.106
831.32	38.776
831.62	38.639
831.92	38.515
832.22	38.408
832.52	38.383
832.82	38.826
833.12	39.041
833.42	38.978
833.72	39.036
834.01	39.176
834.31	39.562
834.61	39.861
834.91	40.131
835.21	40.435
835.51	40.766
835.81	40.549
836.11	40.505
836.40	40.392
836.70	40.910
837.00	41.160
837.30	41.286
837.60	41.137
837.90	40.867
838.19	40.134
838.49	39.735
838.79	39.583
839.09	39.948
839.39	39.655
839.68	39.813
839.98	38.810
840.28	38.463
840.58	38.718
840.88	39.348
841.17	39.025
841.47	39.608
841.77	39.284
842.07	39.520
842.36	40.034
842.66	39.973
842.96	39.657
843.26	39.451
843.55	39.078
843.85	38.419
844.15	36.590
844.45	36.372
844.74	35.562
845.04	35.214
845.34	34.364
845.63	34.352
845.93	33.633
846.23	34.438
846.53	34.772
846.82	35.838
847.12	35.454
847.42	35.561
847.71	34.834
848.01	33.197
848.31	33.273
848.60	33.353
848.90	32.499
849.19	31.701
849.49	30.714
849.79	31.264
850.08	31.034
850.38	31.464
850.68	32.054
850.97	34.655
851.27	35.614
851.56	36.639
851.86	35.556
852.16	35.841
852.45	36.144
852.75	35.341
853.04	35.264
853.34	35.463
853.64	34.278
853.93	32.093
854.23	30.135
854.52	31.011
854.82	31.771
855.11	30.992
855.41	32.556
855.70	33.435
856.00	33.870
856.30	32.926
856.59	32.400
856.89	33.685
857.18	34.773
857.48	35.563
857.77	34.231
858.07	33.810
858.36	34.143
858.66	32.936
858.95	32.567
859.25	32.790
859.54	33.844
859.84	33.661
860.13	33.620
860.42	33.911
860.72	32.482
861.01	33.406
861.31	34.109
861.60	35.511
861.90	34.504
862.19	34.667
862.49	33.502
862.78	33.619
863.07	35.090
863.37	34.244
863.66	32.718
863.96	35.611
864.25	35.888
864.54	35.332
864.84	35.922
865.13	36.544
865.43	36.828
865.72	42.586
866.01	46.385
866.31	42.715
866.60	31.056
866.89	35.581
>>>>>End Spectral Data<<<<<
