OOIBase32 Version 2.0.0.6 Data File
++++++++++++++++++++++++++++++++++++
Date: 01-23-2012, 23:14:45
User: Valued Ocean Optics Customer
Spectrometer Serial Number: USB2E2917
Spectrometer Channel: Master
Integration Time (msec): 5
Spectra Averaged: 10
Boxcar Smoothing: 5
Correct for Electrical Dark: Enabled
Time Normalized: Disabled
Dual-beam Reference: Disabled
Reference Channel: Master
Temperature: Not acquired
Spectrometer Type: S2000
ADC Type: USB2000
Number of Pixels in File: 2048
Graph Title: 
>>>>>Begin Spectral Data<<<<<
180.30	0.000
180.67	0.000
181.03	71.967
181.40	286.121
181.77	-6904.817
182.14	17.921
182.51	-111.004
182.88	116.308
183.25	-6.978
183.62	14.673
183.99	140.616
184.36	-149.330
184.73	381.779
185.10	98.698
185.46	-58.379
185.83	-509.558
186.20	654.305
186.57	153.265
186.94	-39.607
187.31	41.705
187.68	73.061
188.05	-16.419
188.42	19.439
188.78	47.435
189.15	-140.850
189.52	114.218
189.89	89.400
190.26	75.516
190.63	39.841
191.00	31.186
191.37	25.004
191.73	34.724
192.10	24.746
192.47	29.547
192.84	34.929
193.21	38.039
193.58	28.922
193.94	19.774
194.31	20.917
194.68	22.740
195.05	16.551
195.42	21.280
195.79	14.405
196.15	10.030
196.52	3.515
196.89	5.011
197.26	-0.020
197.63	17.429
198.00	29.044
198.36	22.339
198.73	5.465
199.10	6.842
199.47	12.240
199.84	9.701
200.20	17.647
200.57	22.017
200.94	11.202
201.31	8.771
201.68	5.119
202.04	3.752
202.41	6.242
202.78	10.287
203.15	11.219
203.51	-5.398
203.88	-18.031
204.25	-24.343
204.62	-30.816
204.98	-42.660
205.35	-44.849
205.72	-44.139
206.09	-49.516
206.46	-92.798
206.82	-61.337
207.19	-64.592
207.56	-84.754
207.92	-43.947
208.29	-30.060
208.66	4.135
209.03	10.095
209.39	33.565
209.76	41.838
210.13	44.409
210.50	28.723
210.86	31.922
211.23	35.245
211.60	34.454
211.96	26.793
212.33	20.213
212.70	7.431
213.07	-5.519
213.43	-53.480
213.80	-68.232
214.17	-29.740
214.53	-3.798
214.90	3.402
215.27	11.492
215.63	3.422
216.00	8.840
216.37	5.741
216.74	-4.254
217.10	2.653
217.47	2.317
217.84	8.330
218.20	1.209
218.57	-6.207
218.94	-16.382
219.30	-20.175
219.67	-14.039
220.04	-15.720
220.40	-16.897
220.77	-15.996
221.13	-12.506
221.50	-8.284
221.87	-7.642
222.23	-8.078
222.60	-16.395
222.97	-9.833
223.33	-3.402
223.70	-5.813
224.07	-7.641
224.43	-7.026
224.80	-5.721
225.16	-5.309
225.53	-4.863
225.90	-7.557
226.26	-4.504
226.63	-0.821
226.99	0.171
227.36	-0.446
227.73	2.159
228.09	4.039
228.46	5.487
228.82	6.384
229.19	5.581
229.56	6.192
229.92	7.866
230.29	7.698
230.65	6.567
231.02	3.792
231.38	1.738
231.75	-1.835
232.12	-4.477
232.48	-5.586
232.85	-5.998
233.21	-5.609
233.58	-6.664
233.94	-5.203
234.31	-4.771
234.68	-4.433
235.04	-2.292
235.41	-0.812
235.77	1.608
236.14	2.582
236.50	3.353
236.87	2.629
237.23	3.442
237.60	3.204
237.96	2.159
238.33	1.082
238.69	0.309
239.06	0.164
239.42	0.454
239.79	-0.327
240.15	-0.453
240.52	-0.389
240.88	0.055
241.25	-0.293
241.61	-0.006
241.98	-0.158
242.34	0.143
242.71	0.712
243.07	0.857
243.44	0.724
243.80	0.837
244.17	0.915
244.53	0.826
244.90	0.818
245.26	0.890
245.63	0.838
245.99	0.924
246.36	0.924
246.72	1.105
247.09	0.645
247.45	0.599
247.81	0.803
248.18	0.734
248.54	0.777
248.91	0.649
249.27	0.841
249.64	0.976
250.00	1.058
250.36	0.811
250.73	0.591
251.09	1.105
251.46	0.994
251.82	0.825
252.19	1.046
252.55	0.810
252.91	1.296
253.28	1.464
253.64	1.395
254.01	1.308
254.37	1.471
254.73	1.741
255.10	2.042
255.46	2.355
255.83	2.324
256.19	2.215
256.55	2.013
256.92	1.908
257.28	1.685
257.65	1.711
258.01	1.741
258.37	1.783
258.74	1.507
259.10	1.263
259.46	1.159
259.83	1.167
260.19	1.067
260.55	1.082
260.92	0.775
261.28	0.889
261.64	0.853
262.01	0.639
262.37	0.474
262.73	0.550
263.10	0.758
263.46	0.482
263.82	0.161
264.19	0.172
264.55	0.031
264.91	0.197
265.28	0.150
265.64	0.204
266.00	0.406
266.37	0.637
266.73	0.785
267.09	0.824
267.46	0.923
267.82	0.910
268.18	1.013
268.54	1.237
268.91	1.230
269.27	1.016
269.63	1.044
270.00	1.047
270.36	0.835
270.72	0.765
271.08	0.863
271.45	0.882
271.81	0.847
272.17	0.782
272.53	0.849
272.90	0.866
273.26	1.118
273.62	1.030
273.98	0.955
274.35	1.006
274.71	1.044
275.07	0.832
275.43	0.697
275.80	0.644
276.16	0.659
276.52	0.703
276.88	0.831
277.25	0.340
277.61	0.113
277.97	-0.077
278.33	0.109
278.69	-0.003
279.06	-0.154
279.42	-0.119
279.78	0.227
280.14	0.241
280.50	0.183
280.87	0.040
281.23	0.182
281.59	0.233
281.95	0.372
282.31	0.480
282.68	0.388
283.04	0.413
283.40	0.534
283.76	0.455
284.12	0.592
284.48	0.693
284.85	0.758
285.21	0.838
285.57	0.907
285.93	1.064
286.29	0.822
286.65	1.033
287.02	1.467
287.38	1.421
287.74	1.352
288.10	1.316
288.46	1.198
288.82	1.157
289.18	1.154
289.54	1.102
289.91	0.943
290.27	0.979
290.63	0.991
290.99	0.838
291.35	0.863
291.71	1.019
292.07	0.890
292.43	0.819
292.79	0.779
293.16	0.757
293.52	1.003
293.88	1.165
294.24	1.272
294.60	1.193
294.96	1.112
295.32	1.164
295.68	1.183
296.04	1.213
296.40	1.179
296.76	1.295
297.12	1.285
297.49	1.051
297.85	0.841
298.21	0.714
298.57	0.527
298.93	0.548
299.29	0.477
299.65	0.447
300.01	0.347
300.37	0.508
300.73	0.580
301.09	0.665
301.45	0.852
301.81	0.913
302.17	0.931
302.53	0.884
302.89	0.788
303.25	0.878
303.61	0.872
303.97	0.923
304.33	0.936
304.69	0.907
305.05	0.876
305.41	0.819
305.77	0.950
306.13	0.943
306.49	0.985
306.85	1.019
307.21	1.042
307.57	0.997
307.93	1.000
308.29	0.998
308.65	0.940
309.01	0.886
309.37	0.909
309.73	0.899
310.09	1.133
310.45	1.299
310.81	1.306
311.17	1.235
311.53	1.236
311.89	1.308
312.25	1.368
312.61	1.357
312.96	1.525
313.32	1.580
313.68	1.375
314.04	1.161
314.40	1.071
314.76	1.011
315.12	0.965
315.48	1.030
315.84	0.912
316.20	0.772
316.56	0.663
316.92	0.526
317.27	0.397
317.63	0.560
317.99	0.483
318.35	0.511
318.71	0.560
319.07	0.643
319.43	0.626
319.79	0.711
320.15	0.771
320.50	0.943
320.86	0.988
321.22	1.047
321.58	1.112
321.94	1.199
322.30	1.192
322.66	1.185
323.01	1.101
323.37	1.059
323.73	1.025
324.09	0.969
324.45	0.952
324.81	0.939
325.17	0.938
325.52	0.829
325.88	0.804
326.24	0.877
326.60	0.854
326.96	0.851
327.31	0.706
327.67	0.550
328.03	0.621
328.39	0.588
328.75	0.568
329.11	0.602
329.46	0.638
329.82	0.723
330.18	0.626
330.54	0.585
330.90	0.618
331.25	0.762
331.61	1.013
331.97	1.018
332.33	1.065
332.68	1.109
333.04	1.117
333.40	1.074
333.76	0.960
334.11	0.916
334.47	0.972
334.83	0.932
335.19	0.884
335.54	0.799
335.90	0.722
336.26	0.649
336.62	0.601
336.97	0.479
337.33	0.532
337.69	0.547
338.05	0.546
338.40	0.434
338.76	0.444
339.12	0.489
339.48	0.432
339.83	0.445
340.19	0.441
340.55	0.514
340.90	0.552
341.26	0.466
341.62	0.458
341.97	0.473
342.33	0.551
342.69	0.588
343.04	0.584
343.40	0.545
343.76	0.502
344.12	0.579
344.47	0.595
344.83	0.659
345.19	0.770
345.54	0.834
345.90	0.921
346.26	0.952
346.61	0.976
346.97	0.976
347.32	1.029
347.68	1.109
348.04	1.049
348.39	0.914
348.75	0.902
349.11	0.793
349.46	0.756
349.82	0.671
350.18	0.636
350.53	0.633
350.89	0.691
351.24	0.734
351.60	0.684
351.96	0.752
352.31	0.825
352.67	0.921
353.02	1.007
353.38	1.002
353.74	1.059
354.09	1.077
354.45	1.191
354.80	1.219
355.16	1.310
355.52	1.402
355.87	1.363
356.23	1.449
356.58	1.421
356.94	1.462
357.29	1.544
357.65	1.593
358.00	1.681
358.36	1.624
358.72	1.632
359.07	1.622
359.43	1.657
359.78	1.771
360.14	1.755
360.49	1.763
360.85	1.792
361.20	1.818
361.56	1.877
361.91	1.944
362.27	1.996
362.62	2.104
362.98	2.211
363.33	2.253
363.69	2.244
364.04	2.324
364.40	2.475
364.75	2.564
365.11	2.586
365.46	2.630
365.82	2.673
366.17	2.733
366.53	2.756
366.88	2.800
367.24	2.925
367.59	3.013
367.95	3.126
368.30	3.128
368.66	3.213
369.01	3.315
369.37	3.362
369.72	3.456
370.08	3.576
370.43	3.641
370.78	3.715
371.14	3.720
371.49	3.829
371.85	3.847
372.20	3.921
372.56	3.964
372.91	4.057
373.26	4.173
373.62	4.201
373.97	4.287
374.33	4.352
374.68	4.423
375.03	4.528
375.39	4.541
375.74	4.601
376.10	4.705
376.45	4.786
376.80	4.855
377.16	4.860
377.51	4.960
377.87	5.015
378.22	5.046
378.57	5.085
378.93	5.154
379.28	5.244
379.63	5.327
379.99	5.397
380.34	5.441
380.70	5.494
381.05	5.609
381.40	5.622
381.76	5.694
382.11	5.804
382.46	5.880
382.82	5.943
383.17	5.997
383.52	6.050
383.88	6.072
384.23	6.127
384.58	6.168
384.94	6.193
385.29	6.268
385.64	6.287
385.99	6.339
386.35	6.403
386.70	6.441
387.05	6.469
387.41	6.501
387.76	6.520
388.11	6.536
388.47	6.553
388.82	6.623
389.17	6.625
389.52	6.686
389.88	6.728
390.23	6.773
390.58	6.843
390.93	6.894
391.29	6.960
391.64	6.973
391.99	7.063
392.34	7.117
392.70	7.101
393.05	7.157
393.40	7.176
393.75	7.174
394.11	7.155
394.46	7.098
394.81	7.117
395.16	7.079
395.52	7.126
395.87	7.096
396.22	7.141
396.57	7.165
396.92	7.143
397.28	7.092
397.63	7.091
397.98	7.095
398.33	7.098
398.68	7.135
399.04	7.129
399.39	7.120
399.74	7.107
400.09	7.072
400.44	7.090
400.80	7.111
401.15	7.119
401.50	7.122
401.85	7.113
402.20	7.116
402.55	7.103
402.90	7.124
403.26	7.109
403.61	7.120
403.96	7.127
404.31	7.115
404.66	7.112
405.01	7.107
405.36	7.107
405.72	7.115
406.07	7.140
406.42	7.114
406.77	7.122
407.12	7.163
407.47	7.155
407.82	7.140
408.17	7.135
408.53	7.135
408.88	7.153
409.23	7.143
409.58	7.116
409.93	7.112
410.28	7.112
410.63	7.102
410.98	7.078
411.33	7.068
411.68	7.092
412.03	7.117
412.38	7.106
412.73	7.123
413.09	7.135
413.44	7.164
413.79	7.144
414.14	7.154
414.49	7.179
414.84	7.196
415.19	7.210
415.54	7.207
415.89	7.187
416.24	7.221
416.59	7.203
416.94	7.207
417.29	7.233
417.64	7.249
417.99	7.261
418.34	7.271
418.69	7.293
419.04	7.299
419.39	7.297
419.74	7.287
420.09	7.284
420.44	7.297
420.79	7.320
421.14	7.309
421.49	7.320
421.84	7.318
422.19	7.327
422.54	7.322
422.89	7.320
423.24	7.324
423.59	7.346
423.94	7.328
424.29	7.332
424.64	7.310
424.99	7.314
425.34	7.297
425.68	7.319
426.03	7.294
426.38	7.282
426.73	7.330
427.08	7.324
427.43	7.333
427.78	7.370
428.13	7.355
428.48	7.359
428.83	7.342
429.18	7.362
429.53	7.332
429.87	7.308
430.22	7.287
430.57	7.250
430.92	7.248
431.27	7.252
431.62	7.245
431.97	7.256
432.32	7.240
432.67	7.247
433.01	7.225
433.36	7.211
433.71	7.209
434.06	7.200
434.41	7.184
434.76	7.199
435.11	7.195
435.45	7.172
435.80	7.153
436.15	7.157
436.50	7.166
436.85	7.177
437.20	7.178
437.54	7.171
437.89	7.185
438.24	7.203
438.59	7.202
438.94	7.187
439.29	7.187
439.63	7.216
439.98	7.233
440.33	7.219
440.68	7.224
441.03	7.253
441.37	7.296
441.72	7.311
442.07	7.307
442.42	7.326
442.76	7.344
443.11	7.364
443.46	7.373
443.81	7.388
444.16	7.419
444.50	7.420
444.85	7.416
445.20	7.424
445.55	7.436
445.89	7.470
446.24	7.479
446.59	7.473
446.94	7.492
447.28	7.491
447.63	7.495
447.98	7.496
448.32	7.525
448.67	7.550
449.02	7.546
449.37	7.552
449.71	7.541
450.06	7.527
450.41	7.573
450.75	7.566
451.10	7.585
451.45	7.578
451.79	7.570
452.14	7.551
452.49	7.539
452.84	7.539
453.18	7.540
453.53	7.524
453.88	7.532
454.22	7.512
454.57	7.529
454.92	7.520
455.26	7.545
455.61	7.574
455.95	7.613
456.30	7.619
456.65	7.644
456.99	7.669
457.34	7.694
457.69	7.709
458.03	7.717
458.38	7.730
458.73	7.742
459.07	7.743
459.42	7.720
459.76	7.700
460.11	7.705
460.46	7.685
460.80	7.663
461.15	7.653
461.49	7.644
461.84	7.648
462.19	7.635
462.53	7.628
462.88	7.618
463.22	7.631
463.57	7.630
463.91	7.619
464.26	7.639
464.61	7.636
464.95	7.622
465.30	7.613
465.64	7.628
465.99	7.639
466.33	7.636
466.68	7.639
467.02	7.642
467.37	7.638
467.71	7.632
468.06	7.615
468.41	7.588
468.75	7.580
469.10	7.575
469.44	7.540
469.79	7.514
470.13	7.487
470.48	7.484
470.82	7.475
471.17	7.470
471.51	7.472
471.86	7.460
472.20	7.452
472.55	7.451
472.89	7.443
473.23	7.441
473.58	7.437
473.92	7.457
474.27	7.433
474.61	7.421
474.96	7.425
475.30	7.437
475.65	7.419
475.99	7.432
476.34	7.424
476.68	7.438
477.02	7.442
477.37	7.453
477.71	7.475
478.06	7.512
478.40	7.573
478.75	7.631
479.09	7.712
479.43	7.844
479.78	8.003
480.12	8.168
480.47	8.339
480.81	8.499
481.15	8.657
481.50	8.813
481.84	9.009
482.19	9.200
482.53	9.375
482.87	9.484
483.22	9.490
483.56	9.392
483.90	9.255
484.25	9.063
484.59	8.865
484.94	8.686
485.28	8.530
485.62	8.332
485.97	8.125
486.31	7.939
486.65	7.813
487.00	7.765
487.34	7.794
487.68	7.843
488.03	7.914
488.37	7.999
488.71	8.055
489.06	8.063
489.40	8.066
489.74	8.063
490.09	8.070
490.43	8.064
490.77	8.062
491.11	8.037
491.46	8.020
491.80	8.014
492.14	7.994
492.49	7.972
492.83	7.952
493.17	7.932
493.51	7.935
493.86	7.914
494.20	7.908
494.54	7.898
494.88	7.919
495.23	7.948
495.57	7.962
495.91	8.008
496.25	8.051
496.60	8.096
496.94	8.123
497.28	8.144
497.62	8.178
497.97	8.196
498.31	8.242
498.65	8.277
498.99	8.307
499.33	8.368
499.68	8.396
500.02	8.445
500.36	8.476
500.70	8.542
501.04	8.583
501.39	8.628
501.73	8.694
502.07	8.751
502.41	8.818
502.75	8.896
503.09	8.958
503.44	9.025
503.78	9.080
504.12	9.144
504.46	9.207
504.80	9.289
505.14	9.363
505.49	9.426
505.83	9.475
506.17	9.535
506.51	9.602
506.85	9.664
507.19	9.732
507.53	9.790
507.87	9.868
508.22	9.925
508.56	9.974
508.90	10.021
509.24	10.077
509.58	10.146
509.92	10.204
510.26	10.261
510.60	10.327
510.94	10.398
511.28	10.475
511.63	10.543
511.97	10.618
512.31	10.701
512.65	10.781
512.99	10.880
513.33	11.009
513.67	11.123
514.01	11.244
514.35	11.348
514.69	11.463
515.03	11.563
515.37	11.670
515.71	11.763
516.05	11.859
516.39	11.956
516.73	12.053
517.07	12.118
517.41	12.169
517.75	12.221
518.09	12.288
518.43	12.341
518.77	12.374
519.11	12.415
519.45	12.477
519.79	12.552
520.13	12.612
520.47	12.667
520.81	12.740
521.15	12.846
521.49	12.923
521.83	13.016
522.17	13.104
522.51	13.237
522.85	13.366
523.19	13.525
523.53	13.678
523.87	13.857
524.21	14.045
524.55	14.210
524.89	14.378
525.23	14.528
525.57	14.656
525.91	14.793
526.25	14.917
526.58	15.033
526.92	15.112
527.26	15.160
527.60	15.173
527.94	15.189
528.28	15.188
528.62	15.160
528.96	15.145
529.30	15.124
529.64	15.086
529.97	15.039
530.31	14.983
530.65	14.939
530.99	14.928
531.33	14.963
531.67	14.952
532.01	14.973
532.35	14.983
532.68	14.993
533.02	14.995
533.36	14.987
533.70	14.987
534.04	14.981
534.38	14.972
534.71	14.977
535.05	14.953
535.39	14.946
535.73	14.933
536.07	14.948
536.41	14.956
536.74	14.982
537.08	15.018
537.42	15.061
537.76	15.123
538.10	15.187
538.43	15.234
538.77	15.281
539.11	15.334
539.45	15.369
539.79	15.418
540.12	15.438
540.46	15.446
540.80	15.446
541.14	15.428
541.47	15.386
541.81	15.343
542.15	15.300
542.49	15.261
542.82	15.206
543.16	15.171
543.50	15.099
543.84	15.072
544.17	15.039
544.51	15.025
544.85	15.011
545.18	15.011
545.52	15.009
545.86	14.998
546.20	15.004
546.53	15.011
546.87	14.994
547.21	14.992
547.54	14.965
547.88	14.971
548.22	14.958
548.55	14.945
548.89	14.939
549.23	14.947
549.56	14.927
549.90	14.931
550.24	14.938
550.57	14.938
550.91	14.938
551.25	14.945
551.58	14.930
551.92	14.926
552.26	14.907
552.59	14.913
552.93	14.924
553.27	14.945
553.60	14.918
553.94	14.893
554.27	14.878
554.61	14.872
554.95	14.854
555.28	14.834
555.62	14.813
555.95	14.826
556.29	14.825
556.63	14.782
556.96	14.754
557.30	14.746
557.63	14.704
557.97	14.686
558.31	14.643
558.64	14.632
558.98	14.638
559.31	14.621
559.65	14.573
559.98	14.502
560.32	14.485
560.65	14.460
560.99	14.417
561.33	14.398
561.66	14.354
562.00	14.348
562.33	14.299
562.67	14.247
563.00	14.214
563.34	14.221
563.67	14.227
564.01	14.176
564.34	14.134
564.68	14.113
565.01	14.072
565.35	14.065
565.68	14.019
566.02	13.975
566.35	13.934
566.69	13.887
567.02	13.848
567.36	13.773
567.69	13.750
568.03	13.722
568.36	13.667
568.69	13.620
569.03	13.557
569.36	13.522
569.70	13.491
570.03	13.465
570.37	13.434
570.70	13.379
571.04	13.359
571.37	13.287
571.70	13.241
572.04	13.210
572.37	13.188
572.71	13.155
573.04	13.110
573.37	13.074
573.71	13.035
574.04	13.000
574.38	12.943
574.71	12.912
575.04	12.901
575.38	12.837
575.71	12.782
576.05	12.756
576.38	12.725
576.71	12.681
577.05	12.634
577.38	12.591
577.71	12.542
578.05	12.508
578.38	12.455
578.71	12.421
579.05	12.425
579.38	12.395
579.71	12.339
580.05	12.300
580.38	12.280
580.71	12.260
581.05	12.230
581.38	12.196
581.71	12.195
582.05	12.179
582.38	12.156
582.71	12.119
583.04	12.119
583.38	12.103
583.71	12.102
584.04	12.080
584.38	12.056
584.71	12.046
585.04	12.045
585.37	12.013
585.71	11.995
586.04	11.984
586.37	11.986
586.70	11.978
587.04	11.969
587.37	11.952
587.70	11.954
588.03	11.958
588.37	11.968
588.70	11.966
589.03	11.956
589.36	11.956
589.69	11.930
590.03	11.914
590.36	11.894
590.69	11.869
591.02	11.806
591.35	11.771
591.69	11.736
592.02	11.685
592.35	11.674
592.68	11.674
593.01	11.655
593.35	11.636
593.68	11.630
594.01	11.598
594.34	11.558
594.67	11.575
595.00	11.559
595.34	11.544
595.67	11.514
596.00	11.485
596.33	11.445
596.66	11.400
596.99	11.369
597.32	11.313
597.65	11.301
597.99	11.294
598.32	11.242
598.65	11.223
598.98	11.200
599.31	11.201
599.64	11.194
599.97	11.182
600.30	11.179
600.63	11.187
600.96	11.185
601.30	11.184
601.63	11.209
601.96	11.218
602.29	11.213
602.62	11.206
602.95	11.202
603.28	11.186
603.61	11.163
603.94	11.156
604.27	11.140
604.60	11.124
604.93	11.091
605.26	11.049
605.59	11.039
605.92	11.019
606.25	10.990
606.58	10.969
606.91	10.931
607.24	10.947
607.57	10.937
607.90	10.926
608.23	10.886
608.56	10.844
608.89	10.822
609.22	10.786
609.55	10.759
609.88	10.726
610.21	10.676
610.54	10.640
610.87	10.576
611.20	10.522
611.53	10.470
611.86	10.435
612.19	10.392
612.52	10.361
612.85	10.317
613.18	10.291
613.51	10.266
613.84	10.231
614.17	10.194
614.49	10.189
614.82	10.145
615.15	10.110
615.48	10.126
615.81	10.116
616.14	10.092
616.47	10.049
616.80	10.006
617.13	9.966
617.46	9.929
617.78	9.930
618.11	9.890
618.44	9.877
618.77	9.869
619.10	9.824
619.43	9.828
619.76	9.795
620.09	9.799
620.41	9.794
620.74	9.785
621.07	9.814
621.40	9.792
621.73	9.799
622.06	9.822
622.38	9.806
622.71	9.812
623.04	9.816
623.37	9.837
623.70	9.877
624.02	9.896
624.35	9.946
624.68	9.955
625.01	9.979
625.34	10.018
625.66	10.007
625.99	10.033
626.32	10.038
626.65	10.048
626.98	10.052
627.30	10.042
627.63	10.004
627.96	9.950
628.29	9.918
628.61	9.926
628.94	9.891
629.27	9.871
629.60	9.836
629.92	9.834
630.25	9.783
630.58	9.770
630.91	9.738
631.23	9.743
631.56	9.743
631.89	9.709
632.21	9.634
632.54	9.581
632.87	9.550
633.19	9.505
633.52	9.451
633.85	9.426
634.18	9.367
634.50	9.320
634.83	9.255
635.16	9.186
635.48	9.126
635.81	9.080
636.14	9.009
636.46	8.929
636.79	8.892
637.11	8.784
637.44	8.693
637.77	8.647
638.09	8.579
638.42	8.511
638.75	8.472
639.07	8.439
639.40	8.390
639.73	8.331
640.05	8.273
640.38	8.235
640.70	8.220
641.03	8.198
641.36	8.113
641.68	8.092
642.01	8.059
642.33	8.008
642.66	7.990
642.98	7.952
643.31	7.947
643.64	7.955
643.96	7.930
644.29	7.931
644.61	7.938
644.94	7.965
645.26	7.911
645.59	7.933
645.91	7.924
646.24	7.896
646.56	7.895
646.89	7.874
647.22	7.858
647.54	7.838
647.87	7.842
648.19	7.813
648.52	7.765
648.84	7.777
649.17	7.725
649.49	7.734
649.82	7.737
650.14	7.732
650.47	7.709
650.79	7.708
651.11	7.711
651.44	7.742
651.76	7.745
652.09	7.818
652.41	7.870
652.74	7.892
653.06	7.901
653.39	7.927
653.71	7.966
654.04	7.991
654.36	8.025
654.68	8.026
655.01	8.019
655.33	8.061
655.66	8.044
655.98	8.056
656.30	8.090
656.63	8.104
656.95	8.124
657.28	8.117
657.60	8.098
657.92	8.064
658.25	8.054
658.57	8.043
658.90	8.046
659.22	8.020
659.54	8.006
659.87	8.011
660.19	7.962
660.51	7.947
660.84	7.926
661.16	7.982
661.48	7.987
661.81	8.013
662.13	7.979
662.45	7.988
662.78	8.018
663.10	8.019
663.42	8.025
663.75	8.115
664.07	8.079
664.39	8.112
664.72	8.162
665.04	8.264
665.36	8.342
665.69	8.452
666.01	8.506
666.33	8.558
666.65	8.623
666.98	8.721
667.30	8.837
667.62	8.969
667.94	9.143
668.27	9.193
668.59	9.292
668.91	9.403
669.23	9.530
669.56	9.665
669.88	9.867
670.20	9.993
670.52	10.180
670.85	10.291
671.17	10.456
671.49	10.547
671.81	10.813
672.13	10.993
672.46	11.145
672.78	11.316
673.10	11.546
673.42	11.681
673.74	11.891
674.07	12.050
674.39	12.251
674.71	12.448
675.03	12.675
675.35	12.763
675.67	12.903
676.00	13.106
676.32	13.281
676.64	13.388
676.96	13.540
677.28	13.712
677.60	13.839
677.92	13.976
678.25	14.125
678.57	14.234
678.89	14.372
679.21	14.499
679.53	14.654
679.85	14.787
680.17	14.962
680.49	15.176
680.81	15.402
681.13	15.636
681.46	15.866
681.78	16.090
682.10	16.336
682.42	16.590
682.74	16.897
683.06	17.092
683.38	17.343
683.70	17.568
684.02	17.762
684.34	17.899
684.66	18.069
684.98	18.234
685.30	18.362
685.62	18.499
685.94	18.631
686.26	18.654
686.58	18.735
686.90	18.780
687.22	18.814
687.54	18.860
687.86	18.901
688.18	18.859
688.50	18.922
688.82	18.966
689.14	18.988
689.46	19.118
689.78	19.214
690.10	19.325
690.42	19.369
690.74	19.497
691.06	19.540
691.38	19.570
691.70	19.717
692.02	19.755
692.34	19.839
692.66	19.919
692.98	19.909
693.30	19.997
693.62	19.987
693.94	20.064
694.26	20.043
694.57	20.073
694.89	20.184
695.21	20.187
695.53	20.212
695.85	20.252
696.17	20.275
696.49	20.352
696.81	20.384
697.13	20.479
697.44	20.598
697.76	20.725
698.08	20.934
698.40	21.103
698.72	21.314
699.04	21.512
699.36	21.740
699.67	21.990
699.99	22.211
700.31	22.467
700.63	22.801
700.95	23.113
701.27	23.352
701.58	23.581
701.90	23.740
702.22	23.970
702.54	24.234
702.86	24.477
703.17	24.604
703.49	24.745
703.81	25.021
704.13	25.080
704.45	25.157
704.76	25.323
705.08	25.407
705.40	25.556
705.72	25.690
706.03	25.806
706.35	25.900
706.67	26.085
706.99	26.262
707.30	26.383
707.62	26.633
707.94	26.777
708.26	26.919
708.57	27.117
708.89	27.296
709.21	27.447
709.53	27.611
709.84	27.777
710.16	27.959
710.48	28.131
710.79	28.308
711.11	28.447
711.43	28.599
711.74	28.816
712.06	29.042
712.38	29.227
712.69	29.425
713.01	29.583
713.33	29.781
713.64	30.059
713.96	30.251
714.28	30.487
714.59	30.765
714.91	31.080
715.23	31.359
715.54	31.533
715.86	31.887
716.17	32.215
716.49	32.593
716.81	32.919
717.12	33.132
717.44	33.487
717.76	33.785
718.07	33.968
718.39	34.210
718.70	34.433
719.02	34.580
719.33	34.674
719.65	34.782
719.97	34.799
720.28	34.913
720.60	35.082
720.91	35.264
721.23	35.489
721.54	35.671
721.86	35.832
722.17	36.004
722.49	36.342
722.81	36.525
723.12	36.780
723.44	37.039
723.75	37.279
724.07	37.555
724.38	37.751
724.70	37.838
725.01	38.071
725.33	38.286
725.64	38.415
725.96	38.600
726.27	38.728
726.59	38.747
726.90	38.940
727.22	39.018
727.53	39.131
727.84	39.129
728.16	39.151
728.47	39.157
728.79	39.205
729.10	39.343
729.42	39.325
729.73	39.397
730.05	39.596
730.36	39.662
730.67	39.874
730.99	40.007
731.30	40.270
731.62	40.430
731.93	40.565
732.24	40.739
732.56	40.879
732.87	41.225
733.19	41.476
733.50	41.556
733.81	41.596
734.13	41.582
734.44	41.662
734.76	41.713
735.07	41.970
735.38	42.216
735.70	42.349
736.01	42.484
736.32	42.446
736.64	42.653
736.95	42.747
737.26	42.985
737.58	43.209
737.89	43.383
738.20	43.522
738.52	43.561
738.83	43.617
739.14	43.651
739.45	43.698
739.77	43.806
740.08	43.759
740.39	43.935
740.71	44.118
741.02	44.131
741.33	44.016
741.64	44.139
741.96	44.146
742.27	44.166
742.58	44.229
742.90	44.353
743.21	44.253
743.52	44.393
743.83	44.343
744.14	44.308
744.46	44.445
744.77	44.681
745.08	44.588
745.39	44.645
745.71	44.690
746.02	44.757
746.33	44.616
746.64	44.726
746.95	44.588
747.27	44.795
747.58	44.803
747.89	44.735
748.20	44.613
748.51	44.731
748.82	44.606
749.14	44.634
749.45	44.669
749.76	44.778
750.07	44.888
750.38	44.859
750.69	44.880
751.01	44.883
751.32	44.811
751.63	44.849
751.94	44.668
752.25	44.724
752.56	44.686
752.87	44.466
753.18	44.304
753.49	44.230
753.81	44.332
754.12	44.002
754.43	44.052
754.74	44.124
755.05	44.212
755.36	44.235
755.67	44.311
755.98	44.461
756.29	44.717
756.60	44.876
756.91	44.880
757.22	45.091
757.53	45.492
757.84	45.627
758.15	45.735
758.46	45.716
758.77	45.940
759.09	45.998
759.40	45.958
759.71	45.919
760.02	45.949
760.33	45.917
760.64	45.726
760.95	45.608
761.26	45.424
761.57	45.305
761.88	45.221
762.18	45.022
762.49	44.896
762.80	44.807
763.11	44.767
763.42	44.613
763.73	44.507
764.04	44.478
764.35	44.429
764.66	44.268
764.97	44.087
765.28	43.910
765.59	43.741
765.90	43.484
766.21	43.223
766.52	42.887
766.83	42.800
767.14	42.849
767.44	42.511
767.75	41.923
768.06	41.936
768.37	41.788
768.68	41.736
768.99	41.596
769.30	41.586
769.61	41.359
769.91	41.267
770.22	40.991
770.53	40.736
770.84	40.933
771.15	41.064
771.46	40.680
771.77	40.744
772.07	40.745
772.38	40.983
772.69	40.875
773.00	40.980
773.31	40.911
773.61	40.998
773.92	40.736
774.23	40.298
774.54	40.270
774.85	40.302
775.15	40.118
775.46	39.763
775.77	39.247
776.08	39.284
776.39	39.190
776.69	39.163
777.00	39.248
777.31	39.173
777.62	39.282
777.92	39.232
778.23	39.466
778.54	39.596
778.85	39.822
779.15	40.067
779.46	40.088
779.77	40.036
780.07	40.195
780.38	40.126
780.69	40.299
781.00	40.433
781.30	40.172
781.61	39.839
781.92	39.821
782.22	39.990
782.53	40.029
782.84	40.192
783.14	40.449
783.45	40.249
783.76	40.518
784.06	40.616
784.37	40.379
784.68	40.738
784.98	41.008
785.29	41.134
785.60	41.154
785.90	40.938
786.21	40.740
786.51	40.835
786.82	41.367
787.13	41.427
787.43	41.549
787.74	41.870
788.04	42.169
788.35	42.202
788.66	42.163
788.96	42.036
789.27	42.341
789.57	42.373
789.88	42.459
790.19	41.967
790.49	41.705
790.80	41.552
791.10	41.729
791.41	41.651
791.71	41.510
792.02	41.817
792.32	41.763
792.63	41.653
792.93	41.972
793.24	41.830
793.54	42.147
793.85	41.987
794.15	42.067
794.46	41.746
794.76	41.722
795.07	41.690
795.37	41.564
795.68	41.529
795.98	41.532
796.29	41.651
796.59	41.583
796.90	41.505
797.20	41.720
797.51	41.557
797.81	41.459
798.12	41.396
798.42	41.609
798.72	41.561
799.03	41.790
799.33	41.894
799.64	41.305
799.94	41.294
800.25	41.038
800.55	41.245
800.85	41.453
801.16	41.815
801.46	41.631
801.77	41.518
802.07	41.449
802.37	41.416
802.68	41.188
802.98	41.508
803.28	41.626
803.59	41.779
803.89	41.448
804.20	41.451
804.50	40.892
804.80	41.399
805.11	41.459
805.41	41.235
805.71	41.198
806.02	41.614
806.32	41.808
806.62	41.991
806.93	42.110
807.23	42.301
807.53	42.578
807.83	42.937
808.14	42.568
808.44	42.672
808.74	42.795
809.05	43.034
809.35	42.939
809.65	43.046
809.95	43.001
810.26	42.967
810.56	42.933
810.86	42.668
811.16	42.902
811.47	43.685
811.77	44.241
812.07	44.481
812.37	44.127
812.68	43.998
812.98	44.266
813.28	44.186
813.58	44.897
813.88	45.140
814.19	45.803
814.49	46.254
814.79	45.683
815.09	45.549
815.39	45.744
815.70	46.197
816.00	46.320
816.30	45.887
816.60	46.015
816.90	45.485
817.20	45.727
817.50	45.378
817.81	44.853
818.11	44.906
818.41	44.686
818.71	44.513
819.01	44.476
819.31	44.715
819.61	44.869
819.92	45.003
820.22	45.313
820.52	45.370
820.82	45.653
821.12	46.059
821.42	46.304
821.72	46.508
822.02	46.900
822.32	47.229
822.62	47.447
822.92	47.627
823.22	47.903
823.52	48.035
823.83	48.218
824.13	48.211
824.43	48.023
824.73	47.970
825.03	47.978
825.33	47.788
825.63	47.668
825.93	47.530
826.23	47.394
826.53	47.318
826.83	47.265
827.13	47.366
827.43	47.268
827.73	47.451
828.03	47.587
828.33	47.957
828.63	48.045
828.93	48.105
829.23	48.033
829.53	48.026
829.83	47.705
830.13	47.338
830.42	47.077
830.72	46.986
831.02	46.919
831.32	46.693
831.62	46.227
831.92	46.028
832.22	45.788
832.52	45.618
832.82	45.892
833.12	45.844
833.42	45.807
833.72	45.467
834.01	45.724
834.31	45.761
834.61	45.819
834.91	46.335
835.21	46.516
835.51	47.011
835.81	47.082
836.11	47.077
836.40	47.011
836.70	47.411
837.00	47.944
837.30	47.827
837.60	47.820
837.90	47.771
838.19	46.594
838.49	46.503
838.79	46.074
839.09	46.804
839.39	46.671
839.68	46.906
839.98	45.930
840.28	45.665
840.58	45.562
840.88	45.579
841.17	44.956
841.47	45.537
841.77	45.630
842.07	45.546
842.36	45.379
842.66	45.392
842.96	45.398
843.26	45.698
843.55	45.354
843.85	45.090
844.15	44.932
844.45	46.407
844.74	46.262
845.04	45.567
845.34	45.702
845.63	44.930
845.93	44.914
846.23	44.599
846.53	46.117
846.82	45.953
847.12	46.767
847.42	46.207
847.71	44.612
848.01	44.443
848.31	44.733
848.60	44.152
848.90	43.658
849.19	43.602
849.49	43.377
849.79	41.542
850.08	42.196
850.38	41.785
850.68	40.715
850.97	42.833
851.27	42.998
851.56	43.281
851.86	42.464
852.16	44.214
852.45	45.216
852.75	44.904
853.04	46.685
853.34	47.629
853.64	47.075
853.93	47.791
854.23	45.076
854.52	44.139
854.82	44.857
855.11	45.170
855.41	44.464
855.70	43.342
856.00	44.693
856.30	45.087
856.59	44.958
856.89	46.013
857.18	45.464
857.48	45.490
857.77	45.354
858.07	43.908
858.36	42.756
858.66	43.001
858.95	42.992
859.25	42.954
859.54	41.493
859.84	41.696
860.13	39.135
860.42	39.374
860.72	40.563
861.01	41.895
861.31	43.440
861.60	45.559
861.90	45.485
862.19	46.708
862.49	46.248
862.78	46.913
863.07	46.246
863.37	48.040
863.66	47.818
863.96	49.300
864.25	49.496
864.54	48.379
864.84	47.461
865.13	46.500
865.43	46.013
865.72	55.715
866.01	43.278
866.31	41.731
866.60	39.771
866.89	49.974
>>>>>End Spectral Data<<<<<
