OOIBase32 Version 2.0.0.6 Data File
++++++++++++++++++++++++++++++++++++
Date: 01-23-2012, 23:17:35
User: Valued Ocean Optics Customer
Spectrometer Serial Number: USB2E2917
Spectrometer Channel: Master
Integration Time (msec): 5
Spectra Averaged: 10
Boxcar Smoothing: 5
Correct for Electrical Dark: Enabled
Time Normalized: Disabled
Dual-beam Reference: Disabled
Reference Channel: Master
Temperature: Not acquired
Spectrometer Type: S2000
ADC Type: USB2000
Number of Pixels in File: 2048
Graph Title: 
>>>>>Begin Spectral Data<<<<<
180.30	0.000
180.67	0.000
181.03	-101.766
181.40	417.190
181.77	-5236.009
182.14	31.706
182.51	-724.863
182.88	-10.226
183.25	1.416
183.62	80.538
183.99	86.223
184.36	74.563
184.73	133.968
185.10	-40.368
185.46	-514.377
185.83	-233.813
186.20	913.627
186.57	227.569
186.94	-60.268
187.31	77.994
187.68	88.065
188.05	72.383
188.42	102.766
188.78	228.212
189.15	565.500
189.52	-107.751
189.89	-1.944
190.26	-0.476
190.63	13.208
191.00	25.611
191.37	26.883
191.73	37.879
192.10	33.991
192.47	28.466
192.84	28.539
193.21	33.987
193.58	39.125
193.94	27.940
194.31	20.217
194.68	20.645
195.05	1.320
195.42	-4.079
195.79	-11.099
196.15	-16.732
196.52	-14.234
196.89	-13.663
197.26	-15.922
197.63	-23.545
198.00	-13.009
198.36	-20.690
198.73	-44.008
199.10	-38.221
199.47	-44.006
199.84	-71.019
200.20	-60.923
200.57	-55.364
200.94	-58.741
201.31	-63.030
201.68	-53.106
202.04	-55.125
202.41	-50.103
202.78	-70.980
203.15	-93.030
203.51	-75.926
203.88	-57.138
204.25	-56.312
204.62	-77.094
204.98	-100.837
205.35	-100.183
205.72	-112.417
206.09	-94.693
206.46	-182.128
206.82	-126.499
207.19	-99.717
207.56	-172.677
207.92	-163.181
208.29	-183.214
208.66	-110.647
209.03	-86.023
209.39	-51.810
209.76	-57.398
210.13	-122.004
210.50	-79.363
210.86	-61.587
211.23	-67.212
211.60	-40.263
211.96	-29.565
212.33	-26.906
212.70	-35.635
213.07	-41.151
213.43	-78.587
213.80	-77.766
214.17	-26.167
214.53	-8.758
214.90	-10.282
215.27	-8.084
215.63	-16.058
216.00	-19.222
216.37	-17.300
216.74	-24.370
217.10	-19.204
217.47	-20.973
217.84	-13.640
218.20	-22.260
218.57	-19.051
218.94	-15.234
219.30	-18.590
219.67	-15.778
220.04	-8.082
220.40	-8.718
220.77	-11.188
221.13	-5.968
221.50	-1.410
221.87	-3.000
222.23	0.672
222.60	-10.367
222.97	-11.964
223.33	-2.526
223.70	-0.022
224.07	-5.059
224.43	-6.403
224.80	-4.825
225.16	-6.607
225.53	-6.727
225.90	-8.591
226.26	-6.700
226.63	-1.546
226.99	-1.082
227.36	-1.609
227.73	-0.362
228.09	1.065
228.46	3.245
228.82	4.143
229.19	4.030
229.56	5.935
229.92	6.924
230.29	5.896
230.65	2.819
231.02	1.195
231.38	-1.204
231.75	-3.777
232.12	-6.007
232.48	-8.490
232.85	-8.997
233.21	-8.164
233.58	-9.997
233.94	-7.369
234.31	-7.058
234.68	-5.115
235.04	-4.101
235.41	-2.260
235.77	-0.627
236.14	1.123
236.50	2.971
236.87	2.347
237.23	2.411
237.60	1.241
237.96	0.199
238.33	-0.496
238.69	-0.834
239.06	-0.375
239.42	-0.667
239.79	-1.454
240.15	-1.587
240.52	-1.818
240.88	-1.275
241.25	-1.318
241.61	-0.643
241.98	-0.343
242.34	0.091
242.71	0.228
243.07	0.122
243.44	0.300
243.80	0.592
244.17	0.579
244.53	0.559
244.90	0.502
245.26	0.373
245.63	0.293
245.99	0.126
246.36	-0.045
246.72	0.316
247.09	0.314
247.45	0.396
247.81	0.609
248.18	0.565
248.54	0.970
248.91	0.758
249.27	0.976
249.64	1.157
250.00	1.268
250.36	1.360
250.73	0.521
251.09	0.386
251.46	0.045
251.82	-0.374
252.19	-0.550
252.55	-1.052
252.91	-0.832
253.28	-1.032
253.64	-1.503
254.01	-1.297
254.37	-0.983
254.73	-0.283
255.10	0.188
255.46	1.021
255.83	1.117
256.19	1.422
256.55	1.266
256.92	1.317
257.28	1.283
257.65	1.556
258.01	1.604
258.37	1.701
258.74	1.526
259.10	1.222
259.46	0.914
259.83	0.884
260.19	0.773
260.55	0.784
260.92	0.701
261.28	0.694
261.64	0.660
262.01	0.564
262.37	0.228
262.73	0.343
263.10	0.740
263.46	0.577
263.82	0.257
264.19	0.297
264.55	-0.001
264.91	0.072
265.28	0.059
265.64	-0.079
266.00	-0.132
266.37	-0.261
266.73	-0.548
267.09	-0.473
267.46	-0.150
267.82	-0.058
268.18	-0.041
268.54	0.306
268.91	0.392
269.27	0.592
269.63	0.824
270.00	0.759
270.36	1.092
270.72	1.403
271.08	1.230
271.45	1.007
271.81	1.029
272.17	1.034
272.53	0.849
272.90	0.606
273.26	0.630
273.62	0.409
273.98	0.532
274.35	0.311
274.71	0.381
275.07	0.420
275.43	0.490
275.80	0.617
276.16	0.425
276.52	0.483
276.88	0.664
277.25	0.301
277.61	0.175
277.97	0.033
278.33	0.072
278.69	-0.196
279.06	-0.155
279.42	-0.201
279.78	-0.126
280.14	0.063
280.50	0.193
280.87	0.122
281.23	0.303
281.59	0.389
281.95	0.409
282.31	0.470
282.68	0.433
283.04	0.288
283.40	0.482
283.76	0.428
284.12	0.575
284.48	0.577
284.85	0.683
285.21	0.763
285.57	0.725
285.93	0.741
286.29	0.597
286.65	0.831
287.02	1.223
287.38	1.098
287.74	1.137
288.10	0.977
288.46	1.057
288.82	0.855
289.18	0.777
289.54	0.802
289.91	0.878
290.27	1.052
290.63	1.028
290.99	0.846
291.35	0.910
291.71	0.914
292.07	0.767
292.43	0.597
292.79	0.660
293.16	0.606
293.52	0.813
293.88	0.956
294.24	1.012
294.60	0.886
294.96	0.827
295.32	0.872
295.68	1.021
296.04	1.183
296.40	1.207
296.76	1.301
297.12	1.343
297.49	1.191
297.85	1.013
298.21	0.965
298.57	0.891
298.93	0.940
299.29	0.827
299.65	0.767
300.01	0.733
300.37	0.790
300.73	0.854
301.09	0.841
301.45	0.860
301.81	0.959
302.17	0.907
302.53	0.891
302.89	0.873
303.25	0.908
303.61	0.763
303.97	0.591
304.33	0.544
304.69	0.509
305.05	0.513
305.41	0.475
305.77	0.449
306.13	0.466
306.49	0.618
306.85	0.669
307.21	0.736
307.57	0.745
307.93	0.875
308.29	1.034
308.65	1.040
309.01	1.078
309.37	1.156
309.73	1.144
310.09	1.297
310.45	1.315
310.81	1.243
311.17	1.060
311.53	1.047
311.89	1.164
312.25	1.051
312.61	0.906
312.96	0.831
313.32	0.896
313.68	0.857
314.04	0.695
314.40	0.720
314.76	0.744
315.12	0.842
315.48	0.938
315.84	0.736
316.20	0.714
316.56	0.830
316.92	0.898
317.27	0.756
317.63	0.839
317.99	0.865
318.35	0.763
318.71	0.774
319.07	0.961
319.43	0.930
319.79	1.054
320.15	1.008
320.50	1.033
320.86	0.976
321.22	0.910
321.58	0.838
321.94	0.745
322.30	0.703
322.66	0.748
323.01	0.602
323.37	0.615
323.73	0.596
324.09	0.559
324.45	0.652
324.81	0.657
325.17	0.821
325.52	0.860
325.88	0.877
326.24	0.982
326.60	0.955
326.96	0.984
327.31	0.925
327.67	0.737
328.03	0.750
328.39	0.577
328.75	0.707
329.11	0.745
329.46	0.733
329.82	0.792
330.18	0.663
330.54	0.663
330.90	0.638
331.25	0.710
331.61	0.915
331.97	0.957
332.33	1.029
332.68	0.954
333.04	0.890
333.40	0.800
333.76	0.751
334.11	0.815
334.47	0.833
334.83	0.808
335.19	0.757
335.54	0.686
335.90	0.685
336.26	0.644
336.62	0.656
336.97	0.520
337.33	0.560
337.69	0.524
338.05	0.445
338.40	0.338
338.76	0.332
339.12	0.391
339.48	0.370
339.83	0.361
340.19	0.393
340.55	0.406
340.90	0.492
341.26	0.449
341.62	0.462
341.97	0.539
342.33	0.637
342.69	0.669
343.04	0.672
343.40	0.620
343.76	0.614
344.12	0.618
344.47	0.598
344.83	0.592
345.19	0.606
345.54	0.677
345.90	0.723
346.26	0.727
346.61	0.757
346.97	0.723
347.32	0.811
347.68	0.810
348.04	0.815
348.39	0.733
348.75	0.857
349.11	0.926
349.46	0.875
349.82	0.825
350.18	0.786
350.53	0.779
350.89	0.742
351.24	0.675
351.60	0.672
351.96	0.698
352.31	0.835
352.67	0.781
353.02	0.767
353.38	0.793
353.74	0.825
354.09	0.791
354.45	0.849
354.80	0.886
355.16	0.979
355.52	1.043
355.87	0.977
356.23	0.931
356.58	0.929
356.94	0.950
357.29	1.018
357.65	1.031
358.00	1.093
358.36	1.041
358.72	1.018
359.07	1.020
359.43	1.012
359.78	1.119
360.14	1.135
360.49	1.107
360.85	1.079
361.20	0.990
361.56	0.948
361.91	0.947
362.27	0.953
362.62	0.970
362.98	0.969
363.33	0.941
363.69	0.888
364.04	0.888
364.40	0.927
364.75	0.941
365.11	0.955
365.46	0.991
365.82	1.050
366.17	1.060
366.53	1.114
366.88	1.123
367.24	1.168
367.59	1.159
367.95	1.173
368.30	1.162
368.66	1.208
369.01	1.225
369.37	1.257
369.72	1.242
370.08	1.279
370.43	1.288
370.78	1.301
371.14	1.264
371.49	1.323
371.85	1.345
372.20	1.390
372.56	1.406
372.91	1.447
373.26	1.477
373.62	1.478
373.97	1.529
374.33	1.539
374.68	1.541
375.03	1.626
375.39	1.608
375.74	1.610
376.10	1.618
376.45	1.647
376.80	1.676
377.16	1.654
377.51	1.668
377.87	1.667
378.22	1.643
378.57	1.689
378.93	1.707
379.28	1.765
379.63	1.773
379.99	1.817
380.34	1.819
380.70	1.842
381.05	1.894
381.40	1.904
381.76	1.949
382.11	2.027
382.46	2.049
382.82	2.069
383.17	2.074
383.52	2.105
383.88	2.099
384.23	2.145
384.58	2.162
384.94	2.171
385.29	2.208
385.64	2.214
385.99	2.261
386.35	2.305
386.70	2.341
387.05	2.342
387.41	2.375
387.76	2.387
388.11	2.409
388.47	2.435
388.82	2.489
389.17	2.549
389.52	2.599
389.88	2.618
390.23	2.646
390.58	2.700
390.93	2.783
391.29	2.831
391.64	2.906
391.99	2.962
392.34	3.011
392.70	3.018
393.05	3.013
393.40	3.013
393.75	3.045
394.11	3.064
394.46	3.052
394.81	3.076
395.16	3.075
395.52	3.077
395.87	3.073
396.22	3.131
396.57	3.163
396.92	3.215
397.28	3.240
397.63	3.212
397.98	3.244
398.33	3.267
398.68	3.298
399.04	3.368
399.39	3.384
399.74	3.384
400.09	3.352
400.44	3.373
400.80	3.388
401.15	3.399
401.50	3.480
401.85	3.530
402.20	3.549
402.55	3.581
402.90	3.580
403.26	3.624
403.61	3.675
403.96	3.730
404.31	3.738
404.66	3.775
405.01	3.792
405.36	3.805
405.72	3.780
406.07	3.825
406.42	3.814
406.77	3.823
407.12	3.849
407.47	3.878
407.82	3.881
408.17	3.936
408.53	3.935
408.88	3.961
409.23	3.947
409.58	3.941
409.93	3.938
410.28	3.947
410.63	3.956
410.98	3.946
411.33	3.961
411.68	4.010
412.03	4.042
412.38	4.055
412.73	4.090
413.09	4.124
413.44	4.169
413.79	4.216
414.14	4.265
414.49	4.320
414.84	4.364
415.19	4.386
415.54	4.411
415.89	4.429
416.24	4.494
416.59	4.532
416.94	4.579
417.29	4.634
417.64	4.637
417.99	4.660
418.34	4.660
418.69	4.675
419.04	4.678
419.39	4.686
419.74	4.698
420.09	4.699
420.44	4.709
420.79	4.709
421.14	4.700
421.49	4.726
421.84	4.714
422.19	4.732
422.54	4.727
422.89	4.736
423.24	4.740
423.59	4.731
423.94	4.722
424.29	4.719
424.64	4.724
424.99	4.705
425.34	4.673
425.68	4.689
426.03	4.653
426.38	4.655
426.73	4.654
427.08	4.627
427.43	4.629
427.78	4.628
428.13	4.600
428.48	4.582
428.83	4.576
429.18	4.583
429.53	4.564
429.87	4.575
430.22	4.554
430.57	4.569
430.92	4.567
431.27	4.569
431.62	4.556
431.97	4.569
432.32	4.563
432.67	4.578
433.01	4.574
433.36	4.571
433.71	4.572
434.06	4.582
434.41	4.555
434.76	4.553
435.11	4.569
435.45	4.576
435.80	4.578
436.15	4.584
436.50	4.592
436.85	4.615
437.20	4.620
437.54	4.632
437.89	4.650
438.24	4.688
438.59	4.712
438.94	4.719
439.29	4.709
439.63	4.733
439.98	4.741
440.33	4.743
440.68	4.763
441.03	4.787
441.37	4.816
441.72	4.859
442.07	4.870
442.42	4.890
442.76	4.915
443.11	4.968
443.46	5.006
443.81	5.044
444.16	5.088
444.50	5.100
444.85	5.135
445.20	5.156
445.55	5.154
445.89	5.180
446.24	5.200
446.59	5.202
446.94	5.215
447.28	5.207
447.63	5.223
447.98	5.238
448.32	5.260
448.67	5.261
449.02	5.262
449.37	5.268
449.71	5.291
450.06	5.323
450.41	5.344
450.75	5.372
451.10	5.382
451.45	5.386
451.79	5.381
452.14	5.386
452.49	5.401
452.84	5.423
453.18	5.459
453.53	5.451
453.88	5.449
454.22	5.475
454.57	5.477
454.92	5.507
455.26	5.509
455.61	5.564
455.95	5.609
456.30	5.632
456.65	5.670
456.99	5.685
457.34	5.699
457.69	5.730
458.03	5.742
458.38	5.759
458.73	5.763
459.07	5.785
459.42	5.757
459.76	5.737
460.11	5.715
460.46	5.676
460.80	5.659
461.15	5.640
461.49	5.587
461.84	5.573
462.19	5.538
462.53	5.535
462.88	5.527
463.22	5.518
463.57	5.503
463.91	5.506
464.26	5.517
464.61	5.499
464.95	5.489
465.30	5.489
465.64	5.491
465.99	5.500
466.33	5.496
466.68	5.491
467.02	5.505
467.37	5.504
467.71	5.500
468.06	5.508
468.41	5.500
468.75	5.509
469.10	5.517
469.44	5.512
469.79	5.502
470.13	5.469
470.48	5.450
470.82	5.441
471.17	5.442
471.51	5.439
471.86	5.427
472.20	5.441
472.55	5.452
472.89	5.456
473.23	5.445
473.58	5.452
473.92	5.459
474.27	5.473
474.61	5.464
474.96	5.470
475.30	5.479
475.65	5.477
475.99	5.475
476.34	5.474
476.68	5.480
477.02	5.485
477.37	5.497
477.71	5.555
478.06	5.589
478.40	5.670
478.75	5.761
479.09	5.877
479.43	5.997
479.78	6.138
480.12	6.281
480.47	6.446
480.81	6.610
481.15	6.750
481.50	6.891
481.84	7.061
482.19	7.233
482.53	7.387
482.87	7.475
483.22	7.498
483.56	7.455
483.90	7.357
484.25	7.214
484.59	7.060
484.94	6.939
485.28	6.819
485.62	6.679
485.97	6.521
486.31	6.381
486.65	6.299
487.00	6.268
487.34	6.281
487.68	6.342
488.03	6.414
488.37	6.497
488.71	6.545
489.06	6.564
489.40	6.582
489.74	6.587
490.09	6.595
490.43	6.588
490.77	6.583
491.11	6.580
491.46	6.571
491.80	6.571
492.14	6.551
492.49	6.559
492.83	6.556
493.17	6.548
493.51	6.561
493.86	6.565
494.20	6.597
494.54	6.632
494.88	6.682
495.23	6.739
495.57	6.797
495.91	6.865
496.25	6.934
496.60	6.992
496.94	7.068
497.28	7.127
497.62	7.193
497.97	7.244
498.31	7.326
498.65	7.395
498.99	7.457
499.33	7.549
499.68	7.634
500.02	7.690
500.36	7.779
500.70	7.852
501.04	7.929
501.39	8.013
501.73	8.124
502.07	8.220
502.41	8.325
502.75	8.430
503.09	8.529
503.44	8.635
503.78	8.737
504.12	8.852
504.46	8.964
504.80	9.102
505.14	9.241
505.49	9.354
505.83	9.474
506.17	9.599
506.51	9.715
506.85	9.829
507.19	9.958
507.53	10.084
507.87	10.206
508.22	10.321
508.56	10.422
508.90	10.520
509.24	10.652
509.58	10.776
509.92	10.901
510.26	11.033
510.60	11.158
510.94	11.262
511.28	11.388
511.63	11.497
511.97	11.642
512.31	11.802
512.65	11.951
512.99	12.092
513.33	12.265
513.67	12.421
514.01	12.602
514.35	12.788
514.69	12.978
515.03	13.153
515.37	13.342
515.71	13.507
516.05	13.658
516.39	13.795
516.73	13.937
517.07	14.056
517.41	14.164
517.75	14.261
518.09	14.377
518.43	14.476
518.77	14.577
519.11	14.680
519.45	14.771
519.79	14.875
520.13	14.990
520.47	15.106
520.81	15.236
521.15	15.394
521.49	15.557
521.83	15.679
522.17	15.809
522.51	15.969
522.85	16.137
523.19	16.343
523.53	16.576
523.87	16.848
524.21	17.117
524.55	17.359
524.89	17.579
525.23	17.786
525.57	17.992
525.91	18.195
526.25	18.369
526.58	18.528
526.92	18.650
527.26	18.732
527.60	18.764
527.94	18.779
528.28	18.792
528.62	18.796
528.96	18.783
529.30	18.746
529.64	18.719
529.97	18.689
530.31	18.655
530.65	18.628
530.99	18.646
531.33	18.685
531.67	18.719
532.01	18.757
532.35	18.778
532.68	18.802
533.02	18.821
533.36	18.820
533.70	18.824
534.04	18.812
534.38	18.805
534.71	18.780
535.05	18.754
535.39	18.744
535.73	18.727
536.07	18.736
536.41	18.755
536.74	18.810
537.08	18.851
537.42	18.911
537.76	18.977
538.10	19.060
538.43	19.141
538.77	19.212
539.11	19.291
539.45	19.360
539.79	19.421
540.12	19.472
540.46	19.492
540.80	19.495
541.14	19.480
541.47	19.454
541.81	19.427
542.15	19.393
542.49	19.343
542.82	19.271
543.16	19.202
543.50	19.128
543.84	19.060
544.17	19.009
544.51	18.990
544.85	18.977
545.18	18.979
545.52	18.970
545.86	18.936
546.20	18.954
546.53	18.959
546.87	18.933
547.21	18.908
547.54	18.882
547.88	18.858
548.22	18.856
548.55	18.832
548.89	18.811
549.23	18.790
549.56	18.773
549.90	18.742
550.24	18.717
550.57	18.708
550.91	18.730
551.25	18.756
551.58	18.771
551.92	18.735
552.26	18.696
552.59	18.695
552.93	18.674
553.27	18.677
553.60	18.685
553.94	18.668
554.27	18.687
554.61	18.674
554.95	18.632
555.28	18.597
555.62	18.574
555.95	18.604
556.29	18.579
556.63	18.560
556.96	18.522
557.30	18.455
557.63	18.422
557.97	18.357
558.31	18.280
558.64	18.244
558.98	18.195
559.31	18.200
559.65	18.134
559.98	18.109
560.32	18.060
560.65	18.022
560.99	17.988
561.33	17.946
561.66	17.878
562.00	17.866
562.33	17.809
562.67	17.791
563.00	17.721
563.34	17.702
563.67	17.639
564.01	17.616
564.34	17.563
564.68	17.532
565.01	17.477
565.35	17.473
565.68	17.408
566.02	17.336
566.35	17.252
566.69	17.181
567.02	17.106
567.36	17.028
567.69	16.943
568.03	16.871
568.36	16.799
568.69	16.748
569.03	16.676
569.36	16.610
569.70	16.563
570.03	16.504
570.37	16.440
570.70	16.365
571.04	16.320
571.37	16.246
571.70	16.191
572.04	16.119
572.37	16.039
572.71	15.965
573.04	15.904
573.37	15.849
573.71	15.792
574.04	15.727
574.38	15.663
574.71	15.590
575.04	15.539
575.38	15.467
575.71	15.408
576.05	15.361
576.38	15.299
576.71	15.227
577.05	15.155
577.38	15.077
577.71	14.999
578.05	14.918
578.38	14.827
578.71	14.741
579.05	14.673
579.38	14.604
579.71	14.513
580.05	14.450
580.38	14.414
580.71	14.353
581.05	14.321
581.38	14.319
581.71	14.283
582.05	14.282
582.38	14.270
582.71	14.236
583.04	14.215
583.38	14.191
583.71	14.173
584.04	14.146
584.38	14.124
584.71	14.088
585.04	14.037
585.37	13.998
585.71	13.956
586.04	13.924
586.37	13.924
586.70	13.897
587.04	13.899
587.37	13.868
587.70	13.842
588.03	13.834
588.37	13.828
588.70	13.811
589.03	13.810
589.36	13.802
589.69	13.786
590.03	13.768
590.36	13.744
590.69	13.683
591.02	13.625
591.35	13.571
591.69	13.539
592.02	13.512
592.35	13.478
592.68	13.472
593.01	13.445
593.35	13.442
593.68	13.425
594.01	13.426
594.34	13.420
594.67	13.449
595.00	13.434
595.34	13.410
595.67	13.365
596.00	13.351
596.33	13.283
596.66	13.220
596.99	13.151
597.32	13.082
597.65	13.018
597.99	12.984
598.32	12.910
598.65	12.870
598.98	12.805
599.31	12.794
599.64	12.762
599.97	12.759
600.30	12.747
600.63	12.774
600.96	12.794
601.30	12.809
601.63	12.805
601.96	12.819
602.29	12.812
602.62	12.830
602.95	12.810
603.28	12.808
603.61	12.776
603.94	12.744
604.27	12.674
604.60	12.605
604.93	12.555
605.26	12.495
605.59	12.428
605.92	12.396
606.25	12.325
606.58	12.298
606.91	12.218
607.24	12.201
607.57	12.166
607.90	12.137
608.23	12.123
608.56	12.082
608.89	12.046
609.22	11.998
609.55	11.928
609.88	11.869
610.21	11.786
610.54	11.726
610.87	11.638
611.20	11.583
611.53	11.527
611.86	11.437
612.19	11.340
612.52	11.275
612.85	11.212
613.18	11.178
613.51	11.115
613.84	11.010
614.17	10.957
614.49	10.930
614.82	10.864
615.15	10.790
615.48	10.725
615.81	10.653
616.14	10.607
616.47	10.551
616.80	10.439
617.13	10.421
617.46	10.418
617.78	10.398
618.11	10.325
618.44	10.299
618.77	10.270
619.10	10.248
619.43	10.234
619.76	10.189
620.09	10.192
620.41	10.225
620.74	10.213
621.07	10.241
621.40	10.211
621.73	10.233
622.06	10.240
622.38	10.248
622.71	10.285
623.04	10.355
623.37	10.379
623.70	10.401
624.02	10.464
624.35	10.512
624.68	10.487
625.01	10.524
625.34	10.542
625.66	10.557
625.99	10.582
626.32	10.562
626.65	10.524
626.98	10.541
627.30	10.558
627.63	10.500
627.96	10.405
628.29	10.395
628.61	10.341
628.94	10.297
629.27	10.247
629.60	10.191
629.92	10.175
630.25	10.130
630.58	10.077
630.91	10.022
631.23	9.988
631.56	9.984
631.89	9.921
632.21	9.894
632.54	9.853
632.87	9.830
633.19	9.764
633.52	9.693
633.85	9.670
634.18	9.596
634.50	9.487
634.83	9.406
635.16	9.355
635.48	9.299
635.81	9.189
636.14	9.097
636.46	9.012
636.79	8.957
637.11	8.861
637.44	8.712
637.77	8.632
638.09	8.528
638.42	8.418
638.75	8.323
639.07	8.238
639.40	8.204
639.73	8.118
640.05	8.035
640.38	7.979
640.70	7.907
641.03	7.889
641.36	7.826
641.68	7.800
642.01	7.747
642.33	7.665
642.66	7.641
642.98	7.541
643.31	7.499
643.64	7.446
643.96	7.393
644.29	7.373
644.61	7.321
644.94	7.282
645.26	7.228
645.59	7.231
645.91	7.189
646.24	7.119
646.56	7.136
646.89	7.126
647.22	7.076
647.54	7.028
647.87	7.010
648.19	6.987
648.52	6.967
648.84	6.971
649.17	6.930
649.49	6.949
649.82	6.914
650.14	6.878
650.47	6.828
650.79	6.815
651.11	6.796
651.44	6.763
651.76	6.751
652.09	6.759
652.41	6.763
652.74	6.750
653.06	6.719
653.39	6.773
653.71	6.795
654.04	6.792
654.36	6.842
654.68	6.821
655.01	6.831
655.33	6.804
655.66	6.762
655.98	6.759
656.30	6.732
656.63	6.726
656.95	6.677
657.28	6.643
657.60	6.597
657.92	6.507
658.25	6.476
658.57	6.441
658.90	6.371
659.22	6.283
659.54	6.171
659.87	6.128
660.19	6.034
660.51	5.956
660.84	5.847
661.16	5.787
661.48	5.767
661.81	5.703
662.13	5.584
662.45	5.581
662.78	5.620
663.10	5.612
663.42	5.607
663.75	5.633
664.07	5.596
664.39	5.591
664.72	5.589
665.04	5.567
665.36	5.589
665.69	5.648
666.01	5.689
666.33	5.700
666.65	5.739
666.98	5.773
667.30	5.821
667.62	5.921
667.94	5.987
668.27	6.049
668.59	6.151
668.91	6.214
669.23	6.293
669.56	6.347
669.88	6.411
670.20	6.490
670.52	6.557
670.85	6.631
671.17	6.681
671.49	6.784
671.81	6.950
672.13	7.011
672.46	7.145
672.78	7.296
673.10	7.475
673.42	7.593
673.74	7.729
674.07	7.900
674.39	8.084
674.71	8.214
675.03	8.389
675.35	8.520
675.67	8.731
676.00	8.857
676.32	8.966
676.64	9.105
676.96	9.332
677.28	9.493
677.60	9.646
677.92	9.744
678.25	9.884
678.57	10.030
678.89	10.179
679.21	10.262
679.53	10.435
679.85	10.588
680.17	10.718
680.49	10.860
680.81	11.078
681.13	11.232
681.46	11.431
681.78	11.733
682.10	11.928
682.42	12.076
682.74	12.378
683.06	12.595
683.38	12.869
683.70	13.162
684.02	13.418
684.34	13.656
684.66	13.958
684.98	14.178
685.30	14.393
685.62	14.632
685.94	14.937
686.26	15.078
686.58	15.312
686.90	15.489
687.22	15.585
687.54	15.724
687.86	15.840
688.18	15.927
688.50	16.195
688.82	16.330
689.14	16.466
689.46	16.631
689.78	16.798
690.10	16.941
690.42	17.102
690.74	17.402
691.06	17.643
691.38	17.833
691.70	18.107
692.02	18.266
692.34	18.477
692.66	18.713
692.98	18.923
693.30	19.202
693.62	19.432
693.94	19.639
694.26	19.788
694.57	19.915
694.89	20.165
695.21	20.321
695.53	20.542
695.85	20.676
696.17	20.867
696.49	21.072
696.81	21.271
697.13	21.485
697.44	21.671
697.76	21.904
698.08	22.215
698.40	22.446
698.72	22.690
699.04	22.866
699.36	23.212
699.67	23.441
699.99	23.695
700.31	23.968
700.63	24.255
700.95	24.640
701.27	24.922
701.58	25.148
701.90	25.407
702.22	25.667
702.54	26.027
702.86	26.268
703.17	26.635
703.49	26.866
703.81	27.108
704.13	27.327
704.45	27.520
704.76	27.790
705.08	28.045
705.40	28.186
705.72	28.392
706.03	28.460
706.35	28.716
706.67	28.833
706.99	29.045
707.30	29.232
707.62	29.482
707.94	29.628
708.26	29.842
708.57	30.019
708.89	30.307
709.21	30.559
709.53	30.860
709.84	31.071
710.16	31.407
710.48	31.739
710.79	32.122
711.11	32.453
711.43	32.730
711.74	33.118
712.06	33.484
712.38	33.804
712.69	34.155
713.01	34.532
713.33	34.913
713.64	35.322
713.96	35.658
714.28	35.979
714.59	36.340
714.91	36.841
715.23	36.973
715.54	37.180
715.86	37.562
716.17	37.943
716.49	38.246
716.81	38.497
717.12	38.639
717.44	38.945
717.76	39.230
718.07	39.431
718.39	39.726
718.70	40.212
719.02	40.603
719.33	40.881
719.65	41.053
719.97	41.271
720.28	41.539
720.60	41.886
720.91	42.150
721.23	42.447
721.54	42.800
721.86	42.889
722.17	42.983
722.49	43.290
722.81	43.515
723.12	43.894
723.44	44.106
723.75	44.388
724.07	44.634
724.38	44.853
724.70	45.089
725.01	45.227
725.33	45.569
725.64	45.839
725.96	46.063
726.27	46.093
726.59	46.215
726.90	46.456
727.22	46.458
727.53	46.661
727.84	46.839
728.16	46.866
728.47	47.049
728.79	47.129
729.10	47.247
729.42	47.217
729.73	47.379
730.05	47.467
730.36	47.586
730.67	47.906
730.99	47.991
731.30	48.033
731.62	48.319
731.93	48.348
732.24	48.559
732.56	48.817
732.87	49.179
733.19	49.404
733.50	49.576
733.81	49.836
734.13	49.927
734.44	50.123
734.76	50.266
735.07	50.378
735.38	50.691
735.70	50.835
736.01	50.961
736.32	50.946
736.64	51.156
736.95	51.209
737.26	51.259
737.58	51.461
737.89	51.488
738.20	51.629
738.52	51.705
738.83	51.800
739.14	51.875
739.45	51.837
739.77	52.120
740.08	52.313
740.39	52.565
740.71	52.652
741.02	52.727
741.33	52.879
741.64	53.035
741.96	53.040
742.27	53.194
742.58	53.398
742.90	53.493
743.21	53.515
743.52	53.513
743.83	53.504
744.14	53.576
744.46	53.800
744.77	53.983
745.08	53.958
745.39	54.074
745.71	53.934
746.02	53.982
746.33	54.088
746.64	54.088
746.95	54.114
747.27	54.316
747.58	54.450
747.89	54.124
748.20	54.105
748.51	54.276
748.82	54.270
749.14	54.391
749.45	54.227
749.76	54.239
750.07	54.134
750.38	54.147
750.69	54.172
751.01	53.961
751.32	53.976
751.63	53.945
751.94	53.721
752.25	53.661
752.56	53.609
752.87	53.685
753.18	53.641
753.49	53.828
753.81	53.767
754.12	53.461
754.43	53.664
754.74	53.815
755.05	53.971
755.36	54.168
755.67	54.326
755.98	54.472
756.29	54.592
756.60	54.713
756.91	54.507
757.22	54.635
757.53	54.866
757.84	55.078
758.15	55.282
758.46	55.291
758.77	55.198
759.09	55.236
759.40	55.161
759.71	54.964
760.02	54.827
760.33	54.840
760.64	54.739
760.95	54.672
761.26	54.307
761.57	54.060
761.88	53.848
762.18	53.946
762.49	53.895
762.80	53.843
763.11	53.941
763.42	53.913
763.73	53.861
764.04	53.820
764.35	53.935
764.66	54.028
764.97	54.085
765.28	54.148
765.59	54.009
765.90	53.877
766.21	53.624
766.52	53.431
766.83	53.475
767.14	53.517
767.44	53.423
767.75	52.926
768.06	52.825
768.37	52.658
768.68	52.389
768.99	52.289
769.30	52.152
769.61	52.069
769.91	51.968
770.22	51.556
770.53	51.369
770.84	51.319
771.15	51.632
771.46	51.708
771.77	51.612
772.07	51.593
772.38	51.530
772.69	51.559
773.00	51.803
773.31	51.937
773.61	52.030
773.92	52.076
774.23	52.300
774.54	51.822
774.85	51.711
775.15	51.816
775.46	52.097
775.77	52.041
776.08	51.847
776.39	51.648
776.69	51.265
777.00	51.441
777.31	51.531
777.62	51.390
777.92	51.495
778.23	51.500
778.54	51.267
778.85	50.846
779.15	50.823
779.46	50.917
779.77	51.076
780.07	51.665
780.38	51.776
780.69	51.640
781.00	51.655
781.30	51.483
781.61	51.276
781.92	51.674
782.22	52.136
782.53	52.225
782.84	52.160
783.14	52.003
783.45	51.775
783.76	51.845
784.06	51.912
784.37	51.892
784.68	51.979
784.98	51.946
785.29	51.581
785.60	51.483
785.90	51.390
786.21	51.589
786.51	51.765
786.82	51.819
787.13	51.720
787.43	51.906
787.74	52.052
788.04	52.504
788.35	52.697
788.66	52.828
788.96	53.009
789.27	53.130
789.57	52.933
789.88	53.085
790.19	53.071
790.49	53.105
790.80	52.983
791.10	53.007
791.41	52.605
791.71	52.960
792.02	53.179
792.32	53.007
792.63	52.907
792.93	53.105
793.24	52.735
793.54	52.699
793.85	52.441
794.15	52.167
794.46	51.970
794.76	51.957
795.07	51.437
795.37	51.354
795.68	51.418
795.98	51.933
796.29	51.941
796.59	52.062
796.90	51.952
797.20	52.104
797.51	52.323
797.81	52.336
798.12	52.392
798.42	52.559
798.72	52.742
799.03	52.703
799.33	52.353
799.64	52.418
799.94	52.681
800.25	52.727
800.55	52.852
800.85	53.029
801.16	53.090
801.46	52.875
801.77	53.136
802.07	53.137
802.37	53.289
802.68	53.094
802.98	52.855
803.28	52.675
803.59	52.844
803.89	52.956
804.20	52.773
804.50	52.476
804.80	52.919
805.11	52.980
805.41	52.893
805.71	52.733
806.02	52.689
806.32	53.306
806.62	53.414
806.93	53.271
807.23	53.136
807.53	53.420
807.83	53.844
808.14	54.231
808.44	53.824
808.74	53.891
809.05	53.746
809.35	53.888
809.65	53.927
809.95	53.923
810.26	53.947
810.56	53.940
810.86	53.597
811.16	53.611
811.47	53.588
811.77	54.490
812.07	54.159
812.37	54.646
812.68	54.898
812.98	54.420
813.28	54.563
813.58	54.927
813.88	54.897
814.19	55.715
814.49	56.014
814.79	56.159
815.09	56.064
815.39	56.312
815.70	56.201
816.00	56.161
816.30	56.401
816.60	56.106
816.90	55.714
817.20	55.929
817.50	55.302
817.81	54.443
818.11	53.836
818.41	53.768
818.71	53.520
819.01	53.517
819.31	53.669
819.61	53.809
819.92	54.024
820.22	54.365
820.52	54.554
820.82	54.819
821.12	55.213
821.42	55.557
821.72	55.811
822.02	56.305
822.32	56.742
822.62	57.140
822.92	57.468
823.22	57.942
823.52	58.242
823.83	58.452
824.13	58.671
824.43	58.795
824.73	58.989
825.03	59.005
825.33	58.934
825.63	58.726
825.93	58.446
826.23	58.321
826.53	57.897
826.83	57.706
827.13	57.850
827.43	58.032
827.73	58.216
828.03	58.503
828.33	58.914
828.63	59.089
828.93	59.331
829.23	59.633
829.53	59.455
829.83	59.448
830.13	59.082
830.42	58.449
830.72	57.546
831.02	57.274
831.32	56.794
831.62	56.498
831.92	56.413
832.22	56.291
832.52	55.983
832.82	56.217
833.12	56.258
833.42	56.334
833.72	56.655
834.01	57.299
834.31	57.548
834.61	57.780
834.91	58.224
835.21	58.292
835.51	58.753
835.81	59.243
836.11	59.295
836.40	59.489
836.70	60.041
837.00	59.742
837.30	58.822
837.60	58.827
837.90	58.843
838.19	58.326
838.49	58.490
838.79	58.031
839.09	57.850
839.39	58.048
839.68	58.078
839.98	57.321
840.28	57.213
840.58	57.954
840.88	58.009
841.17	57.357
841.47	57.660
841.77	57.675
842.07	58.193
842.36	58.422
842.66	58.230
842.96	57.504
843.26	58.285
843.55	58.251
843.85	58.053
844.15	57.117
844.45	56.494
844.74	56.288
845.04	55.557
845.34	54.666
845.63	53.436
845.93	53.138
846.23	55.074
846.53	53.819
846.82	53.850
847.12	53.233
847.42	52.320
847.71	52.855
848.01	52.621
848.31	52.818
848.60	51.987
848.90	51.975
849.19	52.400
849.49	51.462
849.79	52.398
850.08	53.532
850.38	52.391
850.68	53.043
850.97	54.081
851.27	53.630
851.56	54.321
851.86	54.773
852.16	56.234
852.45	56.262
852.75	55.871
853.04	57.501
853.34	56.154
853.64	55.891
853.93	54.488
854.23	53.837
854.52	52.726
854.82	51.686
855.11	52.017
855.41	52.471
855.70	53.558
856.00	53.642
856.30	52.004
856.59	53.750
856.89	56.608
857.18	59.073
857.48	59.547
857.77	59.496
858.07	60.251
858.36	59.085
858.66	57.462
858.95	56.310
859.25	57.345
859.54	58.055
859.84	57.760
860.13	56.304
860.42	55.532
860.72	54.811
861.01	55.935
861.31	55.254
861.60	57.236
861.90	59.110
862.19	59.384
862.49	58.943
862.78	57.509
863.07	56.179
863.37	56.106
863.66	56.003
863.96	57.770
864.25	57.986
864.54	58.492
864.84	58.246
865.13	57.147
865.43	56.775
865.72	62.229
866.01	60.238
866.31	61.149
866.60	54.474
866.89	53.943
>>>>>End Spectral Data<<<<<
