OOIBase32 Version 2.0.0.6 Data File
++++++++++++++++++++++++++++++++++++
Date: 01-23-2012, 23:19:16
User: Valued Ocean Optics Customer
Spectrometer Serial Number: USB2E2917
Spectrometer Channel: Master
Integration Time (msec): 5
Spectra Averaged: 10
Boxcar Smoothing: 5
Correct for Electrical Dark: Enabled
Time Normalized: Disabled
Dual-beam Reference: Disabled
Reference Channel: Master
Temperature: Not acquired
Spectrometer Type: S2000
ADC Type: USB2000
Number of Pixels in File: 2048
Graph Title: 
>>>>>Begin Spectral Data<<<<<
180.30	0.000
180.67	0.000
181.03	9.624
181.40	305.808
181.77	-5327.752
182.14	66.982
182.51	-351.686
182.88	67.706
183.25	33.438
183.62	88.124
183.99	-34.351
184.36	-63.256
184.73	187.594
185.10	84.952
185.46	-35.952
185.83	-128.193
186.20	1257.034
186.57	201.028
186.94	41.214
187.31	77.659
187.68	87.239
188.05	70.383
188.42	116.797
188.78	192.439
189.15	721.571
189.52	-103.550
189.89	-3.846
190.26	8.198
190.63	18.466
191.00	37.328
191.37	22.352
191.73	26.060
192.10	14.878
192.47	13.101
192.84	8.390
193.21	23.136
193.58	16.786
193.94	0.427
194.31	1.210
194.68	-6.312
195.05	-18.046
195.42	5.838
195.79	-7.760
196.15	1.663
196.52	-11.954
196.89	-13.731
197.26	-29.179
197.63	-18.081
198.00	-6.619
198.36	-6.071
198.73	-12.550
199.10	-22.911
199.47	-32.836
199.84	-19.186
200.20	-33.510
200.57	-14.548
200.94	-19.972
201.31	-12.886
201.68	-33.487
202.04	-30.866
202.41	-34.516
202.78	-38.732
203.15	-37.943
203.51	-20.065
203.88	-28.175
204.25	-20.640
204.62	-40.864
204.98	-50.658
205.35	-59.587
205.72	-54.724
206.09	-33.165
206.46	-61.704
206.82	-48.992
207.19	-37.682
207.56	-83.422
207.92	-61.366
208.29	-76.026
208.66	-32.080
209.03	-28.460
209.39	-11.883
209.76	3.503
210.13	-29.867
210.50	-7.086
210.86	-8.414
211.23	-11.546
211.60	-0.336
211.96	-5.496
212.33	0.488
212.70	-5.914
213.07	-5.665
213.43	-39.984
213.80	-45.386
214.17	-18.237
214.53	-17.348
214.90	-16.002
215.27	-5.474
215.63	-14.379
216.00	-18.131
216.37	-17.337
216.74	-28.528
217.10	-18.706
217.47	-16.642
217.84	-18.933
218.20	-24.884
218.57	-28.585
218.94	-24.000
219.30	-31.927
219.67	-28.903
220.04	-19.221
220.40	-15.464
220.77	-19.393
221.13	-12.932
221.50	-7.985
221.87	-3.018
222.23	-0.755
222.60	-3.937
222.97	-7.423
223.33	-6.790
223.70	-6.352
224.07	-8.155
224.43	-7.693
224.80	-1.719
225.16	-5.652
225.53	-5.028
225.90	-8.727
226.26	-6.361
226.63	-3.089
226.99	-1.947
227.36	-0.013
227.73	1.391
228.09	0.895
228.46	0.847
228.82	0.227
229.19	-0.031
229.56	-1.268
229.92	1.833
230.29	1.784
230.65	0.233
231.02	-1.309
231.38	-5.019
231.75	-7.042
232.12	-8.443
232.48	-9.634
232.85	-11.372
233.21	-11.025
233.58	-10.707
233.94	-10.909
234.31	-13.000
234.68	-11.962
235.04	-11.772
235.41	-9.294
235.77	-7.563
236.14	-5.420
236.50	-3.997
236.87	-2.917
237.23	-2.584
237.60	-2.798
237.96	-3.277
238.33	-3.649
238.69	-3.747
239.06	-3.102
239.42	-3.057
239.79	-3.705
240.15	-3.575
240.52	-3.407
240.88	-2.788
241.25	-2.898
241.61	-2.326
241.98	-1.838
242.34	-0.873
242.71	-0.417
243.07	-0.331
243.44	-0.446
243.80	-0.231
244.17	-0.390
244.53	-0.753
244.90	-0.758
245.26	-0.732
245.63	-0.796
245.99	-1.019
246.36	-1.288
246.72	-1.376
247.09	-1.923
247.45	-2.106
247.81	-2.091
248.18	-1.851
248.54	-1.698
248.91	-2.021
249.27	-1.764
249.64	-1.417
250.00	-1.061
250.36	-1.023
250.73	-1.118
251.09	-0.656
251.46	-0.454
251.82	-0.351
252.19	-1.125
252.55	-1.156
252.91	-0.730
253.28	-0.849
253.64	-1.636
254.01	-2.045
254.37	-1.892
254.73	-1.157
255.10	-0.277
255.46	0.031
255.83	0.066
256.19	0.599
256.55	0.477
256.92	0.470
257.28	0.411
257.65	0.611
258.01	0.728
258.37	0.682
258.74	0.326
259.10	-0.014
259.46	-0.215
259.83	-0.380
260.19	-0.546
260.55	-0.507
260.92	-0.764
261.28	-0.871
261.64	-0.897
262.01	-1.041
262.37	-1.179
262.73	-0.955
263.10	-0.777
263.46	-0.620
263.82	-0.616
264.19	-0.786
264.55	-0.960
264.91	-0.976
265.28	-1.012
265.64	-1.070
266.00	-0.989
266.37	-0.859
266.73	-0.899
267.09	-0.984
267.46	-1.088
267.82	-1.199
268.18	-1.002
268.54	-0.754
268.91	-0.547
269.27	-0.452
269.63	-0.366
270.00	-0.338
270.36	-0.155
270.72	0.112
271.08	0.182
271.45	0.260
271.81	0.353
272.17	0.296
272.53	0.138
272.90	0.254
273.26	0.331
273.62	0.214
273.98	0.234
274.35	0.147
274.71	-0.091
275.07	0.034
275.43	0.114
275.80	0.150
276.16	0.037
276.52	-0.018
276.88	-0.398
277.25	-0.640
277.61	-0.806
277.97	-1.117
278.33	-1.304
278.69	-1.557
279.06	-1.728
279.42	-1.676
279.78	-1.729
280.14	-1.619
280.50	-1.262
280.87	-1.017
281.23	-0.963
281.59	-0.789
281.95	-0.611
282.31	-0.477
282.68	-0.462
283.04	-0.418
283.40	-0.372
283.76	-0.155
284.12	-0.076
284.48	-0.136
284.85	-0.059
285.21	0.120
285.57	0.230
285.93	0.286
286.29	0.148
286.65	0.372
287.02	0.569
287.38	0.539
287.74	0.435
288.10	0.352
288.46	0.095
288.82	-0.136
289.18	-0.359
289.54	-0.537
289.91	-0.569
290.27	-0.448
290.63	-0.460
290.99	-0.570
291.35	-0.665
291.71	-0.495
292.07	-0.470
292.43	-0.253
292.79	-0.083
293.16	0.111
293.52	0.316
293.88	0.472
294.24	0.542
294.60	0.437
294.96	0.221
295.32	0.206
295.68	0.124
296.04	0.201
296.40	0.209
296.76	0.193
297.12	0.123
297.49	-0.010
297.85	-0.189
298.21	-0.231
298.57	-0.381
298.93	-0.325
299.29	-0.479
299.65	-0.516
300.01	-0.662
300.37	-0.626
300.73	-0.485
301.09	-0.445
301.45	-0.368
301.81	-0.121
302.17	-0.032
302.53	0.106
302.89	0.184
303.25	0.445
303.61	0.477
303.97	0.459
304.33	0.413
304.69	0.348
305.05	0.225
305.41	0.213
305.77	0.212
306.13	0.105
306.49	0.097
306.85	0.134
307.21	0.079
307.57	0.159
307.93	0.243
308.29	0.308
308.65	0.255
309.01	0.313
309.37	0.201
309.73	0.078
310.09	0.169
310.45	0.270
310.81	0.234
311.17	0.201
311.53	0.117
311.89	0.069
312.25	-0.043
312.61	-0.113
312.96	-0.107
313.32	0.042
313.68	-0.059
314.04	-0.125
314.40	-0.235
314.76	-0.282
315.12	-0.221
315.48	-0.210
315.84	-0.182
316.20	-0.125
316.56	-0.104
316.92	-0.202
317.27	-0.302
317.63	-0.187
317.99	-0.217
318.35	-0.167
318.71	-0.083
319.07	0.004
319.43	0.042
319.79	0.151
320.15	0.090
320.50	0.148
320.86	0.154
321.22	0.145
321.58	0.057
321.94	0.032
322.30	-0.080
322.66	-0.097
323.01	-0.205
323.37	-0.346
323.73	-0.424
324.09	-0.401
324.45	-0.375
324.81	-0.347
325.17	-0.239
325.52	-0.198
325.88	-0.255
326.24	-0.150
326.60	-0.176
326.96	-0.194
327.31	-0.151
327.67	-0.222
328.03	-0.301
328.39	-0.409
328.75	-0.392
329.11	-0.359
329.46	-0.336
329.82	-0.266
330.18	-0.301
330.54	-0.348
330.90	-0.375
331.25	-0.301
331.61	-0.139
331.97	-0.037
332.33	0.044
332.68	0.083
333.04	0.024
333.40	-0.090
333.76	-0.088
334.11	-0.122
334.47	-0.025
334.83	-0.073
335.19	-0.189
335.54	-0.306
335.90	-0.369
336.26	-0.438
336.62	-0.509
336.97	-0.574
337.33	-0.561
337.69	-0.572
338.05	-0.592
338.40	-0.676
338.76	-0.647
339.12	-0.559
339.48	-0.557
339.83	-0.522
340.19	-0.489
340.55	-0.401
340.90	-0.404
341.26	-0.334
341.62	-0.380
341.97	-0.373
342.33	-0.295
342.69	-0.176
343.04	-0.174
343.40	-0.194
343.76	-0.232
344.12	-0.140
344.47	-0.111
344.83	-0.037
345.19	0.019
345.54	0.112
345.90	0.178
346.26	0.219
346.61	0.195
346.97	0.225
347.32	0.304
347.68	0.309
348.04	0.199
348.39	0.119
348.75	0.089
349.11	0.043
349.46	-0.038
349.82	-0.053
350.18	-0.063
350.53	-0.111
350.89	-0.099
351.24	-0.099
351.60	-0.022
351.96	0.091
352.31	0.141
352.67	0.234
353.02	0.253
353.38	0.383
353.74	0.478
354.09	0.435
354.45	0.520
354.80	0.567
355.16	0.593
355.52	0.611
355.87	0.569
356.23	0.682
356.58	0.701
356.94	0.771
357.29	0.779
357.65	0.834
358.00	0.939
358.36	0.993
358.72	1.003
359.07	1.106
359.43	1.199
359.78	1.312
360.14	1.308
360.49	1.318
360.85	1.356
361.20	1.400
361.56	1.386
361.91	1.480
362.27	1.557
362.62	1.674
362.98	1.729
363.33	1.745
363.69	1.790
364.04	1.888
364.40	1.957
364.75	2.005
365.11	2.037
365.46	2.079
365.82	2.079
366.17	2.092
366.53	2.083
366.88	2.095
367.24	2.206
367.59	2.239
367.95	2.241
368.30	2.277
368.66	2.346
369.01	2.411
369.37	2.513
369.72	2.604
370.08	2.659
370.43	2.715
370.78	2.766
371.14	2.726
371.49	2.776
371.85	2.798
372.20	2.827
372.56	2.859
372.91	2.840
373.26	2.854
373.62	2.791
373.97	2.834
374.33	2.839
374.68	2.846
375.03	2.897
375.39	2.892
375.74	2.909
376.10	2.942
376.45	2.927
376.80	2.980
377.16	2.939
377.51	3.022
377.87	3.039
378.22	3.020
378.57	3.033
378.93	3.095
379.28	3.157
379.63	3.200
379.99	3.246
380.34	3.282
380.70	3.327
381.05	3.442
381.40	3.486
381.76	3.532
382.11	3.577
382.46	3.600
382.82	3.588
383.17	3.569
383.52	3.550
383.88	3.530
384.23	3.573
384.58	3.581
384.94	3.535
385.29	3.534
385.64	3.526
385.99	3.576
386.35	3.624
386.70	3.662
387.05	3.665
387.41	3.684
387.76	3.706
388.11	3.680
388.47	3.664
388.82	3.732
389.17	3.724
389.52	3.734
389.88	3.767
390.23	3.768
390.58	3.772
390.93	3.788
391.29	3.825
391.64	3.876
391.99	3.952
392.34	4.015
392.70	3.982
393.05	3.986
393.40	3.961
393.75	3.928
394.11	3.917
394.46	3.899
394.81	3.913
395.16	3.890
395.52	3.843
395.87	3.808
396.22	3.796
396.57	3.785
396.92	3.765
397.28	3.774
397.63	3.735
397.98	3.730
398.33	3.733
398.68	3.723
399.04	3.729
399.39	3.756
399.74	3.747
400.09	3.742
400.44	3.757
400.80	3.752
401.15	3.735
401.50	3.750
401.85	3.753
402.20	3.716
402.55	3.735
402.90	3.712
403.26	3.691
403.61	3.664
403.96	3.628
404.31	3.627
404.66	3.634
405.01	3.634
405.36	3.629
405.72	3.632
406.07	3.644
406.42	3.577
406.77	3.587
407.12	3.593
407.47	3.603
407.82	3.611
408.17	3.599
408.53	3.584
408.88	3.578
409.23	3.568
409.58	3.524
409.93	3.563
410.28	3.604
410.63	3.607
410.98	3.571
411.33	3.587
411.68	3.609
412.03	3.615
412.38	3.614
412.73	3.627
413.09	3.615
413.44	3.654
413.79	3.623
414.14	3.651
414.49	3.664
414.84	3.680
415.19	3.680
415.54	3.687
415.89	3.685
416.24	3.722
416.59	3.738
416.94	3.759
417.29	3.774
417.64	3.780
417.99	3.777
418.34	3.783
418.69	3.788
419.04	3.787
419.39	3.796
419.74	3.811
420.09	3.817
420.44	3.820
420.79	3.829
421.14	3.815
421.49	3.831
421.84	3.817
422.19	3.837
422.54	3.845
422.89	3.852
423.24	3.844
423.59	3.832
423.94	3.810
424.29	3.810
424.64	3.812
424.99	3.806
425.34	3.776
425.68	3.791
426.03	3.746
426.38	3.730
426.73	3.718
427.08	3.709
427.43	3.725
427.78	3.736
428.13	3.712
428.48	3.697
428.83	3.702
429.18	3.710
429.53	3.700
429.87	3.694
430.22	3.683
430.57	3.705
430.92	3.682
431.27	3.668
431.62	3.636
431.97	3.643
432.32	3.639
432.67	3.622
433.01	3.604
433.36	3.586
433.71	3.598
434.06	3.595
434.41	3.568
434.76	3.583
435.11	3.589
435.45	3.613
435.80	3.595
436.15	3.600
436.50	3.638
436.85	3.663
437.20	3.669
437.54	3.663
437.89	3.675
438.24	3.672
438.59	3.674
438.94	3.668
439.29	3.645
439.63	3.665
439.98	3.673
440.33	3.654
440.68	3.662
441.03	3.690
441.37	3.700
441.72	3.730
442.07	3.748
442.42	3.774
442.76	3.790
443.11	3.824
443.46	3.850
443.81	3.872
444.16	3.901
444.50	3.900
444.85	3.904
445.20	3.918
445.55	3.915
445.89	3.927
446.24	3.926
446.59	3.913
446.94	3.906
447.28	3.894
447.63	3.889
447.98	3.886
448.32	3.905
448.67	3.899
449.02	3.887
449.37	3.872
449.71	3.890
450.06	3.903
450.41	3.944
450.75	3.965
451.10	3.975
451.45	3.966
451.79	3.964
452.14	3.958
452.49	3.976
452.84	3.994
453.18	4.010
453.53	3.995
453.88	3.981
454.22	3.977
454.57	4.003
454.92	4.007
455.26	4.044
455.61	4.076
455.95	4.109
456.30	4.130
456.65	4.169
456.99	4.201
457.34	4.224
457.69	4.259
458.03	4.270
458.38	4.276
458.73	4.287
459.07	4.276
459.42	4.254
459.76	4.227
460.11	4.207
460.46	4.177
460.80	4.156
461.15	4.138
461.49	4.117
461.84	4.098
462.19	4.080
462.53	4.088
462.88	4.109
463.22	4.111
463.57	4.122
463.91	4.119
464.26	4.111
464.61	4.106
464.95	4.102
465.30	4.092
465.64	4.101
465.99	4.097
466.33	4.088
466.68	4.066
467.02	4.061
467.37	4.047
467.71	4.043
468.06	4.050
468.41	4.039
468.75	4.039
469.10	4.029
469.44	4.018
469.79	4.000
470.13	3.972
470.48	3.974
470.82	3.974
471.17	3.972
471.51	3.959
471.86	3.953
472.20	3.952
472.55	3.949
472.89	3.955
473.23	3.942
473.58	3.946
473.92	3.960
474.27	3.942
474.61	3.926
474.96	3.942
475.30	3.956
475.65	3.950
475.99	3.956
476.34	3.950
476.68	3.934
477.02	3.939
477.37	3.933
477.71	3.962
478.06	3.993
478.40	4.061
478.75	4.131
479.09	4.225
479.43	4.325
479.78	4.441
480.12	4.563
480.47	4.690
480.81	4.804
481.15	4.923
481.50	5.040
481.84	5.168
482.19	5.294
482.53	5.403
482.87	5.471
483.22	5.483
483.56	5.432
483.90	5.342
484.25	5.235
484.59	5.118
484.94	5.011
485.28	4.905
485.62	4.800
485.97	4.676
486.31	4.562
486.65	4.485
487.00	4.462
487.34	4.473
487.68	4.515
488.03	4.556
488.37	4.614
488.71	4.646
489.06	4.659
489.40	4.660
489.74	4.660
490.09	4.668
490.43	4.661
490.77	4.649
491.11	4.639
491.46	4.628
491.80	4.630
492.14	4.610
492.49	4.610
492.83	4.595
493.17	4.583
493.51	4.571
493.86	4.567
494.20	4.573
494.54	4.592
494.88	4.630
495.23	4.670
495.57	4.691
495.91	4.749
496.25	4.792
496.60	4.844
496.94	4.874
497.28	4.937
497.62	4.979
497.97	5.020
498.31	5.065
498.65	5.111
498.99	5.147
499.33	5.232
499.68	5.292
500.02	5.357
500.36	5.412
500.70	5.494
501.04	5.546
501.39	5.607
501.73	5.678
502.07	5.749
502.41	5.822
502.75	5.914
503.09	5.976
503.44	6.059
503.78	6.129
504.12	6.216
504.46	6.298
504.80	6.403
505.14	6.517
505.49	6.618
505.83	6.727
506.17	6.830
506.51	6.911
506.85	7.009
507.19	7.097
507.53	7.190
507.87	7.291
508.22	7.387
508.56	7.480
508.90	7.556
509.24	7.656
509.58	7.740
509.92	7.830
510.26	7.938
510.60	8.035
510.94	8.141
511.28	8.238
511.63	8.328
511.97	8.438
512.31	8.550
512.65	8.667
512.99	8.798
513.33	8.944
513.67	9.097
514.01	9.256
514.35	9.401
514.69	9.548
515.03	9.690
515.37	9.836
515.71	9.974
516.05	10.096
516.39	10.205
516.73	10.304
517.07	10.394
517.41	10.474
517.75	10.565
518.09	10.659
518.43	10.734
518.77	10.813
519.11	10.895
519.45	10.956
519.79	11.049
520.13	11.143
520.47	11.246
520.81	11.360
521.15	11.492
521.49	11.591
521.83	11.712
522.17	11.824
522.51	11.967
522.85	12.104
523.19	12.247
523.53	12.408
523.87	12.608
524.21	12.798
524.55	12.978
524.89	13.134
525.23	13.305
525.57	13.454
525.91	13.601
526.25	13.723
526.58	13.847
526.92	13.963
527.26	14.036
527.60	14.084
527.94	14.130
528.28	14.150
528.62	14.156
528.96	14.152
529.30	14.146
529.64	14.138
529.97	14.122
530.31	14.102
530.65	14.085
530.99	14.095
531.33	14.097
531.67	14.099
532.01	14.119
532.35	14.152
532.68	14.164
533.02	14.163
533.36	14.158
533.70	14.166
534.04	14.167
534.38	14.158
534.71	14.152
535.05	14.154
535.39	14.153
535.73	14.150
536.07	14.155
536.41	14.174
536.74	14.208
537.08	14.227
537.42	14.294
537.76	14.326
538.10	14.392
538.43	14.452
538.77	14.527
539.11	14.579
539.45	14.641
539.79	14.685
540.12	14.729
540.46	14.751
540.80	14.777
541.14	14.751
541.47	14.732
541.81	14.721
542.15	14.704
542.49	14.660
542.82	14.618
543.16	14.572
543.50	14.525
543.84	14.483
544.17	14.461
544.51	14.447
544.85	14.443
545.18	14.468
545.52	14.480
545.86	14.469
546.20	14.493
546.53	14.507
546.87	14.513
547.21	14.511
547.54	14.493
547.88	14.480
548.22	14.468
548.55	14.452
548.89	14.447
549.23	14.420
549.56	14.413
549.90	14.396
550.24	14.402
550.57	14.391
550.91	14.404
551.25	14.432
551.58	14.431
551.92	14.430
552.26	14.431
552.59	14.417
552.93	14.420
553.27	14.417
553.60	14.409
553.94	14.374
554.27	14.360
554.61	14.340
554.95	14.311
555.28	14.297
555.62	14.284
555.95	14.296
556.29	14.289
556.63	14.236
556.96	14.215
557.30	14.184
557.63	14.161
557.97	14.115
558.31	14.059
558.64	14.002
558.98	13.969
559.31	13.940
559.65	13.889
559.98	13.841
560.32	13.820
560.65	13.769
560.99	13.710
561.33	13.655
561.66	13.617
562.00	13.587
562.33	13.566
562.67	13.517
563.00	13.473
563.34	13.429
563.67	13.390
564.01	13.338
564.34	13.296
564.68	13.268
565.01	13.229
565.35	13.181
565.68	13.131
566.02	13.059
566.35	12.999
566.69	12.918
567.02	12.867
567.36	12.775
567.69	12.721
568.03	12.669
568.36	12.583
568.69	12.517
569.03	12.474
569.36	12.404
569.70	12.336
570.03	12.289
570.37	12.236
570.70	12.168
571.04	12.158
571.37	12.083
571.70	12.007
572.04	11.957
572.37	11.900
572.71	11.814
573.04	11.775
573.37	11.747
573.71	11.697
574.04	11.652
574.38	11.612
574.71	11.550
575.04	11.511
575.38	11.459
575.71	11.413
576.05	11.379
576.38	11.362
576.71	11.323
577.05	11.269
577.38	11.196
577.71	11.159
578.05	11.087
578.38	11.007
578.71	10.946
579.05	10.879
579.38	10.833
579.71	10.780
580.05	10.715
580.38	10.646
580.71	10.584
581.05	10.558
581.38	10.512
581.71	10.464
582.05	10.439
582.38	10.404
582.71	10.391
583.04	10.361
583.38	10.305
583.71	10.279
584.04	10.260
584.38	10.259
584.71	10.243
585.04	10.218
585.37	10.226
585.71	10.188
586.04	10.165
586.37	10.179
586.70	10.158
587.04	10.151
587.37	10.138
587.70	10.121
588.03	10.078
588.37	10.054
588.70	10.040
589.03	10.003
589.36	9.989
589.69	9.974
590.03	9.944
590.36	9.919
590.69	9.870
591.02	9.817
591.35	9.761
591.69	9.730
592.02	9.706
592.35	9.665
592.68	9.658
593.01	9.628
593.35	9.615
593.68	9.579
594.01	9.556
594.34	9.550
594.67	9.566
595.00	9.545
595.34	9.540
595.67	9.504
596.00	9.488
596.33	9.451
596.66	9.441
596.99	9.396
597.32	9.361
597.65	9.315
597.99	9.294
598.32	9.231
598.65	9.192
598.98	9.137
599.31	9.113
599.64	9.081
599.97	9.041
600.30	9.011
600.63	9.004
600.96	8.993
601.30	8.990
601.63	9.010
601.96	9.007
602.29	9.005
602.62	8.975
602.95	8.971
603.28	8.958
603.61	8.937
603.94	8.911
604.27	8.884
604.60	8.843
604.93	8.826
605.26	8.746
605.59	8.706
605.92	8.678
606.25	8.679
606.58	8.633
606.91	8.580
607.24	8.564
607.57	8.527
607.90	8.500
608.23	8.457
608.56	8.405
608.89	8.373
609.22	8.329
609.55	8.262
609.88	8.194
610.21	8.126
610.54	8.064
610.87	8.008
611.20	7.937
611.53	7.848
611.86	7.810
612.19	7.725
612.52	7.664
612.85	7.602
613.18	7.595
613.51	7.552
613.84	7.501
614.17	7.431
614.49	7.392
614.82	7.358
615.15	7.338
615.48	7.320
615.81	7.301
616.14	7.275
616.47	7.242
616.80	7.172
617.13	7.141
617.46	7.109
617.78	7.124
618.11	7.072
618.44	7.050
618.77	6.996
619.10	6.895
619.43	6.871
619.76	6.858
620.09	6.852
620.41	6.841
620.74	6.862
621.07	6.883
621.40	6.876
621.73	6.901
622.06	6.922
622.38	6.944
622.71	6.997
623.04	7.012
623.37	7.031
623.70	7.021
624.02	7.062
624.35	7.063
624.68	7.056
625.01	7.073
625.34	7.077
625.66	7.093
625.99	7.115
626.32	7.122
626.65	7.130
626.98	7.130
627.30	7.163
627.63	7.114
627.96	7.073
628.29	7.047
628.61	6.997
628.94	6.977
629.27	6.939
629.60	6.878
629.92	6.858
630.25	6.810
630.58	6.725
630.91	6.681
631.23	6.661
631.56	6.655
631.89	6.617
632.21	6.593
632.54	6.526
632.87	6.472
633.19	6.447
633.52	6.397
633.85	6.352
634.18	6.336
634.50	6.256
634.83	6.211
635.16	6.104
635.48	6.033
635.81	5.949
636.14	5.880
636.46	5.805
636.79	5.748
637.11	5.670
637.44	5.561
637.77	5.484
638.09	5.383
638.42	5.297
638.75	5.264
639.07	5.232
639.40	5.180
639.73	5.101
640.05	5.025
640.38	4.978
640.70	4.868
641.03	4.848
641.36	4.746
641.68	4.738
642.01	4.683
642.33	4.646
642.66	4.594
642.98	4.546
643.31	4.524
643.64	4.514
643.96	4.428
644.29	4.441
644.61	4.424
644.94	4.456
645.26	4.440
645.59	4.444
645.91	4.391
646.24	4.373
646.56	4.353
646.89	4.323
647.22	4.277
647.54	4.298
647.87	4.292
648.19	4.235
648.52	4.198
648.84	4.158
649.17	4.101
649.49	4.111
649.82	4.090
650.14	4.078
650.47	4.072
650.79	4.090
651.11	4.045
651.44	4.017
651.76	4.046
652.09	4.065
652.41	4.089
652.74	4.097
653.06	4.088
653.39	4.082
653.71	4.099
654.04	4.119
654.36	4.174
654.68	4.235
655.01	4.249
655.33	4.253
655.66	4.234
655.98	4.249
656.30	4.244
656.63	4.234
656.95	4.266
657.28	4.256
657.60	4.234
657.92	4.163
658.25	4.092
658.57	4.082
658.90	4.063
659.22	4.037
659.54	3.963
659.87	3.933
660.19	3.904
660.51	3.825
660.84	3.802
661.16	3.776
661.48	3.763
661.81	3.770
662.13	3.710
662.45	3.684
662.78	3.703
663.10	3.775
663.42	3.802
663.75	3.864
664.07	3.886
664.39	3.903
664.72	3.887
665.04	3.913
665.36	3.953
665.69	4.024
666.01	4.092
666.33	4.148
666.65	4.128
666.98	4.221
667.30	4.272
667.62	4.357
667.94	4.393
668.27	4.506
668.59	4.574
668.91	4.659
669.23	4.745
669.56	4.815
669.88	4.933
670.20	5.021
670.52	5.133
670.85	5.181
671.17	5.272
671.49	5.412
671.81	5.562
672.13	5.722
672.46	5.860
672.78	6.002
673.10	6.177
673.42	6.284
673.74	6.506
674.07	6.659
674.39	6.913
674.71	7.042
675.03	7.266
675.35	7.435
675.67	7.589
676.00	7.710
676.32	7.872
676.64	8.005
676.96	8.168
677.28	8.307
677.60	8.459
677.92	8.621
678.25	8.812
678.57	8.939
678.89	9.026
679.21	9.155
679.53	9.345
679.85	9.535
680.17	9.716
680.49	9.896
680.81	10.086
681.13	10.259
681.46	10.403
681.78	10.663
682.10	10.903
682.42	11.213
682.74	11.488
683.06	11.743
683.38	11.929
683.70	12.170
684.02	12.391
684.34	12.685
684.66	12.877
684.98	13.122
685.30	13.318
685.62	13.501
685.94	13.665
686.26	13.822
686.58	13.969
686.90	14.143
687.22	14.290
687.54	14.441
687.86	14.478
688.18	14.675
688.50	14.818
688.82	14.890
689.14	15.018
689.46	15.222
689.78	15.371
690.10	15.547
690.42	15.759
690.74	15.992
691.06	16.164
691.38	16.390
691.70	16.561
692.02	16.724
692.34	16.959
692.66	17.093
692.98	17.188
693.30	17.386
693.62	17.565
693.94	17.648
694.26	17.691
694.57	17.826
694.89	17.956
695.21	18.128
695.53	18.210
695.85	18.245
696.17	18.365
696.49	18.521
696.81	18.607
697.13	18.699
697.44	18.846
697.76	19.037
698.08	19.237
698.40	19.423
698.72	19.555
699.04	19.775
699.36	20.097
699.67	20.430
699.99	20.612
700.31	20.967
700.63	21.261
700.95	21.580
701.27	21.864
701.58	22.085
701.90	22.315
702.22	22.594
702.54	22.787
702.86	22.955
703.17	23.079
703.49	23.369
703.81	23.476
704.13	23.606
704.45	23.795
704.76	23.967
705.08	24.159
705.40	24.254
705.72	24.344
706.03	24.540
706.35	24.710
706.67	24.851
706.99	25.048
707.30	25.285
707.62	25.536
707.94	25.731
708.26	25.872
708.57	25.993
708.89	26.235
709.21	26.429
709.53	26.621
709.84	26.778
710.16	26.983
710.48	27.142
710.79	27.354
711.11	27.473
711.43	27.559
711.74	27.762
712.06	27.983
712.38	28.226
712.69	28.390
713.01	28.636
713.33	28.883
713.64	29.117
713.96	29.346
714.28	29.522
714.59	29.848
714.91	30.186
715.23	30.421
715.54	30.681
715.86	30.945
716.17	31.377
716.49	31.658
716.81	31.892
717.12	32.138
717.44	32.484
717.76	32.728
718.07	32.876
718.39	33.092
718.70	33.335
719.02	33.462
719.33	33.616
719.65	33.617
719.97	33.735
720.28	34.022
720.60	34.250
720.91	34.354
721.23	34.568
721.54	34.801
721.86	34.880
722.17	35.080
722.49	35.402
722.81	35.465
723.12	35.668
723.44	35.931
723.75	36.124
724.07	36.280
724.38	36.415
724.70	36.582
725.01	36.737
725.33	36.962
725.64	37.118
725.96	37.286
726.27	37.414
726.59	37.711
726.90	37.806
727.22	37.765
727.53	37.875
727.84	38.046
728.16	38.115
728.47	38.241
728.79	38.382
729.10	38.498
729.42	38.535
729.73	38.717
730.05	38.700
730.36	38.681
730.67	38.881
730.99	39.034
731.30	39.041
731.62	39.179
731.93	39.393
732.24	39.581
732.56	39.691
732.87	39.958
733.19	40.276
733.50	40.608
733.81	40.891
734.13	41.026
734.44	41.201
734.76	41.266
735.07	41.388
735.38	41.436
735.70	41.735
736.01	41.804
736.32	41.843
736.64	41.951
736.95	41.955
737.26	42.184
737.58	42.201
737.89	42.390
738.20	42.610
738.52	42.793
738.83	42.878
739.14	42.667
739.45	42.822
739.77	42.916
740.08	43.024
740.39	43.079
740.71	43.125
741.02	43.301
741.33	43.238
741.64	43.609
741.96	43.892
742.27	43.940
742.58	44.159
742.90	44.327
743.21	44.427
743.52	44.405
743.83	44.506
744.14	44.466
744.46	44.644
744.77	44.606
745.08	44.291
745.39	44.125
745.71	44.170
746.02	44.183
746.33	44.095
746.64	43.970
746.95	43.956
747.27	44.034
747.58	44.136
747.89	44.104
748.20	44.049
748.51	44.133
748.82	43.960
749.14	44.049
749.45	44.109
749.76	44.178
750.07	44.368
750.38	44.175
750.69	44.094
751.01	43.950
751.32	44.072
751.63	44.300
751.94	44.349
752.25	44.426
752.56	44.455
752.87	44.282
753.18	44.201
753.49	43.972
753.81	44.223
754.12	44.075
754.43	44.227
754.74	44.157
755.05	44.110
755.36	44.087
755.67	44.164
755.98	44.420
756.29	44.605
756.60	44.862
756.91	45.085
757.22	45.211
757.53	45.616
757.84	45.670
758.15	45.874
758.46	46.024
758.77	46.135
759.09	46.194
759.40	46.022
759.71	45.949
760.02	45.877
760.33	45.882
760.64	45.640
760.95	45.552
761.26	45.415
761.57	45.204
761.88	45.029
762.18	44.938
762.49	44.786
762.80	44.689
763.11	44.729
763.42	44.625
763.73	44.559
764.04	44.578
764.35	44.442
764.66	44.367
764.97	44.117
765.28	44.045
765.59	43.930
765.90	43.889
766.21	43.674
766.52	43.361
766.83	43.309
767.14	43.058
767.44	42.720
767.75	42.223
768.06	42.102
768.37	42.137
768.68	42.049
768.99	41.883
769.30	41.835
769.61	41.779
769.91	41.809
770.22	41.215
770.53	41.027
770.84	41.145
771.15	41.419
771.46	41.259
771.77	41.399
772.07	41.379
772.38	41.326
772.69	40.794
773.00	40.868
773.31	40.747
773.61	40.956
773.92	40.931
774.23	40.870
774.54	40.625
774.85	40.679
775.15	40.548
775.46	40.416
775.77	40.280
776.08	40.532
776.39	40.306
776.69	40.315
777.00	40.309
777.31	40.509
777.62	40.568
777.92	40.677
778.23	40.711
778.54	40.613
778.85	40.622
779.15	40.559
779.46	40.616
779.77	40.827
780.07	40.880
780.38	41.286
780.69	40.878
781.00	40.863
781.30	41.006
781.61	40.878
781.92	40.908
782.22	40.966
782.53	40.976
782.84	41.216
783.14	41.354
783.45	41.154
783.76	40.871
784.06	41.248
784.37	41.142
784.68	40.953
784.98	40.935
785.29	41.155
785.60	41.164
785.90	41.532
786.21	41.531
786.51	41.426
786.82	41.620
787.13	41.798
787.43	41.821
787.74	42.153
788.04	42.266
788.35	42.499
788.66	42.497
788.96	42.737
789.27	42.420
789.57	42.277
789.88	42.230
790.19	42.026
790.49	41.741
790.80	41.474
791.10	41.026
791.41	40.991
791.71	40.896
792.02	40.627
792.32	40.153
792.63	40.112
792.93	39.873
793.24	39.657
793.54	39.861
793.85	40.046
794.15	40.362
794.46	40.678
794.76	40.595
795.07	40.504
795.37	40.825
795.68	41.107
795.98	41.351
796.29	41.623
796.59	41.826
796.90	41.827
797.20	41.653
797.51	41.621
797.81	41.309
798.12	41.584
798.42	41.552
798.72	41.392
799.03	41.437
799.33	41.207
799.64	41.159
799.94	41.263
800.25	40.831
800.55	41.020
800.85	40.804
801.16	41.343
801.46	40.899
801.77	40.771
802.07	40.915
802.37	40.550
802.68	40.777
802.98	40.937
803.28	41.008
803.59	41.366
803.89	40.951
804.20	41.209
804.50	40.714
804.80	41.187
805.11	41.376
805.41	41.329
805.71	41.440
806.02	41.579
806.32	41.341
806.62	41.046
806.93	41.375
807.23	42.092
807.53	41.883
807.83	42.094
808.14	42.121
808.44	42.040
808.74	41.924
809.05	41.898
809.35	41.689
809.65	42.416
809.95	42.943
810.26	42.776
810.56	42.590
810.86	43.105
811.16	43.383
811.47	43.584
811.77	43.926
812.07	43.895
812.37	44.280
812.68	44.546
812.98	44.185
813.28	44.378
813.58	44.700
813.88	44.615
814.19	44.839
814.49	45.097
814.79	45.234
815.09	45.234
815.39	45.308
815.70	45.241
816.00	45.196
816.30	44.968
816.60	44.749
816.90	44.648
817.20	44.554
817.50	44.097
817.81	43.775
818.11	43.675
818.41	43.772
818.71	43.891
819.01	44.066
819.31	44.394
819.61	44.711
819.92	44.979
820.22	45.291
820.52	45.610
820.82	45.896
821.12	46.205
821.42	46.468
821.72	46.735
822.02	47.110
822.32	47.487
822.62	47.764
822.92	48.012
823.22	48.258
823.52	48.452
823.83	48.548
824.13	48.618
824.43	48.604
824.73	48.713
825.03	48.695
825.33	48.690
825.63	48.507
825.93	48.292
826.23	48.089
826.53	47.910
826.83	47.669
827.13	47.828
827.43	47.822
827.73	48.127
828.03	47.994
828.33	48.266
828.63	48.097
828.93	47.932
829.23	47.888
829.53	47.947
829.83	47.599
830.13	47.192
830.42	46.706
830.72	46.616
831.02	46.011
831.32	45.869
831.62	45.906
831.92	45.938
832.22	46.065
832.52	46.077
832.82	45.911
833.12	45.863
833.42	46.021
833.72	46.124
834.01	46.346
834.31	46.759
834.61	47.157
834.91	47.149
835.21	47.252
835.51	47.150
835.81	46.988
836.11	47.322
836.40	47.403
836.70	47.369
837.00	47.650
837.30	47.670
837.60	47.540
837.90	47.047
838.19	46.443
838.49	46.149
838.79	45.943
839.09	45.817
839.39	45.068
839.68	45.382
839.98	44.778
840.28	43.993
840.58	43.595
840.88	43.272
841.17	42.638
841.47	42.971
841.77	42.462
842.07	42.358
842.36	42.092
842.66	41.758
842.96	40.811
843.26	41.076
843.55	40.726
843.85	39.103
844.15	37.777
844.45	38.243
844.74	38.428
845.04	38.119
845.34	38.445
845.63	38.472
845.93	40.068
846.23	41.521
846.53	41.180
846.82	40.442
847.12	42.401
847.42	42.945
847.71	42.525
848.01	40.971
848.31	40.985
848.60	41.045
848.90	40.715
849.19	39.532
849.49	37.091
849.79	37.666
850.08	37.547
850.38	36.975
850.68	36.395
850.97	38.018
851.27	38.119
851.56	39.387
851.86	37.603
852.16	38.797
852.45	38.045
852.75	39.482
853.04	40.275
853.34	41.848
853.64	41.771
853.93	41.940
854.23	39.712
854.52	39.827
854.82	39.975
855.11	41.573
855.41	40.682
855.70	41.981
856.00	40.641
856.30	39.274
856.59	39.862
856.89	41.068
857.18	42.895
857.48	43.408
857.77	41.139
858.07	39.406
858.36	38.982
858.66	40.078
858.95	38.488
859.25	41.632
859.54	42.913
859.84	42.602
860.13	40.417
860.42	39.058
860.72	38.884
861.01	40.802
861.31	41.971
861.60	42.274
861.90	42.384
862.19	44.287
862.49	42.643
862.78	40.569
863.07	39.662
863.37	40.658
863.66	39.929
863.96	41.897
864.25	43.015
864.54	44.254
864.84	45.417
865.13	44.386
865.43	43.911
865.72	50.819
866.01	63.650
866.31	52.540
866.60	38.436
866.89	42.223
>>>>>End Spectral Data<<<<<
