OOIBase32 Version 2.0.0.6 Data File
++++++++++++++++++++++++++++++++++++
Date: 01-24-2012, 17:45:35
User: Valued Ocean Optics Customer
Spectrometer Serial Number: USB2E2917
Spectrometer Channel: Master
Integration Time (msec): 7
Spectra Averaged: 10
Boxcar Smoothing: 5
Correct for Electrical Dark: Enabled
Time Normalized: Disabled
Dual-beam Reference: Disabled
Reference Channel: Master
Temperature: Not acquired
Spectrometer Type: S2000
ADC Type: USB2000
Number of Pixels in File: 2048
Graph Title: 
>>>>>Begin Spectral Data<<<<<
180.30	0.000
180.67	0.000
181.03	-28.656
181.40	-294414.286
181.77	-275.375
182.14	222.062
182.51	-118.134
182.88	160.437
183.25	38.922
183.62	85.439
183.99	156.525
184.36	-60.357
184.73	-26.640
185.10	96.026
185.46	-30.708
185.83	128.083
186.20	-101.939
186.57	-63.314
186.94	54.423
187.31	55.505
187.68	-28.656
188.05	140.447
188.42	35.032
188.78	6.813
189.15	36.137
189.52	36.742
189.89	18.696
190.26	13.893
190.63	-3.391
191.00	-4.825
191.37	-15.204
191.73	-15.365
192.10	-15.321
192.47	12.715
192.84	32.280
193.21	23.628
193.58	37.471
193.94	52.383
194.31	46.440
194.68	55.580
195.05	77.470
195.42	60.986
195.79	55.249
196.15	55.575
196.52	53.115
196.89	41.331
197.26	35.831
197.63	28.123
198.00	26.234
198.36	19.806
198.73	26.069
199.10	1.536
199.47	9.687
199.84	22.231
200.20	18.814
200.57	-12.472
200.94	10.988
201.31	31.357
201.68	31.395
202.04	37.033
202.41	46.887
202.78	38.658
203.15	45.765
203.51	45.750
203.88	33.635
204.25	26.360
204.62	37.151
204.98	23.274
205.35	6.513
205.72	-1.210
206.09	-4.905
206.46	-26.303
206.82	-48.839
207.19	-63.546
207.56	-69.129
207.92	-60.936
208.29	-81.312
208.66	-65.928
209.03	-44.237
209.39	-44.387
209.76	-42.001
210.13	-41.569
210.50	-26.397
210.86	-9.528
211.23	-3.915
211.60	-3.528
211.96	-6.328
212.33	1.001
212.70	3.731
213.07	6.857
213.43	-0.999
213.80	2.036
214.17	3.370
214.53	12.369
214.90	-7.121
215.27	-7.554
215.63	-1.344
216.00	-12.387
216.37	-5.911
216.74	-10.108
217.10	-6.424
217.47	-4.837
217.84	-19.358
218.20	-23.328
218.57	-25.361
218.94	7.037
219.30	9.523
219.67	12.568
220.04	18.238
220.40	14.381
220.77	22.198
221.13	16.791
221.50	21.210
221.87	31.705
222.23	28.505
222.60	24.307
222.97	25.818
223.33	20.144
223.70	12.394
224.07	8.029
224.43	6.759
224.80	-1.929
225.16	2.591
225.53	-0.839
225.90	-7.591
226.26	-4.988
226.63	-8.185
226.99	-7.685
227.36	-7.632
227.73	-7.080
228.09	-6.133
228.46	-9.245
228.82	-7.475
229.19	-10.999
229.56	-9.619
229.92	-8.135
230.29	-8.484
230.65	-6.941
231.02	-6.085
231.38	-4.328
231.75	-3.142
232.12	-3.702
232.48	0.160
232.85	1.991
233.21	5.129
233.58	3.893
233.94	4.877
234.31	2.091
234.68	2.891
235.04	3.593
235.41	3.616
235.77	3.128
236.14	4.398
236.50	3.786
236.87	3.310
237.23	2.101
237.60	0.958
237.96	0.591
238.33	1.285
238.69	0.623
239.06	0.134
239.42	-0.453
239.79	-0.188
240.15	-0.109
240.52	-0.520
240.88	-0.725
241.25	-0.877
241.61	-0.089
241.98	-0.501
242.34	0.024
242.71	0.264
243.07	0.081
243.44	0.148
243.80	-0.268
244.17	-0.698
244.53	-0.943
244.90	-1.186
245.26	-1.010
245.63	-1.142
245.99	-0.977
246.36	-0.980
246.72	-0.998
247.09	-1.346
247.45	-1.173
247.81	-0.801
248.18	-0.560
248.54	0.007
248.91	-0.130
249.27	-0.201
249.64	-0.144
250.00	-0.706
250.36	-0.779
250.73	-0.478
251.09	-0.321
251.46	-1.162
251.82	-0.953
252.19	-0.997
252.55	-0.626
252.91	0.079
253.28	0.795
253.64	1.980
254.01	2.320
254.37	2.665
254.73	2.029
255.10	2.161
255.46	2.867
255.83	2.859
256.19	3.019
256.55	2.518
256.92	2.335
257.28	2.110
257.65	1.647
258.01	1.858
258.37	1.544
258.74	1.644
259.10	1.760
259.46	1.541
259.83	1.448
260.19	1.475
260.55	1.624
260.92	1.402
261.28	1.442
261.64	1.544
262.01	1.610
262.37	2.304
262.73	2.268
263.10	1.719
263.46	1.654
263.82	1.491
264.19	1.553
264.55	1.887
264.91	2.429
265.28	2.357
265.64	2.504
266.00	2.177
266.37	1.924
266.73	1.836
267.09	2.019
267.46	2.166
267.82	2.111
268.18	1.976
268.54	1.328
268.91	0.785
269.27	0.695
269.63	0.630
270.00	0.732
270.36	0.682
270.72	0.427
271.08	0.372
271.45	0.364
271.81	0.137
272.17	-0.138
272.53	0.256
272.90	0.606
273.26	0.473
273.62	0.180
273.98	0.239
274.35	-0.085
274.71	0.247
275.07	0.305
275.43	0.316
275.80	0.682
276.16	0.495
276.52	0.355
276.88	0.314
277.25	0.398
277.61	0.626
277.97	0.419
278.33	0.730
278.69	1.116
279.06	0.940
279.42	0.961
279.78	0.954
280.14	1.341
280.50	1.233
280.87	1.489
281.23	1.781
281.59	1.730
281.95	1.652
282.31	1.513
282.68	1.232
283.04	1.545
283.40	1.278
283.76	1.076
284.12	0.970
284.48	0.953
284.85	0.749
285.21	0.395
285.57	0.279
285.93	0.365
286.29	0.393
286.65	0.379
287.02	0.149
287.38	0.227
287.74	0.320
288.10	0.467
288.46	0.564
288.82	0.562
289.18	0.629
289.54	0.718
289.91	0.713
290.27	0.511
290.63	0.188
290.99	0.405
291.35	0.519
291.71	0.616
292.07	0.420
292.43	0.271
292.79	0.464
293.16	0.468
293.52	0.450
293.88	0.441
294.24	0.304
294.60	0.520
294.96	0.106
295.32	0.089
295.68	-0.060
296.04	-0.029
296.40	-0.174
296.76	-0.391
297.12	-0.487
297.49	-0.606
297.85	-0.590
298.21	-0.252
298.57	-0.232
298.93	0.149
299.29	-0.007
299.65	-0.062
300.01	0.013
300.37	0.412
300.73	0.399
301.09	0.420
301.45	0.550
301.81	0.501
302.17	0.378
302.53	0.188
302.89	0.022
303.25	0.205
303.61	0.454
303.97	0.297
304.33	0.059
304.69	0.127
305.05	0.095
305.41	0.088
305.77	0.065
306.13	0.033
306.49	-0.110
306.85	-0.087
307.21	-0.112
307.57	-0.437
307.93	-0.481
308.29	-0.495
308.65	-0.661
309.01	-0.716
309.37	-0.841
309.73	-0.912
310.09	-1.065
310.45	-0.867
310.81	-0.978
311.17	-0.973
311.53	-0.832
311.89	-0.960
312.25	-1.073
312.61	-1.252
312.96	-1.288
313.32	-1.372
313.68	-1.479
314.04	-1.351
314.40	-1.693
314.76	-1.770
315.12	-2.072
315.48	-2.408
315.84	-2.430
316.20	-2.547
316.56	-2.484
316.92	-2.418
317.27	-2.372
317.63	-2.327
317.99	-2.433
318.35	-2.096
318.71	-2.152
319.07	-2.082
319.43	-1.963
319.79	-2.004
320.15	-2.247
320.50	-2.315
320.86	-2.502
321.22	-2.695
321.58	-2.713
321.94	-2.686
322.30	-2.896
322.66	-2.929
323.01	-3.030
323.37	-3.079
323.73	-3.233
324.09	-3.020
324.45	-3.213
324.81	-3.262
325.17	-3.338
325.52	-3.549
325.88	-3.890
326.24	-4.071
326.60	-4.242
326.96	-4.261
327.31	-4.415
327.67	-4.386
328.03	-4.526
328.39	-4.490
328.75	-4.659
329.11	-4.681
329.46	-4.759
329.82	-4.506
330.18	-4.388
330.54	-4.295
330.90	-4.284
331.25	-4.105
331.61	-3.895
331.97	-3.912
332.33	-3.755
332.68	-3.574
333.04	-3.549
333.40	-3.423
333.76	-3.407
334.11	-3.445
334.47	-3.433
334.83	-3.433
335.19	-3.468
335.54	-3.559
335.90	-3.550
336.26	-3.719
336.62	-3.738
336.97	-3.871
337.33	-3.933
337.69	-4.185
338.05	-4.141
338.40	-4.225
338.76	-4.409
339.12	-4.496
339.48	-4.544
339.83	-4.542
340.19	-4.340
340.55	-4.344
340.90	-4.181
341.26	-3.982
341.62	-3.828
341.97	-3.799
342.33	-3.630
342.69	-3.410
343.04	-3.420
343.40	-3.438
343.76	-3.335
344.12	-3.331
344.47	-3.170
344.83	-3.085
345.19	-3.226
345.54	-3.255
345.90	-3.283
346.26	-3.316
346.61	-3.361
346.97	-3.349
347.32	-3.412
347.68	-3.486
348.04	-3.633
348.39	-3.697
348.75	-3.783
349.11	-3.866
349.46	-3.913
349.82	-3.939
350.18	-3.969
350.53	-3.955
350.89	-3.993
351.24	-3.748
351.60	-3.783
351.96	-3.668
352.31	-3.651
352.67	-3.564
353.02	-3.382
353.38	-3.186
353.74	-3.061
354.09	-2.885
354.45	-2.787
354.80	-2.630
355.16	-2.650
355.52	-2.440
355.87	-2.250
356.23	-2.174
356.58	-2.083
356.94	-2.000
357.29	-1.891
357.65	-1.741
358.00	-1.746
358.36	-1.676
358.72	-1.633
359.07	-1.563
359.43	-1.440
359.78	-1.424
360.14	-1.483
360.49	-1.468
360.85	-1.472
361.20	-1.583
361.56	-1.699
361.91	-1.652
362.27	-1.681
362.62	-1.599
362.98	-1.616
363.33	-1.660
363.69	-1.671
364.04	-1.549
364.40	-1.610
364.75	-1.554
365.11	-1.464
365.46	-1.360
365.82	-1.372
366.17	-1.346
366.53	-1.302
366.88	-1.171
367.24	-1.132
367.59	-0.977
367.95	-0.808
368.30	-0.579
368.66	-0.443
369.01	-0.256
369.37	0.007
369.72	0.195
370.08	0.482
370.43	0.677
370.78	0.833
371.14	1.083
371.49	1.188
371.85	1.295
372.20	1.506
372.56	1.585
372.91	1.652
373.26	1.632
373.62	1.669
373.97	1.705
374.33	1.782
374.68	1.855
375.03	1.902
375.39	1.953
375.74	1.972
376.10	2.056
376.45	2.222
376.80	2.369
377.16	2.625
377.51	2.874
377.87	3.082
378.22	3.290
378.57	3.501
378.93	3.714
379.28	4.052
379.63	4.345
379.99	4.579
380.34	4.801
380.70	5.073
381.05	5.226
381.40	5.421
381.76	5.564
382.11	5.684
382.46	5.860
382.82	5.941
383.17	5.974
383.52	6.040
383.88	6.083
384.23	6.196
384.58	6.222
384.94	6.267
385.29	6.285
385.64	6.354
385.99	6.438
386.35	6.513
386.70	6.606
387.05	6.717
387.41	6.871
387.76	7.009
388.11	7.105
388.47	7.303
388.82	7.490
389.17	7.742
389.52	7.933
389.88	8.130
390.23	8.301
390.58	8.615
390.93	8.858
391.29	9.047
391.64	9.222
391.99	9.422
392.34	9.511
392.70	9.583
393.05	9.586
393.40	9.656
393.75	9.718
394.11	9.696
394.46	9.549
394.81	9.427
395.16	9.372
395.52	9.278
395.87	9.068
396.22	8.949
396.57	8.773
396.92	8.546
397.28	8.401
397.63	8.222
397.98	8.121
398.33	8.034
398.68	7.996
399.04	7.885
399.39	7.802
399.74	7.907
400.09	7.929
400.44	8.050
400.80	8.220
401.15	8.251
401.50	8.341
401.85	8.465
402.20	8.592
402.55	8.617
402.90	8.685
403.26	8.792
403.61	8.770
403.96	8.795
404.31	8.800
404.66	8.790
405.01	8.801
405.36	8.781
405.72	8.717
406.07	8.663
406.42	8.647
406.77	8.629
407.12	8.610
407.47	8.632
407.82	8.589
408.17	8.523
408.53	8.477
408.88	8.409
409.23	8.376
409.58	8.302
409.93	8.254
410.28	8.190
410.63	8.141
410.98	8.098
411.33	8.062
411.68	8.059
412.03	8.089
412.38	8.160
412.73	8.316
413.09	8.451
413.44	8.638
413.79	8.821
414.14	9.091
414.49	9.323
414.84	9.520
415.19	9.749
415.54	9.983
415.89	10.184
416.24	10.409
416.59	10.585
416.94	10.726
417.29	10.842
417.64	10.959
417.99	11.050
418.34	11.110
418.69	11.158
419.04	11.195
419.39	11.234
419.74	11.303
420.09	11.298
420.44	11.279
420.79	11.285
421.14	11.265
421.49	11.249
421.84	11.186
422.19	11.158
422.54	11.115
422.89	11.041
423.24	10.935
423.59	10.804
423.94	10.670
424.29	10.548
424.64	10.398
424.99	10.251
425.34	10.094
425.68	9.958
426.03	9.818
426.38	9.699
426.73	9.590
427.08	9.554
427.43	9.495
427.78	9.501
428.13	9.505
428.48	9.535
428.83	9.536
429.18	9.569
429.53	9.595
429.87	9.585
430.22	9.586
430.57	9.584
430.92	9.553
431.27	9.490
431.62	9.450
431.97	9.370
432.32	9.290
432.67	9.256
433.01	9.165
433.36	9.041
433.71	8.953
434.06	8.881
434.41	8.838
434.76	8.835
435.11	8.893
435.45	8.939
435.80	9.041
436.15	9.089
436.50	9.130
436.85	9.231
437.20	9.346
437.54	9.431
437.89	9.503
438.24	9.559
438.59	9.577
438.94	9.555
439.29	9.521
439.63	9.473
439.98	9.476
440.33	9.509
440.68	9.495
441.03	9.533
441.37	9.599
441.72	9.685
442.07	9.797
442.42	9.957
442.76	10.124
443.11	10.290
443.46	10.436
443.81	10.575
444.16	10.689
444.50	10.760
444.85	10.819
445.20	10.833
445.55	10.795
445.89	10.752
446.24	10.640
446.59	10.543
446.94	10.428
447.28	10.316
447.63	10.165
447.98	10.042
448.32	9.975
448.67	9.880
449.02	9.844
449.37	9.870
449.71	9.915
450.06	9.992
450.41	10.073
450.75	10.145
451.10	10.200
451.45	10.286
451.79	10.327
452.14	10.377
452.49	10.396
452.84	10.410
453.18	10.397
453.53	10.434
453.88	10.452
454.22	10.498
454.57	10.593
454.92	10.785
455.26	10.958
455.61	11.128
455.95	11.311
456.30	11.509
456.65	11.677
456.99	11.857
457.34	11.961
457.69	12.079
458.03	12.154
458.38	12.199
458.73	12.151
459.07	12.081
459.42	11.988
459.76	11.842
460.11	11.688
460.46	11.527
460.80	11.304
461.15	11.096
461.49	10.926
461.84	10.779
462.19	10.646
462.53	10.581
462.88	10.556
463.22	10.572
463.57	10.606
463.91	10.619
464.26	10.678
464.61	10.747
464.95	10.827
465.30	10.851
465.64	10.877
465.99	10.838
466.33	10.803
466.68	10.723
467.02	10.642
467.37	10.555
467.71	10.488
468.06	10.374
468.41	10.295
468.75	10.186
469.10	10.052
469.44	9.874
469.79	9.782
470.13	9.674
470.48	9.610
470.82	9.551
471.17	9.494
471.51	9.435
471.86	9.401
472.20	9.322
472.55	9.256
472.89	9.226
473.23	9.222
473.58	9.210
473.92	9.219
474.27	9.211
474.61	9.169
474.96	9.166
475.30	9.147
475.65	9.144
475.99	9.198
476.34	9.239
476.68	9.307
477.02	9.383
477.37	9.466
477.71	9.628
478.06	9.902
478.40	10.327
478.75	10.885
479.09	11.497
479.43	12.088
479.78	12.622
480.12	13.144
480.47	13.622
480.81	14.082
481.15	14.516
481.50	14.892
481.84	15.266
482.19	15.627
482.53	15.872
482.87	15.972
483.22	15.897
483.56	15.692
483.90	15.447
484.25	15.250
484.59	15.069
484.94	14.863
485.28	14.632
485.62	14.326
485.97	13.983
486.31	13.701
486.65	13.527
487.00	13.508
487.34	13.614
487.68	13.726
488.03	13.761
488.37	13.726
488.71	13.682
489.06	13.636
489.40	13.610
489.74	13.569
490.09	13.513
490.43	13.442
490.77	13.350
491.11	13.216
491.46	13.079
491.80	12.907
492.14	12.726
492.49	12.541
492.83	12.374
493.17	12.199
493.51	12.061
493.86	11.947
494.20	11.864
494.54	11.868
494.88	11.959
495.23	12.068
495.57	12.196
495.91	12.321
496.25	12.459
496.60	12.579
496.94	12.664
497.28	12.748
497.62	12.825
497.97	12.900
498.31	12.950
498.65	13.010
498.99	13.055
499.33	13.127
499.68	13.227
500.02	13.293
500.36	13.366
500.70	13.493
501.04	13.606
501.39	13.753
501.73	13.909
502.07	14.076
502.41	14.243
502.75	14.402
503.09	14.558
503.44	14.727
503.78	14.919
504.12	15.107
504.46	15.294
504.80	15.486
505.14	15.668
505.49	15.871
505.83	16.048
506.17	16.216
506.51	16.394
506.85	16.575
507.19	16.746
507.53	16.915
507.87	17.093
508.22	17.260
508.56	17.376
508.90	17.490
509.24	17.589
509.58	17.706
509.92	17.817
510.26	17.943
510.60	18.023
510.94	18.111
511.28	18.204
511.63	18.294
511.97	18.421
512.31	18.586
512.65	18.761
512.99	18.963
513.33	19.180
513.67	19.414
514.01	19.678
514.35	19.955
514.69	20.216
515.03	20.487
515.37	20.736
515.71	20.941
516.05	21.135
516.39	21.312
516.73	21.453
517.07	21.552
517.41	21.637
517.75	21.667
518.09	21.698
518.43	21.715
518.77	21.698
519.11	21.691
519.45	21.642
519.79	21.590
520.13	21.554
520.47	21.542
520.81	21.588
521.15	21.676
521.49	21.816
521.83	21.970
522.17	22.174
522.51	22.402
522.85	22.681
523.19	23.087
523.53	23.537
523.87	24.007
524.21	24.472
524.55	24.922
524.89	25.303
525.23	25.654
525.57	25.945
525.91	26.216
526.25	26.448
526.58	26.664
526.92	26.813
527.26	26.926
527.60	26.984
527.94	26.991
528.28	26.952
528.62	26.882
528.96	26.792
529.30	26.696
529.64	26.566
529.97	26.446
530.31	26.285
530.65	26.150
530.99	26.024
531.33	25.936
531.67	25.886
532.01	25.834
532.35	25.798
532.68	25.750
533.02	25.707
533.36	25.627
533.70	25.539
534.04	25.476
534.38	25.389
534.71	25.333
535.05	25.248
535.39	25.167
535.73	25.116
536.07	25.133
536.41	25.186
536.74	25.292
537.08	25.480
537.42	25.658
537.76	25.850
538.10	26.065
538.43	26.262
538.77	26.451
539.11	26.634
539.45	26.806
539.79	26.940
540.12	27.069
540.46	27.157
540.80	27.213
541.14	27.235
541.47	27.211
541.81	27.163
542.15	27.059
542.49	26.969
542.82	26.849
543.16	26.704
543.50	26.558
543.84	26.359
544.17	26.229
544.51	26.117
544.85	26.057
545.18	26.001
545.52	25.944
545.86	25.926
546.20	25.871
546.53	25.770
546.87	25.742
547.21	25.707
547.54	25.725
547.88	25.668
548.22	25.614
548.55	25.576
548.89	25.567
549.23	25.600
549.56	25.666
549.90	25.718
550.24	25.843
550.57	25.892
550.91	25.974
551.25	26.061
551.58	26.179
551.92	26.234
552.26	26.331
552.59	26.406
552.93	26.447
553.27	26.482
553.60	26.561
553.94	26.579
554.27	26.627
554.61	26.638
554.95	26.715
555.28	26.757
555.62	26.841
555.95	26.857
556.29	26.941
556.63	27.030
556.96	27.101
557.30	27.160
557.63	27.261
557.97	27.358
558.31	27.473
558.64	27.525
558.98	27.591
559.31	27.679
559.65	27.816
559.98	27.903
560.32	27.979
560.65	28.071
560.99	28.175
561.33	28.306
561.66	28.411
562.00	28.508
562.33	28.617
562.67	28.759
563.00	28.899
563.34	28.959
563.67	29.065
564.01	29.180
564.34	29.276
564.68	29.370
565.01	29.414
565.35	29.486
565.68	29.551
566.02	29.628
566.35	29.687
566.69	29.735
567.02	29.783
567.36	29.815
567.69	29.848
568.03	29.885
568.36	29.918
568.69	29.971
569.03	30.020
569.36	30.102
569.70	30.124
570.03	30.135
570.37	30.150
570.70	30.223
571.04	30.258
571.37	30.309
571.70	30.368
572.04	30.406
572.37	30.457
572.71	30.488
573.04	30.502
573.37	30.558
573.71	30.612
574.04	30.609
574.38	30.625
574.71	30.629
575.04	30.611
575.38	30.617
575.71	30.594
576.05	30.555
576.38	30.498
576.71	30.459
577.05	30.406
577.38	30.341
577.71	30.345
578.05	30.281
578.38	30.247
578.71	30.230
579.05	30.136
579.38	30.114
579.71	30.123
580.05	30.162
580.38	30.132
580.71	30.165
581.05	30.178
581.38	30.156
581.71	30.160
582.05	30.139
582.38	30.193
582.71	30.284
583.04	30.334
583.38	30.376
583.71	30.399
584.04	30.481
584.38	30.485
584.71	30.538
585.04	30.644
585.37	30.739
585.71	30.881
586.04	30.957
586.37	31.016
586.70	31.098
587.04	31.168
587.37	31.218
587.70	31.287
588.03	31.362
588.37	31.434
588.70	31.476
589.03	31.473
589.36	31.488
589.69	31.454
590.03	31.430
590.36	31.398
590.69	31.374
591.02	31.359
591.35	31.320
591.69	31.289
592.02	31.297
592.35	31.322
592.68	31.382
593.01	31.403
593.35	31.442
593.68	31.506
594.01	31.548
594.34	31.576
594.67	31.648
595.00	31.732
595.34	31.803
595.67	31.829
596.00	31.817
596.33	31.807
596.66	31.758
596.99	31.713
597.32	31.640
597.65	31.610
597.99	31.557
598.32	31.470
598.65	31.371
598.98	31.279
599.31	31.213
599.64	31.150
599.97	31.152
600.30	31.165
600.63	31.203
600.96	31.269
601.30	31.282
601.63	31.367
601.96	31.438
602.29	31.509
602.62	31.535
602.95	31.570
603.28	31.597
603.61	31.559
603.94	31.529
604.27	31.467
604.60	31.366
604.93	31.361
605.26	31.226
605.59	31.120
605.92	30.951
606.25	30.895
606.58	30.820
606.91	30.770
607.24	30.738
607.57	30.720
607.90	30.686
608.23	30.675
608.56	30.568
608.89	30.525
609.22	30.429
609.55	30.372
609.88	30.273
610.21	30.189
610.54	30.057
610.87	29.890
611.20	29.779
611.53	29.655
611.86	29.537
612.19	29.436
612.52	29.286
612.85	29.234
613.18	29.165
613.51	29.088
613.84	28.997
614.17	28.957
614.49	28.923
614.82	28.814
615.15	28.750
615.48	28.640
615.81	28.602
616.14	28.546
616.47	28.498
616.80	28.446
617.13	28.427
617.46	28.366
617.78	28.253
618.11	28.217
618.44	28.129
618.77	28.070
619.10	28.079
619.43	27.991
619.76	27.985
620.09	27.943
620.41	27.886
620.74	27.770
621.07	27.697
621.40	27.727
621.73	27.686
622.06	27.700
622.38	27.750
622.71	27.754
623.04	27.786
623.37	27.829
623.70	27.874
624.02	27.948
624.35	28.012
624.68	28.115
625.01	28.181
625.34	28.232
625.66	28.315
625.99	28.330
626.32	28.314
626.65	28.325
626.98	28.331
627.30	28.277
627.63	28.250
627.96	28.265
628.29	28.136
628.61	28.091
628.94	28.028
629.27	27.975
629.60	27.903
629.92	27.906
630.25	27.851
630.58	27.813
630.91	27.778
631.23	27.712
631.56	27.621
631.89	27.603
632.21	27.519
632.54	27.480
632.87	27.392
633.19	27.348
633.52	27.217
633.85	27.113
634.18	26.944
634.50	26.870
634.83	26.720
635.16	26.545
635.48	26.466
635.81	26.348
636.14	26.256
636.46	26.117
636.79	25.955
637.11	25.750
637.44	25.644
637.77	25.517
638.09	25.286
638.42	25.183
638.75	25.003
639.07	24.781
639.40	24.533
639.73	24.285
640.05	24.047
640.38	23.841
640.70	23.690
641.03	23.467
641.36	23.259
641.68	23.106
642.01	22.853
642.33	22.757
642.66	22.562
642.98	22.446
643.31	22.324
643.64	22.183
643.96	22.047
644.29	21.935
644.61	21.773
644.94	21.684
645.26	21.528
645.59	21.472
645.91	21.300
646.24	21.231
646.56	21.092
646.89	20.923
647.22	20.798
647.54	20.728
647.87	20.628
648.19	20.534
648.52	20.429
648.84	20.344
649.17	20.231
649.49	20.186
649.82	20.018
650.14	19.940
650.47	19.907
650.79	19.887
651.11	19.762
651.44	19.662
651.76	19.598
652.09	19.487
652.41	19.448
652.74	19.362
653.06	19.296
653.39	19.333
653.71	19.347
654.04	19.362
654.36	19.295
654.68	19.297
655.01	19.249
655.33	19.219
655.66	19.232
655.98	19.171
656.30	19.121
656.63	19.054
656.95	18.923
657.28	18.753
657.60	18.597
657.92	18.480
658.25	18.340
658.57	18.203
658.90	18.017
659.22	17.791
659.54	17.611
659.87	17.395
660.19	17.188
660.51	16.926
660.84	16.717
661.16	16.489
661.48	16.285
661.81	15.973
662.13	15.804
662.45	15.621
662.78	15.484
663.10	15.340
663.42	15.244
663.75	15.088
664.07	15.076
664.39	15.067
664.72	14.925
665.04	14.875
665.36	14.908
665.69	14.821
666.01	14.771
666.33	14.776
666.65	14.700
666.98	14.695
667.30	14.700
667.62	14.689
667.94	14.626
668.27	14.671
668.59	14.643
668.91	14.649
669.23	14.699
669.56	14.785
669.88	14.863
670.20	14.981
670.52	15.016
670.85	15.106
671.17	15.186
671.49	15.266
671.81	15.387
672.13	15.506
672.46	15.651
672.78	15.813
673.10	15.884
673.42	15.936
673.74	16.066
674.07	16.238
674.39	16.404
674.71	16.545
675.03	16.698
675.35	16.935
675.67	17.067
676.00	17.223
676.32	17.426
676.64	17.698
676.96	17.956
677.28	18.139
677.60	18.367
677.92	18.643
678.25	18.900
678.57	19.179
678.89	19.386
679.21	19.757
679.53	20.029
679.85	20.343
680.17	20.656
680.49	21.081
680.81	21.529
681.13	21.906
681.46	22.287
681.78	22.712
682.10	23.179
682.42	23.672
682.74	24.191
683.06	24.765
683.38	25.255
683.70	25.789
684.02	26.190
684.34	26.718
684.66	27.286
684.98	27.790
685.30	28.373
685.62	28.892
685.94	29.460
686.26	29.890
686.58	30.362
686.90	30.915
687.22	31.362
687.54	31.882
687.86	32.277
688.18	32.724
688.50	33.255
688.82	33.711
689.14	34.236
689.46	34.707
689.78	35.254
690.10	35.687
690.42	36.163
690.74	36.701
691.06	37.276
691.38	37.879
691.70	38.469
692.02	38.996
692.34	39.496
692.66	40.014
692.98	40.394
693.30	40.853
693.62	41.368
693.94	41.814
694.26	42.265
694.57	42.602
694.89	42.982
695.21	43.266
695.53	43.593
695.85	43.958
696.17	44.223
696.49	44.624
696.81	44.905
697.13	45.271
697.44	45.568
697.76	45.898
698.08	46.259
698.40	46.664
698.72	47.022
699.04	47.447
699.36	47.893
699.67	48.355
699.99	48.775
700.31	49.233
700.63	49.582
700.95	50.017
701.27	50.398
701.58	50.782
701.90	50.851
702.22	51.194
702.54	51.384
702.86	51.546
703.17	51.790
703.49	52.058
703.81	52.253
704.13	52.521
704.45	52.718
704.76	52.925
705.08	53.101
705.40	53.353
705.72	53.459
706.03	53.614
706.35	53.748
706.67	53.914
706.99	53.990
707.30	54.166
707.62	54.404
707.94	54.632
708.26	54.730
708.57	54.737
708.89	55.010
709.21	55.337
709.53	55.506
709.84	55.716
710.16	55.863
710.48	56.057
710.79	56.164
711.11	56.238
711.43	56.353
711.74	56.617
712.06	56.952
712.38	57.138
712.69	57.169
713.01	57.436
713.33	57.625
713.64	57.908
713.96	58.122
714.28	58.506
714.59	58.942
714.91	59.114
715.23	59.368
715.54	59.655
715.86	59.901
716.17	60.135
716.49	60.266
716.81	60.509
717.12	60.486
717.44	60.718
717.76	60.811
718.07	60.822
718.39	60.984
718.70	61.029
719.02	61.048
719.33	60.926
719.65	61.067
719.97	61.283
720.28	61.304
720.60	61.374
720.91	61.372
721.23	61.340
721.54	61.379
721.86	61.431
722.17	61.514
722.49	61.504
722.81	61.735
723.12	61.782
723.44	61.723
723.75	61.790
724.07	62.000
724.38	61.864
724.70	61.993
725.01	61.883
725.33	61.921
725.64	61.793
725.96	61.914
726.27	61.922
726.59	61.879
726.90	61.963
727.22	62.042
727.53	62.026
727.84	62.221
728.16	62.194
728.47	62.339
728.79	62.450
729.10	62.511
729.42	62.458
729.73	62.404
730.05	62.539
730.36	62.400
730.67	62.208
730.99	62.053
731.30	61.921
731.62	62.029
731.93	61.935
732.24	61.793
732.56	61.777
732.87	61.649
733.19	61.733
733.50	61.558
733.81	61.657
734.13	61.771
734.44	61.881
734.76	61.964
735.07	61.862
735.38	61.901
735.70	61.875
736.01	61.823
736.32	61.704
736.64	61.621
736.95	61.597
737.26	61.368
737.58	61.250
737.89	61.211
738.20	61.024
738.52	60.877
738.83	60.729
739.14	60.813
739.45	60.768
739.77	60.839
740.08	60.793
740.39	60.814
740.71	61.189
741.02	61.139
741.33	61.100
741.64	61.081
741.96	61.085
742.27	61.080
742.58	60.693
742.90	60.609
743.21	60.518
743.52	60.248
743.83	60.087
744.14	59.581
744.46	59.613
744.77	59.493
745.08	59.374
745.39	59.207
745.71	59.010
746.02	59.116
746.33	59.156
746.64	59.246
746.95	59.248
747.27	59.294
747.58	59.389
747.89	59.367
748.20	59.326
748.51	59.475
748.82	59.327
749.14	59.379
749.45	59.382
749.76	59.348
750.07	59.232
750.38	59.128
750.69	59.046
751.01	58.858
751.32	58.822
751.63	58.586
751.94	58.424
752.25	58.595
752.56	58.468
752.87	58.218
753.18	58.052
753.49	57.950
753.81	58.036
754.12	58.173
754.43	58.345
754.74	58.283
755.05	58.604
755.36	58.839
755.67	59.042
755.98	59.504
756.29	60.058
756.60	60.517
756.91	61.013
757.22	61.432
757.53	61.785
757.84	62.196
758.15	62.546
758.46	62.892
758.77	63.188
759.09	63.579
759.40	63.790
759.71	63.839
760.02	63.750
760.33	63.778
760.64	63.798
760.95	63.626
761.26	63.622
761.57	63.577
761.88	63.375
762.18	63.243
762.49	62.967
762.80	62.779
763.11	62.628
763.42	62.700
763.73	62.430
764.04	62.128
764.35	61.888
764.66	61.366
764.97	61.083
765.28	60.638
765.59	60.179
765.90	59.807
766.21	59.147
766.52	58.638
766.83	57.826
767.14	57.252
767.44	56.886
767.75	56.422
768.06	56.105
768.37	55.337
768.68	55.089
768.99	55.047
769.30	54.571
769.61	54.272
769.91	53.842
770.22	53.537
770.53	53.412
770.84	52.939
771.15	52.903
771.46	52.848
771.77	52.785
772.07	52.775
772.38	52.232
772.69	52.058
773.00	52.199
773.31	52.234
773.61	52.203
773.92	52.062
774.23	52.007
774.54	51.698
774.85	51.505
775.15	51.757
775.46	51.748
775.77	51.921
776.08	51.774
776.39	51.441
776.69	51.402
777.00	51.386
777.31	51.110
777.62	51.137
777.92	51.014
778.23	51.066
778.54	50.734
778.85	50.661
779.15	50.261
779.46	50.649
779.77	50.641
780.07	50.663
780.38	50.692
780.69	51.073
781.00	50.876
781.30	51.345
781.61	51.101
781.92	51.436
782.22	51.385
782.53	51.450
782.84	51.002
783.14	51.313
783.45	51.462
783.76	51.393
784.06	51.802
784.37	52.137
784.68	52.140
784.98	52.586
785.29	52.504
785.60	52.455
785.90	52.767
786.21	53.330
786.51	53.558
786.82	53.589
787.13	53.967
787.43	53.932
787.74	54.562
788.04	54.589
788.35	54.731
788.66	54.917
788.96	55.355
789.27	55.297
789.57	55.174
789.88	54.974
790.19	55.013
790.49	54.913
790.80	54.730
791.10	54.202
791.41	54.217
791.71	54.078
792.02	53.849
792.32	53.296
792.63	53.183
792.93	53.151
793.24	53.239
793.54	52.817
793.85	52.923
794.15	53.021
794.46	53.197
794.76	53.307
795.07	53.471
795.37	54.002
795.68	54.561
795.98	54.704
796.29	55.016
796.59	54.970
796.90	55.435
797.20	55.195
797.51	54.983
797.81	54.440
798.12	54.292
798.42	54.187
798.72	53.603
799.03	53.384
799.33	53.464
799.64	52.915
799.94	52.786
800.25	52.793
800.55	52.559
800.85	52.707
801.16	53.156
801.46	53.193
801.77	52.976
802.07	52.989
802.37	52.759
802.68	53.039
802.98	53.262
803.28	53.293
803.59	53.234
803.89	53.666
804.20	53.711
804.50	53.877
804.80	53.668
805.11	53.859
805.41	54.352
805.71	54.568
806.02	54.127
806.32	54.351
806.62	54.503
806.93	54.515
807.23	54.404
807.53	54.362
807.83	54.110
808.14	54.478
808.44	54.324
808.74	53.796
809.05	53.924
809.35	54.438
809.65	54.427
809.95	54.676
810.26	54.659
810.56	55.026
810.86	55.787
811.16	55.983
811.47	56.468
811.77	57.330
812.07	57.591
812.37	57.621
812.68	57.739
812.98	57.961
813.28	57.867
813.58	58.122
813.88	58.293
814.19	57.730
814.49	57.974
814.79	57.563
815.09	57.748
815.39	58.350
815.70	58.101
816.00	58.247
816.30	58.591
816.60	58.724
816.90	59.094
817.20	59.415
817.50	59.720
817.81	59.889
818.11	60.306
818.41	60.480
818.71	60.690
819.01	61.310
819.31	61.511
819.61	61.662
819.92	61.833
820.22	62.167
820.52	62.361
820.82	62.745
821.12	63.084
821.42	63.344
821.72	63.696
822.02	64.029
822.32	64.243
822.62	64.592
822.92	64.993
823.22	65.353
823.52	65.455
823.83	65.587
824.13	65.644
824.43	65.673
824.73	65.719
825.03	65.558
825.33	65.365
825.63	65.156
825.93	64.890
826.23	64.611
826.53	64.434
826.83	64.427
827.13	64.548
827.43	64.397
827.73	64.499
828.03	64.498
828.33	64.492
828.63	64.537
828.93	64.490
829.23	64.143
829.53	63.539
829.83	63.178
830.13	62.669
830.42	62.215
830.72	62.037
831.02	61.644
831.32	61.415
831.62	61.245
831.92	61.262
832.22	61.475
832.52	61.714
832.82	62.040
833.12	62.099
833.42	62.338
833.72	62.320
834.01	62.382
834.31	62.157
834.61	62.179
834.91	62.204
835.21	61.991
835.51	61.992
835.81	61.622
836.11	60.834
836.40	60.664
836.70	59.730
837.00	59.231
837.30	58.729
837.60	58.643
837.90	58.566
838.19	57.443
838.49	57.665
838.79	56.609
839.09	56.653
839.39	57.238
839.68	56.813
839.98	56.981
840.28	56.748
840.58	56.366
840.88	56.233
841.17	56.038
841.47	56.114
841.77	55.488
842.07	55.509
842.36	54.654
842.66	53.325
842.96	52.695
843.26	52.013
843.55	52.841
843.85	52.337
844.15	52.538
844.45	50.262
844.74	49.614
845.04	49.021
845.34	48.670
845.63	48.379
845.93	48.513
846.23	47.783
846.53	48.228
846.82	46.635
847.12	46.327
847.42	46.480
847.71	48.000
848.01	48.753
848.31	47.869
848.60	48.037
848.90	48.631
849.19	48.172
849.49	48.682
849.79	46.838
850.08	48.201
850.38	48.380
850.68	47.251
850.97	46.966
851.27	46.265
851.56	48.345
851.86	48.164
852.16	48.707
852.45	49.326
852.75	47.813
853.04	50.276
853.34	48.638
853.64	50.317
853.93	49.299
854.23	50.975
854.52	51.874
854.82	50.180
855.11	49.993
855.41	49.104
855.70	49.133
856.00	50.181
856.30	49.272
856.59	49.424
856.89	47.673
857.18	49.235
857.48	47.635
857.77	48.852
858.07	48.368
858.36	48.556
858.66	49.452
858.95	49.160
859.25	49.733
859.54	49.596
859.84	49.474
860.13	49.346
860.42	50.028
860.72	49.967
861.01	48.208
861.31	49.307
861.60	48.486
861.90	48.486
862.19	48.681
862.49	50.228
862.78	49.479
863.07	50.547
863.37	52.861
863.66	52.512
863.96	50.959
864.25	51.499
864.54	51.853
864.84	51.726
865.13	51.674
865.43	51.955
865.72	49.030
866.01	58.472
866.31	40.954
866.60	50.855
866.89	49.297
>>>>>End Spectral Data<<<<<
