OOIBase32 Version 2.0.0.6 Data File
++++++++++++++++++++++++++++++++++++
Date: 01-23-2012, 23:04:17
User: Valued Ocean Optics Customer
Spectrometer Serial Number: USB2E2917
Spectrometer Channel: Master
Integration Time (msec): 5
Spectra Averaged: 10
Boxcar Smoothing: 5
Correct for Electrical Dark: Enabled
Time Normalized: Disabled
Dual-beam Reference: Disabled
Reference Channel: Master
Temperature: Not acquired
Spectrometer Type: S2000
ADC Type: USB2000
Number of Pixels in File: 2048
Graph Title: 
>>>>>Begin Spectral Data<<<<<
180.30	0.000
180.67	0.000
181.03	-23.813
181.40	-54.015
181.77	3316.208
182.14	89.897
182.51	141.593
182.88	124.044
183.25	67.236
183.62	52.642
183.99	238.575
184.36	-51.267
184.73	68.988
185.10	31.096
185.46	-332.006
185.83	-596.540
186.20	-34.356
186.57	200.327
186.94	152.638
187.31	18.962
187.68	29.815
188.05	85.164
188.42	87.519
188.78	243.972
189.15	826.444
189.52	-240.903
189.89	-88.685
190.26	-50.145
190.63	-12.917
191.00	1.264
191.37	6.039
191.73	24.983
192.10	21.358
192.47	21.277
192.84	25.629
193.21	31.674
193.58	30.990
193.94	30.645
194.31	23.161
194.68	17.912
195.05	7.878
195.42	25.742
195.79	34.276
196.15	47.770
196.52	35.821
196.89	35.213
197.26	7.134
197.63	13.925
198.00	21.973
198.36	15.368
198.73	-22.746
199.10	-11.099
199.47	-25.109
199.84	-46.797
200.20	-64.355
200.57	-52.753
200.94	-47.092
201.31	-39.782
201.68	-55.243
202.04	-58.308
202.41	-49.710
202.78	-33.504
203.15	-35.323
203.51	-35.607
203.88	-44.624
204.25	-38.993
204.62	-55.642
204.98	-61.833
205.35	-67.338
205.72	-55.890
206.09	-49.042
206.46	-114.546
206.82	-104.597
207.19	-109.947
207.56	-178.065
207.92	-139.445
208.29	-126.710
208.66	-82.322
209.03	-83.494
209.39	-54.529
209.76	-47.843
210.13	-84.368
210.50	-42.200
210.86	-22.483
211.23	-14.315
211.60	12.092
211.96	14.668
212.33	20.860
212.70	24.328
213.07	34.299
213.43	3.885
213.80	-14.007
214.17	0.301
214.53	-0.237
214.90	-7.722
215.27	-13.919
215.63	-19.201
216.00	-15.896
216.37	-27.361
216.74	-35.611
217.10	-30.112
217.47	-19.551
217.84	-9.909
218.20	-13.612
218.57	-11.816
218.94	-10.091
219.30	-7.496
219.67	-7.350
220.04	-9.422
220.40	-12.851
220.77	-17.695
221.13	-20.611
221.50	-17.793
221.87	-18.153
222.23	-17.754
222.60	-17.979
222.97	-16.701
223.33	-16.806
223.70	-15.303
224.07	-14.561
224.43	-8.424
224.80	-1.171
225.16	-2.184
225.53	-0.624
225.90	-3.788
226.26	-1.423
226.63	-0.880
226.99	-0.515
227.36	0.660
227.73	2.981
228.09	2.755
228.46	4.277
228.82	4.742
229.19	6.135
229.56	5.223
229.92	6.664
230.29	6.537
230.65	7.175
231.02	6.792
231.38	5.433
231.75	3.403
232.12	1.581
232.48	-1.405
232.85	-3.131
233.21	-3.730
233.58	-5.474
233.94	-4.965
234.31	-6.173
234.68	-4.970
235.04	-4.106
235.41	-2.125
235.77	-1.916
236.14	0.921
236.50	2.891
236.87	2.936
237.23	3.367
237.60	4.298
237.96	3.290
238.33	2.875
238.69	2.029
239.06	2.287
239.42	1.487
239.79	0.958
240.15	-0.253
240.52	-0.343
240.88	0.081
241.25	0.158
241.61	0.761
241.98	1.164
242.34	1.545
242.71	1.641
243.07	1.499
243.44	1.739
243.80	1.805
244.17	2.295
244.53	2.185
244.90	1.957
245.26	1.856
245.63	1.477
245.99	1.385
246.36	1.248
246.72	1.438
247.09	1.072
247.45	1.152
247.81	1.565
248.18	1.419
248.54	1.580
248.91	1.633
249.27	1.632
249.64	2.075
250.00	2.209
250.36	2.704
250.73	2.580
251.09	3.182
251.46	3.231
251.82	2.702
252.19	2.476
252.55	1.646
252.91	1.203
253.28	1.275
253.64	0.564
254.01	0.634
254.37	0.182
254.73	0.680
255.10	0.998
255.46	1.420
255.83	1.746
256.19	2.026
256.55	2.019
256.92	2.303
257.28	2.220
257.65	2.565
258.01	2.694
258.37	2.669
258.74	2.285
259.10	1.989
259.46	1.794
259.83	1.697
260.19	1.639
260.55	1.788
260.92	1.579
261.28	1.585
261.64	1.424
262.01	1.161
262.37	1.153
262.73	1.385
263.10	1.748
263.46	1.756
263.82	1.751
264.19	1.952
264.55	1.593
264.91	1.749
265.28	1.829
265.64	1.887
266.00	1.777
266.37	1.787
266.73	1.715
267.09	1.801
267.46	1.743
267.82	1.525
268.18	1.440
268.54	1.842
268.91	1.806
269.27	1.784
269.63	1.801
270.00	2.177
270.36	2.286
270.72	2.553
271.08	2.479
271.45	2.385
271.81	2.442
272.17	2.326
272.53	2.204
272.90	2.308
273.26	2.385
273.62	2.193
273.98	1.927
274.35	1.710
274.71	1.686
275.07	1.664
275.43	1.969
275.80	2.104
276.16	2.085
276.52	2.074
276.88	1.859
277.25	1.596
277.61	1.614
277.97	1.552
278.33	1.745
278.69	1.331
279.06	1.282
279.42	1.168
279.78	1.255
280.14	1.467
280.50	1.684
280.87	1.938
281.23	2.201
281.59	2.116
281.95	2.196
282.31	2.306
282.68	2.416
283.04	2.398
283.40	2.383
283.76	2.414
284.12	2.380
284.48	2.413
284.85	2.279
285.21	2.145
285.57	2.278
285.93	2.152
286.29	1.715
286.65	1.857
287.02	2.183
287.38	2.029
287.74	1.972
288.10	2.017
288.46	1.901
288.82	1.916
289.18	1.980
289.54	1.923
289.91	2.110
290.27	2.587
290.63	2.520
290.99	2.233
291.35	2.432
291.71	2.484
292.07	2.439
292.43	2.395
292.79	2.458
293.16	2.433
293.52	2.618
293.88	2.655
294.24	2.685
294.60	2.677
294.96	2.694
295.32	2.657
295.68	2.561
296.04	2.594
296.40	2.737
296.76	2.727
297.12	2.632
297.49	2.443
297.85	2.204
298.21	1.931
298.57	1.764
298.93	1.764
299.29	1.579
299.65	1.697
300.01	1.656
300.37	1.551
300.73	1.656
301.09	1.948
301.45	2.130
301.81	2.488
302.17	2.703
302.53	2.725
302.89	2.600
303.25	2.738
303.61	2.611
303.97	2.440
304.33	2.451
304.69	2.386
305.05	2.140
305.41	1.936
305.77	1.711
306.13	1.569
306.49	1.614
306.85	1.716
307.21	1.795
307.57	1.827
307.93	1.903
308.29	2.002
308.65	2.007
309.01	2.053
309.37	2.115
309.73	2.146
310.09	2.348
310.45	2.434
310.81	2.369
311.17	2.307
311.53	2.315
311.89	2.371
312.25	2.252
312.61	2.159
312.96	2.210
313.32	2.294
313.68	2.260
314.04	2.167
314.40	2.113
314.76	2.126
315.12	2.147
315.48	2.164
315.84	2.182
316.20	2.268
316.56	2.288
316.92	2.299
317.27	2.151
317.63	2.158
317.99	1.981
318.35	1.965
318.71	2.112
319.07	2.250
319.43	2.316
319.79	2.361
320.15	2.262
320.50	2.290
320.86	2.247
321.22	2.276
321.58	2.244
321.94	2.238
322.30	2.227
322.66	2.153
323.01	1.983
323.37	1.877
323.73	1.711
324.09	1.647
324.45	1.688
324.81	1.559
325.17	1.634
325.52	1.626
325.88	1.737
326.24	1.792
326.60	1.780
326.96	1.867
327.31	1.853
327.67	1.851
328.03	1.856
328.39	1.706
328.75	1.834
329.11	1.843
329.46	1.831
329.82	1.796
330.18	1.723
330.54	1.632
330.90	1.477
331.25	1.431
331.61	1.547
331.97	1.550
332.33	1.650
332.68	1.650
333.04	1.710
333.40	1.650
333.76	1.611
334.11	1.679
334.47	1.764
334.83	1.821
335.19	1.856
335.54	1.860
335.90	1.866
336.26	1.893
336.62	1.813
336.97	1.637
337.33	1.599
337.69	1.701
338.05	1.571
338.40	1.501
338.76	1.506
339.12	1.571
339.48	1.511
339.83	1.511
340.19	1.468
340.55	1.484
340.90	1.492
341.26	1.579
341.62	1.430
341.97	1.479
342.33	1.525
342.69	1.586
343.04	1.543
343.40	1.479
343.76	1.449
344.12	1.448
344.47	1.503
344.83	1.550
345.19	1.535
345.54	1.636
345.90	1.689
346.26	1.706
346.61	1.658
346.97	1.665
347.32	1.732
347.68	1.783
348.04	1.726
348.39	1.624
348.75	1.645
349.11	1.604
349.46	1.503
349.82	1.474
350.18	1.420
350.53	1.412
350.89	1.369
351.24	1.319
351.60	1.329
351.96	1.414
352.31	1.485
352.67	1.454
353.02	1.485
353.38	1.555
353.74	1.539
354.09	1.542
354.45	1.580
354.80	1.599
355.16	1.630
355.52	1.597
355.87	1.555
356.23	1.524
356.58	1.503
356.94	1.510
357.29	1.536
357.65	1.531
358.00	1.506
358.36	1.484
358.72	1.510
359.07	1.514
359.43	1.557
359.78	1.618
360.14	1.658
360.49	1.639
360.85	1.647
361.20	1.597
361.56	1.594
361.91	1.620
362.27	1.625
362.62	1.633
362.98	1.657
363.33	1.613
363.69	1.544
364.04	1.563
364.40	1.614
364.75	1.574
365.11	1.565
365.46	1.536
365.82	1.532
366.17	1.510
366.53	1.497
366.88	1.476
367.24	1.536
367.59	1.554
367.95	1.506
368.30	1.484
368.66	1.463
369.01	1.451
369.37	1.465
369.72	1.509
370.08	1.554
370.43	1.571
370.78	1.580
371.14	1.493
371.49	1.475
371.85	1.479
372.20	1.532
372.56	1.573
372.91	1.620
373.26	1.644
373.62	1.590
373.97	1.572
374.33	1.544
374.68	1.547
375.03	1.587
375.39	1.591
375.74	1.590
376.10	1.540
376.45	1.563
376.80	1.587
377.16	1.583
377.51	1.607
377.87	1.641
378.22	1.615
378.57	1.630
378.93	1.674
379.28	1.703
379.63	1.720
379.99	1.746
380.34	1.760
380.70	1.740
381.05	1.780
381.40	1.757
381.76	1.745
382.11	1.758
382.46	1.746
382.82	1.738
383.17	1.740
383.52	1.720
383.88	1.695
384.23	1.747
384.58	1.726
384.94	1.678
385.29	1.721
385.64	1.719
385.99	1.767
386.35	1.774
386.70	1.766
387.05	1.750
387.41	1.753
387.76	1.758
388.11	1.687
388.47	1.682
388.82	1.726
389.17	1.722
389.52	1.701
389.88	1.682
390.23	1.675
390.58	1.696
390.93	1.709
391.29	1.731
391.64	1.756
391.99	1.795
392.34	1.835
392.70	1.843
393.05	1.829
393.40	1.845
393.75	1.825
394.11	1.835
394.46	1.812
394.81	1.809
395.16	1.748
395.52	1.707
395.87	1.667
396.22	1.651
396.57	1.590
396.92	1.550
397.28	1.531
397.63	1.526
397.98	1.505
398.33	1.482
398.68	1.458
399.04	1.483
399.39	1.474
399.74	1.487
400.09	1.483
400.44	1.506
400.80	1.564
401.15	1.545
401.50	1.553
401.85	1.558
402.20	1.536
402.55	1.552
402.90	1.550
403.26	1.585
403.61	1.579
403.96	1.556
404.31	1.538
404.66	1.507
405.01	1.499
405.36	1.493
405.72	1.489
406.07	1.508
406.42	1.483
406.77	1.482
407.12	1.436
407.47	1.436
407.82	1.454
408.17	1.450
408.53	1.450
408.88	1.457
409.23	1.458
409.58	1.407
409.93	1.422
410.28	1.426
410.63	1.412
410.98	1.437
411.33	1.416
411.68	1.428
412.03	1.457
412.38	1.435
412.73	1.486
413.09	1.508
413.44	1.560
413.79	1.589
414.14	1.621
414.49	1.681
414.84	1.709
415.19	1.750
415.54	1.781
415.89	1.800
416.24	1.854
416.59	1.857
416.94	1.882
417.29	1.915
417.64	1.905
417.99	1.925
418.34	1.922
418.69	1.948
419.04	1.947
419.39	1.946
419.74	1.959
420.09	1.968
420.44	1.976
420.79	1.976
421.14	1.982
421.49	1.995
421.84	1.990
422.19	2.002
422.54	1.984
422.89	1.992
423.24	1.992
423.59	1.971
423.94	1.944
424.29	1.944
424.64	1.935
424.99	1.905
425.34	1.876
425.68	1.861
426.03	1.822
426.38	1.792
426.73	1.779
427.08	1.768
427.43	1.774
427.78	1.796
428.13	1.772
428.48	1.768
428.83	1.790
429.18	1.811
429.53	1.820
429.87	1.822
430.22	1.834
430.57	1.849
430.92	1.834
431.27	1.851
431.62	1.830
431.97	1.848
432.32	1.838
432.67	1.814
433.01	1.782
433.36	1.767
433.71	1.774
434.06	1.756
434.41	1.730
434.76	1.737
435.11	1.714
435.45	1.729
435.80	1.723
436.15	1.746
436.50	1.771
436.85	1.807
437.20	1.807
437.54	1.801
437.89	1.821
438.24	1.830
438.59	1.838
438.94	1.843
439.29	1.823
439.63	1.822
439.98	1.803
440.33	1.775
440.68	1.768
441.03	1.782
441.37	1.816
441.72	1.814
442.07	1.806
442.42	1.812
442.76	1.833
443.11	1.858
443.46	1.861
443.81	1.883
444.16	1.910
444.50	1.913
444.85	1.903
445.20	1.877
445.55	1.878
445.89	1.878
446.24	1.860
446.59	1.822
446.94	1.807
447.28	1.786
447.63	1.760
447.98	1.731
448.32	1.706
448.67	1.688
449.02	1.660
449.37	1.624
449.71	1.632
450.06	1.623
450.41	1.630
450.75	1.623
451.10	1.622
451.45	1.600
451.79	1.577
452.14	1.573
452.49	1.572
452.84	1.580
453.18	1.598
453.53	1.576
453.88	1.577
454.22	1.573
454.57	1.579
454.92	1.589
455.26	1.623
455.61	1.662
455.95	1.692
456.30	1.709
456.65	1.733
456.99	1.756
457.34	1.787
457.69	1.806
458.03	1.823
458.38	1.826
458.73	1.830
459.07	1.817
459.42	1.791
459.76	1.771
460.11	1.755
460.46	1.727
460.80	1.688
461.15	1.643
461.49	1.612
461.84	1.584
462.19	1.564
462.53	1.542
462.88	1.545
463.22	1.544
463.57	1.529
463.91	1.522
464.26	1.526
464.61	1.526
464.95	1.523
465.30	1.525
465.64	1.535
465.99	1.541
466.33	1.549
466.68	1.539
467.02	1.552
467.37	1.558
467.71	1.546
468.06	1.545
468.41	1.540
468.75	1.538
469.10	1.534
469.44	1.519
469.79	1.486
470.13	1.450
470.48	1.438
470.82	1.417
471.17	1.421
471.51	1.405
471.86	1.402
472.20	1.396
472.55	1.393
472.89	1.384
473.23	1.371
473.58	1.386
473.92	1.395
474.27	1.387
474.61	1.371
474.96	1.369
475.30	1.389
475.65	1.369
475.99	1.363
476.34	1.377
476.68	1.374
477.02	1.389
477.37	1.394
477.71	1.436
478.06	1.472
478.40	1.559
478.75	1.630
479.09	1.716
479.43	1.814
479.78	1.917
480.12	2.003
480.47	2.100
480.81	2.188
481.15	2.270
481.50	2.344
481.84	2.429
482.19	2.491
482.53	2.550
482.87	2.593
483.22	2.596
483.56	2.567
483.90	2.522
484.25	2.457
484.59	2.390
484.94	2.330
485.28	2.272
485.62	2.202
485.97	2.133
486.31	2.069
486.65	2.014
487.00	1.993
487.34	1.987
487.68	1.991
488.03	1.997
488.37	1.998
488.71	1.995
489.06	1.978
489.40	1.974
489.74	1.960
490.09	1.948
490.43	1.914
490.77	1.885
491.11	1.845
491.46	1.809
491.80	1.785
492.14	1.745
492.49	1.719
492.83	1.675
493.17	1.613
493.51	1.562
493.86	1.521
494.20	1.503
494.54	1.478
494.88	1.487
495.23	1.487
495.57	1.488
495.91	1.506
496.25	1.501
496.60	1.501
496.94	1.504
497.28	1.506
497.62	1.496
497.97	1.484
498.31	1.482
498.65	1.465
498.99	1.453
499.33	1.455
499.68	1.455
500.02	1.455
500.36	1.465
500.70	1.463
501.04	1.456
501.39	1.455
501.73	1.467
502.07	1.493
502.41	1.509
502.75	1.537
503.09	1.535
503.44	1.541
503.78	1.556
504.12	1.574
504.46	1.608
504.80	1.641
505.14	1.678
505.49	1.717
505.83	1.723
506.17	1.755
506.51	1.775
506.85	1.805
507.19	1.837
507.53	1.864
507.87	1.886
508.22	1.897
508.56	1.924
508.90	1.922
509.24	1.934
509.58	1.945
509.92	1.962
510.26	1.979
510.60	1.987
510.94	1.991
511.28	2.006
511.63	2.027
511.97	2.050
512.31	2.072
512.65	2.126
512.99	2.166
513.33	2.239
513.67	2.287
514.01	2.354
514.35	2.429
514.69	2.522
515.03	2.584
515.37	2.668
515.71	2.739
516.05	2.801
516.39	2.848
516.73	2.892
517.07	2.924
517.41	2.956
517.75	2.973
518.09	3.004
518.43	3.006
518.77	3.018
519.11	3.013
519.45	3.021
519.79	3.046
520.13	3.068
520.47	3.118
520.81	3.162
521.15	3.241
521.49	3.313
521.83	3.381
522.17	3.457
522.51	3.544
522.85	3.660
523.19	3.799
523.53	3.946
523.87	4.111
524.21	4.237
524.55	4.374
524.89	4.482
525.23	4.595
525.57	4.690
525.91	4.787
526.25	4.876
526.58	4.952
526.92	5.003
527.26	5.041
527.60	5.059
527.94	5.085
528.28	5.086
528.62	5.100
528.96	5.098
529.30	5.105
529.64	5.102
529.97	5.107
530.31	5.105
530.65	5.114
530.99	5.115
531.33	5.134
531.67	5.140
532.01	5.177
532.35	5.186
532.68	5.199
533.02	5.204
533.36	5.215
533.70	5.205
534.04	5.201
534.38	5.196
534.71	5.207
535.05	5.198
535.39	5.208
535.73	5.205
536.07	5.233
536.41	5.266
536.74	5.303
537.08	5.342
537.42	5.417
537.76	5.474
538.10	5.546
538.43	5.601
538.77	5.665
539.11	5.726
539.45	5.775
539.79	5.807
540.12	5.847
540.46	5.860
540.80	5.871
541.14	5.855
541.47	5.834
541.81	5.815
542.15	5.791
542.49	5.759
542.82	5.725
543.16	5.687
543.50	5.669
543.84	5.631
544.17	5.618
544.51	5.599
544.85	5.594
545.18	5.602
545.52	5.580
545.86	5.571
546.20	5.575
546.53	5.558
546.87	5.544
547.21	5.504
547.54	5.478
547.88	5.458
548.22	5.434
548.55	5.424
548.89	5.399
549.23	5.405
549.56	5.417
549.90	5.432
550.24	5.446
550.57	5.459
550.91	5.454
551.25	5.471
551.58	5.453
551.92	5.454
552.26	5.427
552.59	5.421
552.93	5.421
553.27	5.413
553.60	5.381
553.94	5.351
554.27	5.328
554.61	5.334
554.95	5.322
555.28	5.340
555.62	5.337
555.95	5.348
556.29	5.354
556.63	5.321
556.96	5.302
557.30	5.289
557.63	5.262
557.97	5.237
558.31	5.213
558.64	5.176
558.98	5.155
559.31	5.150
559.65	5.133
559.98	5.109
560.32	5.095
560.65	5.074
560.99	5.051
561.33	5.046
561.66	5.052
562.00	5.049
562.33	5.054
562.67	5.057
563.00	5.040
563.34	5.042
563.67	5.036
564.01	5.027
564.34	5.015
564.68	5.003
565.01	4.982
565.35	4.955
565.68	4.930
566.02	4.904
566.35	4.860
566.69	4.827
567.02	4.802
567.36	4.765
567.69	4.747
568.03	4.725
568.36	4.693
568.69	4.663
569.03	4.645
569.36	4.624
569.70	4.597
570.03	4.599
570.37	4.584
570.70	4.562
571.04	4.537
571.37	4.492
571.70	4.467
572.04	4.443
572.37	4.421
572.71	4.380
573.04	4.354
573.37	4.329
573.71	4.272
574.04	4.231
574.38	4.168
574.71	4.129
575.04	4.101
575.38	4.046
575.71	3.999
576.05	3.959
576.38	3.919
576.71	3.845
577.05	3.791
577.38	3.755
577.71	3.687
578.05	3.639
578.38	3.586
578.71	3.536
579.05	3.510
579.38	3.479
579.71	3.453
580.05	3.433
580.38	3.424
580.71	3.402
581.05	3.369
581.38	3.359
581.71	3.365
582.05	3.366
582.38	3.372
582.71	3.356
583.04	3.352
583.38	3.326
583.71	3.324
584.04	3.337
584.38	3.326
584.71	3.342
585.04	3.367
585.37	3.370
585.71	3.366
586.04	3.372
586.37	3.394
586.70	3.397
587.04	3.449
587.37	3.452
587.70	3.445
588.03	3.465
588.37	3.491
588.70	3.481
589.03	3.471
589.36	3.471
589.69	3.449
590.03	3.430
590.36	3.420
590.69	3.358
591.02	3.333
591.35	3.305
591.69	3.288
592.02	3.272
592.35	3.279
592.68	3.281
593.01	3.265
593.35	3.259
593.68	3.249
594.01	3.250
594.34	3.254
594.67	3.252
595.00	3.275
595.34	3.247
595.67	3.210
596.00	3.174
596.33	3.111
596.66	3.077
596.99	3.056
597.32	3.003
597.65	2.966
597.99	2.948
598.32	2.904
598.65	2.838
598.98	2.825
599.31	2.789
599.64	2.782
599.97	2.816
600.30	2.849
600.63	2.855
600.96	2.901
601.30	2.925
601.63	2.938
601.96	2.952
602.29	2.960
602.62	2.964
602.95	2.961
603.28	2.966
603.61	2.934
603.94	2.904
604.27	2.896
604.60	2.858
604.93	2.829
605.26	2.805
605.59	2.770
605.92	2.768
606.25	2.740
606.58	2.729
606.91	2.684
607.24	2.674
607.57	2.645
607.90	2.605
608.23	2.556
608.56	2.515
608.89	2.477
609.22	2.460
609.55	2.391
609.88	2.323
610.21	2.276
610.54	2.219
610.87	2.168
611.20	2.105
611.53	2.052
611.86	2.014
612.19	1.961
612.52	1.916
612.85	1.875
613.18	1.854
613.51	1.823
613.84	1.794
614.17	1.798
614.49	1.796
614.82	1.786
615.15	1.763
615.48	1.763
615.81	1.739
616.14	1.733
616.47	1.697
616.80	1.656
617.13	1.647
617.46	1.639
617.78	1.620
618.11	1.595
618.44	1.599
618.77	1.581
619.10	1.559
619.43	1.571
619.76	1.520
620.09	1.520
620.41	1.517
620.74	1.529
621.07	1.536
621.40	1.533
621.73	1.553
622.06	1.565
622.38	1.598
622.71	1.622
623.04	1.664
623.37	1.737
623.70	1.760
624.02	1.838
624.35	1.906
624.68	1.922
625.01	1.952
625.34	1.989
625.66	1.998
625.99	2.010
626.32	2.024
626.65	2.009
626.98	1.990
627.30	1.986
627.63	1.939
627.96	1.867
628.29	1.802
628.61	1.751
628.94	1.697
629.27	1.668
629.60	1.633
629.92	1.624
630.25	1.598
630.58	1.566
630.91	1.555
631.23	1.522
631.56	1.521
631.89	1.517
632.21	1.519
632.54	1.509
632.87	1.480
633.19	1.426
633.52	1.369
633.85	1.364
634.18	1.319
634.50	1.273
634.83	1.260
635.16	1.212
635.48	1.188
635.81	1.144
636.14	1.086
636.46	1.061
636.79	1.025
637.11	0.983
637.44	0.872
637.77	0.839
638.09	0.772
638.42	0.727
638.75	0.680
639.07	0.657
639.40	0.631
639.73	0.581
640.05	0.547
640.38	0.574
640.70	0.526
641.03	0.545
641.36	0.537
641.68	0.578
642.01	0.562
642.33	0.557
642.66	0.546
642.98	0.523
643.31	0.543
643.64	0.542
643.96	0.548
644.29	0.596
644.61	0.618
644.94	0.651
645.26	0.645
645.59	0.685
645.91	0.714
646.24	0.748
646.56	0.785
646.89	0.806
647.22	0.811
647.54	0.764
647.87	0.762
648.19	0.746
648.52	0.723
648.84	0.724
649.17	0.685
649.49	0.675
649.82	0.673
650.14	0.656
650.47	0.654
650.79	0.677
651.11	0.707
651.44	0.719
651.76	0.728
652.09	0.770
652.41	0.789
652.74	0.809
653.06	0.799
653.39	0.820
653.71	0.881
654.04	0.904
654.36	0.918
654.68	0.966
655.01	1.004
655.33	1.028
655.66	1.006
655.98	1.017
656.30	1.028
656.63	1.072
656.95	1.058
657.28	1.038
657.60	1.025
657.92	1.011
658.25	0.941
658.57	0.900
658.90	0.862
659.22	0.809
659.54	0.759
659.87	0.704
660.19	0.614
660.51	0.538
660.84	0.432
661.16	0.371
661.48	0.295
661.81	0.279
662.13	0.227
662.45	0.168
662.78	0.199
663.10	0.210
663.42	0.221
663.75	0.261
664.07	0.249
664.39	0.261
664.72	0.219
665.04	0.264
665.36	0.291
665.69	0.311
666.01	0.367
666.33	0.373
666.65	0.369
666.98	0.437
667.30	0.475
667.62	0.540
667.94	0.604
668.27	0.715
668.59	0.746
668.91	0.779
669.23	0.836
669.56	0.858
669.88	0.907
670.20	0.951
670.52	0.998
670.85	1.029
671.17	1.070
671.49	1.063
671.81	1.096
672.13	1.113
672.46	1.143
672.78	1.131
673.10	1.177
673.42	1.205
673.74	1.274
674.07	1.265
674.39	1.342
674.71	1.372
675.03	1.530
675.35	1.628
675.67	1.724
676.00	1.824
676.32	1.949
676.64	2.016
676.96	2.130
677.28	2.175
677.60	2.274
677.92	2.375
678.25	2.483
678.57	2.539
678.89	2.556
679.21	2.595
679.53	2.639
679.85	2.707
680.17	2.772
680.49	2.783
680.81	2.880
681.13	2.921
681.46	2.930
681.78	2.995
682.10	3.024
682.42	3.076
682.74	3.180
683.06	3.276
683.38	3.365
683.70	3.424
684.02	3.574
684.34	3.685
684.66	3.794
684.98	3.875
685.30	3.930
685.62	4.017
685.94	4.117
686.26	4.149
686.58	4.189
686.90	4.189
687.22	4.228
687.54	4.185
687.86	4.170
688.18	4.126
688.50	4.147
688.82	4.133
689.14	4.094
689.46	4.070
689.78	4.044
690.10	4.013
690.42	4.024
690.74	4.064
691.06	4.046
691.38	4.038
691.70	4.094
692.02	4.105
692.34	4.156
692.66	4.185
692.98	4.224
693.30	4.342
693.62	4.512
693.94	4.605
694.26	4.730
694.57	4.875
694.89	4.998
695.21	5.176
695.53	5.342
695.85	5.497
696.17	5.705
696.49	5.878
696.81	6.058
697.13	6.134
697.44	6.302
697.76	6.416
698.08	6.575
698.40	6.701
698.72	6.832
699.04	6.943
699.36	7.116
699.67	7.194
699.99	7.299
700.31	7.400
700.63	7.620
700.95	7.780
701.27	7.959
701.58	8.071
701.90	8.223
702.22	8.359
702.54	8.579
702.86	8.727
703.17	8.973
703.49	9.321
703.81	9.613
704.13	9.857
704.45	10.054
704.76	10.347
705.08	10.646
705.40	10.961
705.72	11.120
706.03	11.392
706.35	11.655
706.67	11.974
706.99	12.124
707.30	12.224
707.62	12.441
707.94	12.715
708.26	12.937
708.57	13.260
708.89	13.550
709.21	13.954
709.53	14.216
709.84	14.577
710.16	14.859
710.48	15.242
710.79	15.613
711.11	15.898
711.43	16.266
711.74	16.609
712.06	16.895
712.38	17.264
712.69	17.616
713.01	18.040
713.33	18.421
713.64	18.872
713.96	19.196
714.28	19.624
714.59	20.080
714.91	20.469
715.23	20.920
715.54	21.263
715.86	21.654
716.17	22.112
716.49	22.444
716.81	22.814
717.12	23.120
717.44	23.538
717.76	23.959
718.07	24.170
718.39	24.425
718.70	24.634
719.02	25.010
719.33	25.342
719.65	25.425
719.97	25.657
720.28	25.921
720.60	26.250
720.91	26.519
721.23	26.817
721.54	27.171
721.86	27.503
722.17	27.951
722.49	28.306
722.81	28.468
723.12	29.035
723.44	29.364
723.75	29.580
724.07	29.727
724.38	30.004
724.70	30.223
725.01	30.547
725.33	30.830
725.64	30.999
725.96	31.290
726.27	31.534
726.59	31.754
726.90	31.963
727.22	32.146
727.53	32.413
727.84	32.660
728.16	32.851
728.47	33.098
728.79	33.360
729.10	33.571
729.42	33.639
729.73	33.894
730.05	33.982
730.36	34.173
730.67	34.516
730.99	34.737
731.30	34.894
731.62	35.119
731.93	35.212
732.24	35.347
732.56	35.534
732.87	35.822
733.19	35.993
733.50	36.145
733.81	36.352
734.13	36.360
734.44	36.516
734.76	36.642
735.07	36.781
735.38	37.073
735.70	37.328
736.01	37.463
736.32	37.570
736.64	37.757
736.95	37.828
737.26	37.900
737.58	38.058
737.89	38.085
738.20	38.210
738.52	38.366
738.83	38.386
739.14	38.491
739.45	38.559
739.77	38.635
740.08	38.721
740.39	38.761
740.71	38.945
741.02	39.027
741.33	39.141
741.64	39.176
741.96	39.340
742.27	39.401
742.58	39.593
742.90	39.780
743.21	39.925
743.52	39.947
743.83	40.194
744.14	40.278
744.46	40.463
744.77	40.764
745.08	40.887
745.39	40.806
745.71	40.839
746.02	40.700
746.33	40.553
746.64	40.665
746.95	40.986
747.27	41.090
747.58	41.164
747.89	41.183
748.20	41.079
748.51	41.185
748.82	41.238
749.14	41.546
749.45	41.558
749.76	41.881
750.07	42.056
750.38	41.824
750.69	41.930
751.01	41.905
751.32	42.055
751.63	42.238
751.94	42.245
752.25	42.369
752.56	42.231
752.87	42.234
753.18	42.120
753.49	42.055
753.81	42.155
754.12	42.097
754.43	42.215
754.74	42.262
755.05	42.166
755.36	42.333
755.67	42.354
755.98	42.516
756.29	42.804
756.60	43.041
756.91	43.077
757.22	43.249
757.53	43.661
757.84	43.880
758.15	44.089
758.46	44.366
758.77	44.534
759.09	44.711
759.40	44.815
759.71	44.875
760.02	44.963
760.33	45.059
760.64	45.074
760.95	45.058
761.26	44.999
761.57	44.924
761.88	44.914
762.18	44.936
762.49	44.878
762.80	44.897
763.11	44.847
763.42	44.796
763.73	44.723
764.04	44.718
764.35	44.589
764.66	44.503
764.97	44.437
765.28	44.331
765.59	44.216
765.90	44.044
766.21	43.706
766.52	43.720
766.83	43.511
767.14	43.250
767.44	43.080
767.75	42.744
768.06	42.776
768.37	42.639
768.68	42.531
768.99	42.151
769.30	42.172
769.61	41.925
769.91	41.470
770.22	41.356
770.53	41.657
770.84	41.835
771.15	41.888
771.46	41.454
771.77	41.360
772.07	41.355
772.38	41.493
772.69	41.448
773.00	41.964
773.31	42.102
773.61	42.041
773.92	41.962
774.23	41.528
774.54	41.563
774.85	41.719
775.15	41.597
775.46	41.568
775.77	41.779
776.08	41.558
776.39	41.332
776.69	41.381
777.00	41.377
777.31	41.302
777.62	41.578
777.92	41.631
778.23	41.710
778.54	41.887
778.85	41.709
779.15	41.265
779.46	41.635
779.77	41.621
780.07	41.654
780.38	42.033
780.69	41.928
781.00	41.948
781.30	41.872
781.61	41.895
781.92	42.015
782.22	42.475
782.53	42.600
782.84	42.486
783.14	42.721
783.45	42.709
783.76	42.803
784.06	42.990
784.37	42.896
784.68	43.047
784.98	43.139
785.29	43.226
785.60	43.067
785.90	43.478
786.21	43.517
786.51	43.516
786.82	43.783
787.13	43.870
787.43	43.805
787.74	44.003
788.04	44.436
788.35	44.551
788.66	44.527
788.96	44.471
789.27	44.460
789.57	44.206
789.88	44.362
790.19	43.932
790.49	43.590
790.80	43.619
791.10	43.442
791.41	42.926
791.71	42.990
792.02	42.912
792.32	42.566
792.63	42.551
792.93	42.498
793.24	42.386
793.54	42.620
793.85	42.631
794.15	42.679
794.46	42.643
794.76	42.675
795.07	42.591
795.37	42.752
795.68	43.385
795.98	43.656
796.29	44.543
796.59	44.579
796.90	44.592
797.20	44.820
797.51	44.866
797.81	45.064
798.12	45.191
798.42	45.210
798.72	45.267
799.03	44.942
799.33	44.589
799.64	44.363
799.94	44.558
800.25	44.882
800.55	44.825
800.85	44.902
801.16	45.253
801.46	45.123
801.77	45.187
802.07	44.883
802.37	44.979
802.68	44.619
802.98	44.457
803.28	44.190
803.59	44.227
803.89	44.372
804.20	44.606
804.50	44.191
804.80	44.631
805.11	44.719
805.41	45.000
805.71	45.354
806.02	45.845
806.32	45.720
806.62	46.077
806.93	46.242
807.23	46.139
807.53	46.431
807.83	46.640
808.14	46.648
808.44	46.764
808.74	46.551
809.05	46.413
809.35	46.303
809.65	47.101
809.95	46.570
810.26	46.029
810.56	45.784
810.86	45.517
811.16	45.467
811.47	45.608
811.77	45.811
812.07	46.068
812.37	45.830
812.68	45.864
812.98	45.667
813.28	46.036
813.58	46.561
813.88	46.953
814.19	47.329
814.49	47.859
814.79	47.869
815.09	48.116
815.39	47.970
815.70	48.276
816.00	48.078
816.30	47.961
816.60	48.034
816.90	47.722
817.20	48.061
817.50	47.744
817.81	47.227
818.11	46.941
818.41	46.892
818.71	47.079
819.01	47.360
819.31	47.699
819.61	47.896
819.92	48.239
820.22	48.492
820.52	48.663
820.82	48.924
821.12	49.356
821.42	49.610
821.72	49.840
822.02	50.212
822.32	50.531
822.62	50.835
822.92	51.104
823.22	51.314
823.52	51.684
823.83	51.874
824.13	52.050
824.43	51.868
824.73	52.100
825.03	52.253
825.33	52.268
825.63	52.101
825.93	52.077
826.23	52.017
826.53	51.826
826.83	51.446
827.13	51.419
827.43	51.282
827.73	51.814
828.03	52.061
828.33	52.156
828.63	52.135
828.93	52.322
829.23	52.147
829.53	51.950
829.83	51.605
830.13	51.537
830.42	51.353
830.72	51.211
831.02	50.779
831.32	50.427
831.62	50.085
831.92	49.849
832.22	49.587
832.52	49.511
832.82	49.886
833.12	50.111
833.42	50.205
833.72	50.516
834.01	50.871
834.31	51.048
834.61	51.123
834.91	51.809
835.21	52.186
835.51	52.506
835.81	52.499
836.11	52.326
836.40	52.370
836.70	52.819
837.00	52.149
837.30	51.577
837.60	51.407
837.90	51.650
838.19	51.278
838.49	51.494
838.79	51.618
839.09	51.742
839.39	51.533
839.68	51.329
839.98	50.641
840.28	50.744
840.58	51.024
840.88	51.100
841.17	50.111
841.47	49.337
841.77	48.311
842.07	48.646
842.36	48.278
842.66	47.560
842.96	47.504
843.26	47.180
843.55	46.849
843.85	46.361
844.15	45.399
844.45	45.371
844.74	46.693
845.04	47.104
845.34	45.728
845.63	46.108
845.93	46.700
846.23	48.359
846.53	48.481
846.82	48.788
847.12	49.933
847.42	50.658
847.71	50.744
848.01	50.288
848.31	50.133
848.60	49.644
848.90	49.145
849.19	49.300
849.49	47.591
849.79	49.477
850.08	50.108
850.38	48.461
850.68	48.622
850.97	49.424
851.27	48.199
851.56	47.822
851.86	48.243
852.16	50.063
852.45	48.363
852.75	48.418
853.04	48.693
853.34	48.169
853.64	49.195
853.93	47.462
854.23	47.204
854.52	47.564
854.82	49.525
855.11	49.675
855.41	49.604
855.70	51.334
856.00	51.621
856.30	49.825
856.59	51.530
856.89	53.315
857.18	53.999
857.48	52.923
857.77	51.695
858.07	51.429
858.36	49.997
858.66	48.571
858.95	47.441
859.25	48.562
859.54	48.001
859.84	45.739
860.13	42.892
860.42	43.687
860.72	42.870
861.01	44.583
861.31	44.087
861.60	44.844
861.90	45.044
862.19	46.213
862.49	45.324
862.78	46.346
863.07	46.358
863.37	48.340
863.66	47.540
863.96	50.686
864.25	50.543
864.54	50.026
864.84	50.544
865.13	49.597
865.43	51.236
865.72	55.189
866.01	50.618
866.31	51.628
866.60	35.361
866.89	68.484
>>>>>End Spectral Data<<<<<
