OOIBase32 Version 2.0.0.6 Data File
++++++++++++++++++++++++++++++++++++
Date: 01-23-2012, 23:09:02
User: Valued Ocean Optics Customer
Spectrometer Serial Number: USB2E2917
Spectrometer Channel: Master
Integration Time (msec): 5
Spectra Averaged: 10
Boxcar Smoothing: 5
Correct for Electrical Dark: Enabled
Time Normalized: Disabled
Dual-beam Reference: Disabled
Reference Channel: Master
Temperature: Not acquired
Spectrometer Type: S2000
ADC Type: USB2000
Number of Pixels in File: 2048
Graph Title: 
>>>>>Begin Spectral Data<<<<<
180.30	0.000
180.67	0.000
181.03	12.795
181.40	22.593
181.77	-7106.346
182.14	95.012
182.51	-310.912
182.88	159.989
183.25	-37.159
183.62	9.661
183.99	389.609
184.36	-4.283
184.73	-151.485
185.10	74.547
185.46	583.668
185.83	-194.415
186.20	1120.949
186.57	101.940
186.94	147.993
187.31	-1.579
187.68	35.212
188.05	-45.180
188.42	-15.822
188.78	-43.381
189.15	74.628
189.52	28.464
189.89	28.098
190.26	58.950
190.63	40.483
191.00	19.930
191.37	19.056
191.73	31.851
192.10	39.559
192.47	50.837
192.84	49.605
193.21	50.363
193.58	41.414
193.94	35.326
194.31	22.699
194.68	30.574
195.05	21.882
195.42	25.599
195.79	0.602
196.15	-6.737
196.52	-28.606
196.89	-36.484
197.26	-43.853
197.63	-11.674
198.00	10.451
198.36	20.803
198.73	-3.141
199.10	4.051
199.47	8.896
199.84	22.551
200.20	21.303
200.57	28.804
200.94	43.749
201.31	51.468
201.68	35.677
202.04	25.417
202.41	27.136
202.78	37.029
203.15	43.621
203.51	36.682
203.88	34.741
204.25	19.721
204.62	-5.819
204.98	-41.946
205.35	-51.392
205.72	-78.051
206.09	-74.018
206.46	-174.282
206.82	-149.278
207.19	-141.769
207.56	-208.423
207.92	-188.649
208.29	-204.960
208.66	-125.113
209.03	-107.460
209.39	-67.131
209.76	-53.034
210.13	-86.025
210.50	-42.899
210.86	-19.657
211.23	-15.118
211.60	-0.510
211.96	3.315
212.33	15.227
212.70	-1.067
213.07	-2.286
213.43	-43.555
213.80	-52.914
214.17	-27.039
214.53	-24.804
214.90	-14.377
215.27	-5.050
215.63	-11.028
216.00	-14.881
216.37	-13.392
216.74	-14.491
217.10	-10.798
217.47	-0.278
217.84	4.699
218.20	-1.116
218.57	1.120
218.94	-6.588
219.30	-13.832
219.67	-17.150
220.04	-8.543
220.40	-12.547
220.77	-15.726
221.13	-7.886
221.50	-7.344
221.87	-7.052
222.23	-12.737
222.60	-15.394
222.97	-14.843
223.33	-8.973
223.70	-7.651
224.07	-11.047
224.43	-11.340
224.80	-6.520
225.16	-9.051
225.53	-8.751
225.90	-9.641
226.26	-5.694
226.63	-2.796
226.99	-1.679
227.36	-1.005
227.73	0.873
228.09	1.543
228.46	2.507
228.82	2.531
229.19	2.793
229.56	3.156
229.92	5.970
230.29	6.819
230.65	6.268
231.02	6.172
231.38	4.340
231.75	3.433
232.12	1.461
232.48	0.384
232.85	-1.605
233.21	-2.170
233.58	-2.876
233.94	-3.660
234.31	-5.598
234.68	-4.460
235.04	-4.881
235.41	-3.360
235.77	-2.959
236.14	-1.638
236.50	0.257
236.87	1.918
237.23	2.203
237.60	2.357
237.96	2.791
238.33	2.643
238.69	1.247
239.06	1.309
239.42	0.979
239.79	0.534
240.15	0.700
240.52	1.481
240.88	1.895
241.25	2.242
241.61	2.493
241.98	2.272
242.34	2.700
242.71	3.027
243.07	3.110
243.44	2.993
243.80	2.848
244.17	2.828
244.53	1.933
244.90	1.695
245.26	1.459
245.63	1.216
245.99	0.759
246.36	0.357
246.72	0.356
247.09	0.071
247.45	0.207
247.81	0.606
248.18	0.460
248.54	0.878
248.91	0.567
249.27	1.012
249.64	1.316
250.00	2.110
250.36	2.126
250.73	2.018
251.09	2.137
251.46	1.509
251.82	1.256
252.19	1.637
252.55	0.979
252.91	0.977
253.28	0.405
253.64	-0.376
254.01	-0.350
254.37	0.263
254.73	0.745
255.10	1.215
255.46	1.835
255.83	1.734
256.19	1.543
256.55	1.573
256.92	1.967
257.28	1.870
257.65	2.135
258.01	1.988
258.37	1.920
258.74	1.733
259.10	1.529
259.46	1.401
259.83	1.372
260.19	1.348
260.55	1.523
260.92	1.268
261.28	1.428
261.64	1.263
262.01	1.202
262.37	1.234
262.73	1.477
263.10	1.608
263.46	1.850
263.82	2.015
264.19	2.076
264.55	1.597
264.91	1.654
265.28	1.653
265.64	1.781
266.00	1.810
266.37	1.869
266.73	1.762
267.09	2.005
267.46	1.788
267.82	1.589
268.18	1.430
268.54	1.685
268.91	1.480
269.27	1.534
269.63	1.684
270.00	1.698
270.36	1.537
270.72	1.505
271.08	1.378
271.45	1.613
271.81	1.724
272.17	1.850
272.53	1.928
272.90	2.118
273.26	2.210
273.62	2.021
273.98	1.906
274.35	2.085
274.71	2.351
275.07	2.201
275.43	2.167
275.80	2.230
276.16	2.140
276.52	1.994
276.88	1.953
277.25	1.568
277.61	1.492
277.97	1.315
278.33	1.347
278.69	1.064
279.06	1.025
279.42	0.980
279.78	1.076
280.14	1.288
280.50	1.461
280.87	1.487
281.23	1.667
281.59	1.682
281.95	1.884
282.31	1.980
282.68	1.876
283.04	1.946
283.40	2.050
283.76	1.982
284.12	1.999
284.48	2.006
284.85	1.993
285.21	1.963
285.57	1.976
285.93	1.961
286.29	1.726
286.65	1.855
287.02	2.193
287.38	2.061
287.74	1.974
288.10	1.912
288.46	1.930
288.82	1.959
289.18	2.010
289.54	2.193
289.91	2.232
290.27	2.363
290.63	2.476
290.99	2.297
291.35	2.207
291.71	2.397
292.07	2.189
292.43	2.089
292.79	2.071
293.16	1.937
293.52	1.977
293.88	2.079
294.24	2.137
294.60	2.047
294.96	2.014
295.32	2.103
295.68	2.034
296.04	2.120
296.40	2.167
296.76	2.139
297.12	2.181
297.49	1.967
297.85	1.853
298.21	1.602
298.57	1.495
298.93	1.354
299.29	1.176
299.65	1.126
300.01	1.135
300.37	1.153
300.73	1.473
301.09	1.553
301.45	1.750
301.81	1.825
302.17	2.033
302.53	2.024
302.89	2.046
303.25	2.180
303.61	2.097
303.97	1.969
304.33	1.993
304.69	1.774
305.05	1.765
305.41	1.577
305.77	1.633
306.13	1.603
306.49	1.672
306.85	1.763
307.21	1.797
307.57	1.884
307.93	1.930
308.29	2.019
308.65	2.021
309.01	2.017
309.37	2.122
309.73	2.003
310.09	2.112
310.45	2.194
310.81	2.124
311.17	1.970
311.53	1.958
311.89	2.077
312.25	1.956
312.61	1.923
312.96	1.968
313.32	2.033
313.68	1.974
314.04	1.862
314.40	1.790
314.76	1.801
315.12	1.994
315.48	1.987
315.84	1.892
316.20	2.008
316.56	1.955
316.92	1.854
317.27	1.768
317.63	1.889
317.99	1.811
318.35	1.767
318.71	1.736
319.07	1.748
319.43	1.772
319.79	1.807
320.15	1.772
320.50	1.849
320.86	1.898
321.22	1.851
321.58	1.769
321.94	1.720
322.30	1.695
322.66	1.704
323.01	1.597
323.37	1.570
323.73	1.577
324.09	1.452
324.45	1.449
324.81	1.441
325.17	1.540
325.52	1.509
325.88	1.522
326.24	1.632
326.60	1.612
326.96	1.616
327.31	1.539
327.67	1.432
328.03	1.440
328.39	1.400
328.75	1.327
329.11	1.272
329.46	1.397
329.82	1.430
330.18	1.293
330.54	1.332
330.90	1.292
331.25	1.358
331.61	1.482
331.97	1.473
332.33	1.576
332.68	1.649
333.04	1.662
333.40	1.561
333.76	1.593
334.11	1.650
334.47	1.704
334.83	1.721
335.19	1.636
335.54	1.574
335.90	1.611
336.26	1.543
336.62	1.459
336.97	1.317
337.33	1.270
337.69	1.221
338.05	1.072
338.40	0.935
338.76	0.955
339.12	1.143
339.48	1.142
339.83	1.116
340.19	1.063
340.55	1.165
340.90	1.200
341.26	1.225
341.62	1.265
341.97	1.383
342.33	1.465
342.69	1.541
343.04	1.496
343.40	1.430
343.76	1.323
344.12	1.304
344.47	1.224
344.83	1.274
345.19	1.352
345.54	1.374
345.90	1.391
346.26	1.368
346.61	1.333
346.97	1.285
347.32	1.298
347.68	1.381
348.04	1.376
348.39	1.349
348.75	1.376
349.11	1.305
349.46	1.252
349.82	1.215
350.18	1.164
350.53	1.155
350.89	1.108
351.24	1.152
351.60	1.143
351.96	1.146
352.31	1.128
352.67	1.092
353.02	1.125
353.38	1.139
353.74	1.177
354.09	1.169
354.45	1.183
354.80	1.198
355.16	1.219
355.52	1.241
355.87	1.201
356.23	1.245
356.58	1.261
356.94	1.273
357.29	1.271
357.65	1.275
358.00	1.286
358.36	1.255
358.72	1.255
359.07	1.235
359.43	1.283
359.78	1.368
360.14	1.326
360.49	1.281
360.85	1.295
361.20	1.298
361.56	1.262
361.91	1.305
362.27	1.320
362.62	1.379
362.98	1.414
363.33	1.342
363.69	1.332
364.04	1.386
364.40	1.434
364.75	1.413
365.11	1.376
365.46	1.361
365.82	1.369
366.17	1.329
366.53	1.326
366.88	1.275
367.24	1.307
367.59	1.299
367.95	1.303
368.30	1.312
368.66	1.310
369.01	1.335
369.37	1.375
369.72	1.378
370.08	1.444
370.43	1.429
370.78	1.435
371.14	1.409
371.49	1.417
371.85	1.405
372.20	1.370
372.56	1.363
372.91	1.395
373.26	1.422
373.62	1.381
373.97	1.387
374.33	1.375
374.68	1.423
375.03	1.484
375.39	1.459
375.74	1.456
376.10	1.484
376.45	1.523
376.80	1.542
377.16	1.508
377.51	1.539
377.87	1.575
378.22	1.560
378.57	1.539
378.93	1.556
379.28	1.622
379.63	1.672
379.99	1.741
380.34	1.753
380.70	1.767
381.05	1.826
381.40	1.872
381.76	1.881
382.11	1.945
382.46	2.009
382.82	2.019
383.17	1.987
383.52	1.985
383.88	1.951
384.23	1.955
384.58	1.964
384.94	1.914
385.29	1.923
385.64	1.901
385.99	1.914
386.35	1.920
386.70	1.921
387.05	1.936
387.41	1.935
387.76	1.961
388.11	1.950
388.47	1.934
388.82	1.994
389.17	1.978
389.52	2.006
389.88	2.026
390.23	2.011
390.58	2.033
390.93	2.091
391.29	2.100
391.64	2.130
391.99	2.190
392.34	2.241
392.70	2.245
393.05	2.258
393.40	2.244
393.75	2.222
394.11	2.235
394.46	2.204
394.81	2.202
395.16	2.181
395.52	2.133
395.87	2.120
396.22	2.119
396.57	2.085
396.92	2.111
397.28	2.098
397.63	2.081
397.98	2.067
398.33	2.096
398.68	2.043
399.04	2.035
399.39	2.032
399.74	2.009
400.09	1.976
400.44	1.989
400.80	1.915
401.15	1.945
401.50	1.969
401.85	2.002
402.20	1.968
402.55	2.005
402.90	2.017
403.26	2.026
403.61	2.005
403.96	2.035
404.31	2.034
404.66	2.091
405.01	2.057
405.36	2.087
405.72	2.057
406.07	2.056
406.42	2.015
406.77	2.037
407.12	2.055
407.47	2.054
407.82	2.012
408.17	2.029
408.53	2.004
408.88	1.979
409.23	1.934
409.58	1.918
409.93	1.964
410.28	2.024
410.63	2.001
410.98	1.967
411.33	1.995
411.68	2.041
412.03	2.058
412.38	2.071
412.73	2.148
413.09	2.166
413.44	2.178
413.79	2.161
414.14	2.150
414.49	2.200
414.84	2.247
415.19	2.269
415.54	2.297
415.89	2.305
416.24	2.350
416.59	2.355
416.94	2.373
417.29	2.413
417.64	2.425
417.99	2.439
418.34	2.451
418.69	2.461
419.04	2.457
419.39	2.443
419.74	2.442
420.09	2.444
420.44	2.442
420.79	2.447
421.14	2.448
421.49	2.470
421.84	2.462
422.19	2.456
422.54	2.452
422.89	2.462
423.24	2.468
423.59	2.461
423.94	2.437
424.29	2.430
424.64	2.415
424.99	2.391
425.34	2.351
425.68	2.340
426.03	2.309
426.38	2.288
426.73	2.264
427.08	2.239
427.43	2.240
427.78	2.257
428.13	2.229
428.48	2.227
428.83	2.251
429.18	2.275
429.53	2.288
429.87	2.289
430.22	2.295
430.57	2.311
430.92	2.314
431.27	2.334
431.62	2.311
431.97	2.334
432.32	2.339
432.67	2.317
433.01	2.295
433.36	2.281
433.71	2.285
434.06	2.270
434.41	2.259
434.76	2.274
435.11	2.247
435.45	2.260
435.80	2.266
436.15	2.280
436.50	2.289
436.85	2.306
437.20	2.301
437.54	2.306
437.89	2.325
438.24	2.343
438.59	2.331
438.94	2.335
439.29	2.320
439.63	2.316
439.98	2.304
440.33	2.294
440.68	2.291
441.03	2.302
441.37	2.314
441.72	2.311
442.07	2.295
442.42	2.315
442.76	2.340
443.11	2.351
443.46	2.367
443.81	2.387
444.16	2.401
444.50	2.397
444.85	2.397
445.20	2.384
445.55	2.391
445.89	2.398
446.24	2.389
446.59	2.361
446.94	2.362
447.28	2.344
447.63	2.316
447.98	2.308
448.32	2.319
448.67	2.316
449.02	2.307
449.37	2.284
449.71	2.294
450.06	2.274
450.41	2.281
450.75	2.267
451.10	2.271
451.45	2.267
451.79	2.251
452.14	2.234
452.49	2.226
452.84	2.219
453.18	2.209
453.53	2.183
453.88	2.192
454.22	2.196
454.57	2.221
454.92	2.228
455.26	2.252
455.61	2.285
455.95	2.319
456.30	2.339
456.65	2.375
456.99	2.404
457.34	2.425
457.69	2.439
458.03	2.446
458.38	2.457
458.73	2.453
459.07	2.456
459.42	2.441
459.76	2.409
460.11	2.381
460.46	2.346
460.80	2.328
461.15	2.291
461.49	2.260
461.84	2.237
462.19	2.215
462.53	2.216
462.88	2.184
463.22	2.172
463.57	2.174
463.91	2.195
464.26	2.200
464.61	2.193
464.95	2.199
465.30	2.206
465.64	2.218
465.99	2.219
466.33	2.215
466.68	2.219
467.02	2.229
467.37	2.227
467.71	2.215
468.06	2.214
468.41	2.195
468.75	2.200
469.10	2.189
469.44	2.165
469.79	2.158
470.13	2.130
470.48	2.124
470.82	2.102
471.17	2.107
471.51	2.099
471.86	2.086
472.20	2.086
472.55	2.080
472.89	2.073
473.23	2.052
473.58	2.049
473.92	2.057
474.27	2.042
474.61	2.026
474.96	2.014
475.30	2.026
475.65	2.026
475.99	2.030
476.34	2.029
476.68	2.024
477.02	2.045
477.37	2.043
477.71	2.072
478.06	2.114
478.40	2.203
478.75	2.274
479.09	2.347
479.43	2.448
479.78	2.545
480.12	2.638
480.47	2.740
480.81	2.829
481.15	2.914
481.50	2.994
481.84	3.086
482.19	3.158
482.53	3.230
482.87	3.279
483.22	3.283
483.56	3.259
483.90	3.204
484.25	3.132
484.59	3.066
484.94	2.996
485.28	2.931
485.62	2.850
485.97	2.766
486.31	2.692
486.65	2.637
487.00	2.607
487.34	2.598
487.68	2.608
488.03	2.630
488.37	2.639
488.71	2.645
489.06	2.643
489.40	2.644
489.74	2.639
490.09	2.639
490.43	2.612
490.77	2.596
491.11	2.569
491.46	2.545
491.80	2.527
492.14	2.500
492.49	2.485
492.83	2.454
493.17	2.416
493.51	2.404
493.86	2.370
494.20	2.374
494.54	2.369
494.88	2.393
495.23	2.422
495.57	2.435
495.91	2.476
496.25	2.504
496.60	2.545
496.94	2.572
497.28	2.603
497.62	2.638
497.97	2.655
498.31	2.691
498.65	2.719
498.99	2.745
499.33	2.802
499.68	2.847
500.02	2.885
500.36	2.925
500.70	2.972
501.04	2.997
501.39	3.046
501.73	3.113
502.07	3.171
502.41	3.225
502.75	3.303
503.09	3.362
503.44	3.414
503.78	3.487
504.12	3.550
504.46	3.640
504.80	3.747
505.14	3.843
505.49	3.941
505.83	4.039
506.17	4.147
506.51	4.237
506.85	4.320
507.19	4.424
507.53	4.526
507.87	4.645
508.22	4.747
508.56	4.841
508.90	4.930
509.24	5.035
509.58	5.123
509.92	5.233
510.26	5.346
510.60	5.462
510.94	5.575
511.28	5.687
511.63	5.800
511.97	5.910
512.31	6.042
512.65	6.190
512.99	6.343
513.33	6.548
513.67	6.720
514.01	6.913
514.35	7.106
514.69	7.300
515.03	7.501
515.37	7.676
515.71	7.864
516.05	8.008
516.39	8.162
516.73	8.307
517.07	8.424
517.41	8.554
517.75	8.672
518.09	8.790
518.43	8.894
518.77	8.990
519.11	9.100
519.45	9.218
519.79	9.379
520.13	9.516
520.47	9.684
520.81	9.853
521.15	10.039
521.49	10.214
521.83	10.389
522.17	10.565
522.51	10.769
522.85	10.997
523.19	11.253
523.53	11.521
523.87	11.809
524.21	12.061
524.55	12.306
524.89	12.530
525.23	12.740
525.57	12.925
525.91	13.113
526.25	13.263
526.58	13.417
526.92	13.529
527.26	13.607
527.60	13.651
527.94	13.696
528.28	13.738
528.62	13.766
528.96	13.797
529.30	13.835
529.64	13.847
529.97	13.876
530.31	13.873
530.65	13.900
530.99	13.943
531.33	14.012
531.67	14.078
532.01	14.122
532.35	14.162
532.68	14.196
533.02	14.213
533.36	14.226
533.70	14.249
534.04	14.278
534.38	14.289
534.71	14.313
535.05	14.329
535.39	14.354
535.73	14.383
536.07	14.436
536.41	14.488
536.74	14.570
537.08	14.659
537.42	14.736
537.76	14.822
538.10	14.924
538.43	15.013
538.77	15.093
539.11	15.161
539.45	15.233
539.79	15.284
540.12	15.329
540.46	15.353
540.80	15.366
541.14	15.364
541.47	15.347
541.81	15.330
542.15	15.302
542.49	15.268
542.82	15.234
543.16	15.197
543.50	15.160
543.84	15.119
544.17	15.084
544.51	15.082
544.85	15.085
545.18	15.102
545.52	15.092
545.86	15.083
546.20	15.104
546.53	15.105
546.87	15.107
547.21	15.110
547.54	15.103
547.88	15.115
548.22	15.125
548.55	15.119
548.89	15.124
549.23	15.138
549.56	15.161
549.90	15.180
550.24	15.184
550.57	15.183
550.91	15.173
551.25	15.209
551.58	15.201
551.92	15.188
552.26	15.175
552.59	15.151
552.93	15.137
553.27	15.132
553.60	15.103
553.94	15.076
554.27	15.074
554.61	15.069
554.95	15.042
555.28	15.037
555.62	15.026
555.95	15.020
556.29	15.010
556.63	14.994
556.96	14.948
557.30	14.925
557.63	14.875
557.97	14.811
558.31	14.764
558.64	14.701
558.98	14.662
559.31	14.622
559.65	14.571
559.98	14.531
560.32	14.478
560.65	14.421
560.99	14.326
561.33	14.296
561.66	14.258
562.00	14.225
562.33	14.178
562.67	14.118
563.00	14.039
563.34	13.991
563.67	13.911
564.01	13.817
564.34	13.769
564.68	13.704
565.01	13.630
565.35	13.535
565.68	13.434
566.02	13.330
566.35	13.254
566.69	13.142
567.02	13.059
567.36	12.979
567.69	12.915
568.03	12.811
568.36	12.733
568.69	12.632
569.03	12.559
569.36	12.488
569.70	12.441
570.03	12.353
570.37	12.292
570.70	12.206
571.04	12.124
571.37	12.041
571.70	11.957
572.04	11.878
572.37	11.822
572.71	11.743
573.04	11.660
573.37	11.579
573.71	11.509
574.04	11.446
574.38	11.355
574.71	11.279
575.04	11.198
575.38	11.135
575.71	11.079
576.05	11.003
576.38	10.956
576.71	10.887
577.05	10.802
577.38	10.717
577.71	10.631
578.05	10.571
578.38	10.489
578.71	10.425
579.05	10.343
579.38	10.258
579.71	10.203
580.05	10.123
580.38	10.070
580.71	10.039
581.05	10.003
581.38	9.956
581.71	9.908
582.05	9.856
582.38	9.816
582.71	9.782
583.04	9.757
583.38	9.695
583.71	9.667
584.04	9.625
584.38	9.572
584.71	9.536
585.04	9.532
585.37	9.515
585.71	9.498
586.04	9.466
586.37	9.468
586.70	9.470
587.04	9.463
587.37	9.438
587.70	9.408
588.03	9.386
588.37	9.382
588.70	9.357
589.03	9.314
589.36	9.300
589.69	9.268
590.03	9.214
590.36	9.163
590.69	9.121
591.02	9.061
591.35	9.026
591.69	9.035
592.02	9.010
592.35	8.968
592.68	8.972
593.01	8.943
593.35	8.928
593.68	8.917
594.01	8.896
594.34	8.874
594.67	8.881
595.00	8.884
595.34	8.827
595.67	8.759
596.00	8.718
596.33	8.658
596.66	8.646
596.99	8.580
597.32	8.523
597.65	8.479
597.99	8.415
598.32	8.363
598.65	8.290
598.98	8.248
599.31	8.211
599.64	8.197
599.97	8.174
600.30	8.140
600.63	8.174
600.96	8.162
601.30	8.162
601.63	8.189
601.96	8.178
602.29	8.189
602.62	8.169
602.95	8.162
603.28	8.156
603.61	8.123
603.94	8.064
604.27	8.016
604.60	7.980
604.93	7.950
605.26	7.891
605.59	7.850
605.92	7.797
606.25	7.772
606.58	7.736
606.91	7.661
607.24	7.626
607.57	7.581
607.90	7.550
608.23	7.505
608.56	7.438
608.89	7.374
609.22	7.306
609.55	7.259
609.88	7.170
610.21	7.109
610.54	7.039
610.87	6.976
611.20	6.917
611.53	6.827
611.86	6.781
612.19	6.712
612.52	6.645
612.85	6.608
613.18	6.574
613.51	6.501
613.84	6.420
614.17	6.366
614.49	6.347
614.82	6.263
615.15	6.220
615.48	6.169
615.81	6.108
616.14	6.096
616.47	6.017
616.80	5.915
617.13	5.894
617.46	5.876
617.78	5.873
618.11	5.814
618.44	5.817
618.77	5.759
619.10	5.707
619.43	5.697
619.76	5.653
620.09	5.658
620.41	5.668
620.74	5.663
621.07	5.661
621.40	5.645
621.73	5.663
622.06	5.680
622.38	5.715
622.71	5.738
623.04	5.753
623.37	5.781
623.70	5.795
624.02	5.815
624.35	5.853
624.68	5.858
625.01	5.862
625.34	5.874
625.66	5.892
625.99	5.897
626.32	5.901
626.65	5.899
626.98	5.859
627.30	5.873
627.63	5.853
627.96	5.803
628.29	5.769
628.61	5.704
628.94	5.652
629.27	5.617
629.60	5.536
629.92	5.517
630.25	5.453
630.58	5.442
630.91	5.373
631.23	5.336
631.56	5.305
631.89	5.288
632.21	5.291
632.54	5.248
632.87	5.174
633.19	5.146
633.52	5.056
633.85	5.016
634.18	4.953
634.50	4.884
634.83	4.808
635.16	4.717
635.48	4.607
635.81	4.495
636.14	4.402
636.46	4.338
636.79	4.256
637.11	4.205
637.44	4.095
637.77	3.994
638.09	3.894
638.42	3.788
638.75	3.717
639.07	3.642
639.40	3.570
639.73	3.493
640.05	3.405
640.38	3.352
640.70	3.208
641.03	3.130
641.36	3.072
641.68	3.027
642.01	2.988
642.33	2.935
642.66	2.905
642.98	2.867
643.31	2.821
643.64	2.789
643.96	2.720
644.29	2.715
644.61	2.752
644.94	2.723
645.26	2.726
645.59	2.739
645.91	2.716
646.24	2.682
646.56	2.674
646.89	2.681
647.22	2.656
647.54	2.670
647.87	2.667
648.19	2.597
648.52	2.596
648.84	2.561
649.17	2.472
649.49	2.470
649.82	2.453
650.14	2.470
650.47	2.431
650.79	2.438
651.11	2.444
651.44	2.430
651.76	2.434
652.09	2.469
652.41	2.508
652.74	2.547
653.06	2.561
653.39	2.618
653.71	2.627
654.04	2.643
654.36	2.637
654.68	2.618
655.01	2.643
655.33	2.688
655.66	2.660
655.98	2.643
656.30	2.612
656.63	2.628
656.95	2.602
657.28	2.587
657.60	2.564
657.92	2.566
658.25	2.555
658.57	2.546
658.90	2.513
659.22	2.488
659.54	2.464
659.87	2.498
660.19	2.446
660.51	2.420
660.84	2.407
661.16	2.384
661.48	2.355
661.81	2.342
662.13	2.326
662.45	2.345
662.78	2.362
663.10	2.352
663.42	2.363
663.75	2.379
664.07	2.365
664.39	2.303
664.72	2.348
665.04	2.366
665.36	2.429
665.69	2.500
666.01	2.533
666.33	2.595
666.65	2.619
666.98	2.700
667.30	2.815
667.62	2.930
667.94	3.087
668.27	3.179
668.59	3.305
668.91	3.454
669.23	3.542
669.56	3.631
669.88	3.771
670.20	3.917
670.52	4.000
670.85	4.079
671.17	4.209
671.49	4.332
671.81	4.490
672.13	4.626
672.46	4.695
672.78	4.836
673.10	5.051
673.42	5.168
673.74	5.331
674.07	5.497
674.39	5.698
674.71	5.805
675.03	6.004
675.35	6.166
675.67	6.273
676.00	6.402
676.32	6.516
676.64	6.592
676.96	6.755
677.28	6.913
677.60	7.043
677.92	7.125
678.25	7.286
678.57	7.361
678.89	7.442
679.21	7.602
679.53	7.792
679.85	7.940
680.17	8.131
680.49	8.262
680.81	8.447
681.13	8.658
681.46	8.884
681.78	9.124
682.10	9.305
682.42	9.559
682.74	9.810
683.06	10.017
683.38	10.288
683.70	10.500
684.02	10.695
684.34	10.925
684.66	11.118
684.98	11.350
685.30	11.531
685.62	11.762
685.94	11.968
686.26	12.092
686.58	12.289
686.90	12.458
687.22	12.604
687.54	12.818
687.86	12.933
688.18	13.093
688.50	13.270
688.82	13.394
689.14	13.662
689.46	13.930
689.78	14.226
690.10	14.481
690.42	14.836
690.74	15.207
691.06	15.597
691.38	16.007
691.70	16.419
692.02	16.756
692.34	17.254
692.66	17.641
692.98	17.993
693.30	18.458
693.62	18.838
693.94	19.118
694.26	19.460
694.57	19.733
694.89	20.101
695.21	20.469
695.53	20.785
695.85	21.067
696.17	21.388
696.49	21.731
696.81	22.021
697.13	22.328
697.44	22.688
697.76	23.123
698.08	23.579
698.40	24.019
698.72	24.400
699.04	24.950
699.36	25.529
699.67	26.009
699.99	26.565
700.31	27.182
700.63	27.835
700.95	28.523
701.27	29.070
701.58	29.674
701.90	30.133
702.22	30.698
702.54	31.154
702.86	31.603
703.17	32.075
703.49	32.530
703.81	32.963
704.13	33.367
704.45	33.772
704.76	34.157
705.08	34.568
705.40	34.956
705.72	35.320
706.03	35.727
706.35	36.072
706.67	36.361
706.99	36.660
707.30	36.974
707.62	37.297
707.94	37.537
708.26	37.798
708.57	38.039
708.89	38.354
709.21	38.755
709.53	39.064
709.84	39.384
710.16	39.847
710.48	40.167
710.79	40.470
711.11	40.806
711.43	41.118
711.74	41.470
712.06	41.791
712.38	42.089
712.69	42.324
713.01	42.665
713.33	42.982
713.64	43.397
713.96	43.755
714.28	44.240
714.59	44.767
714.91	45.208
715.23	45.590
715.54	45.926
715.86	46.442
716.17	46.954
716.49	47.347
716.81	47.806
717.12	48.082
717.44	48.537
717.76	48.904
718.07	49.143
718.39	49.512
718.70	49.938
719.02	50.278
719.33	50.563
719.65	50.714
719.97	50.944
720.28	51.160
720.60	51.518
720.91	51.797
721.23	52.029
721.54	52.428
721.86	52.713
722.17	52.981
722.49	53.401
722.81	53.729
723.12	54.116
723.44	54.365
723.75	54.654
724.07	54.841
724.38	55.073
724.70	55.265
725.01	55.335
725.33	55.553
725.64	55.813
725.96	55.954
726.27	55.891
726.59	56.003
726.90	56.061
727.22	56.047
727.53	56.275
727.84	56.392
728.16	56.488
728.47	56.596
728.79	56.737
729.10	56.676
729.42	56.783
729.73	56.930
730.05	57.061
730.36	57.285
730.67	57.579
730.99	57.621
731.30	57.776
731.62	57.986
731.93	58.128
732.24	58.306
732.56	58.485
732.87	58.695
733.19	59.071
733.50	59.186
733.81	59.369
734.13	59.323
734.44	59.554
734.76	59.624
735.07	59.866
735.38	60.122
735.70	60.355
736.01	60.626
736.32	60.690
736.64	60.916
736.95	61.100
737.26	61.372
737.58	61.805
737.89	61.782
738.20	62.084
738.52	62.092
738.83	62.153
739.14	62.090
739.45	62.118
739.77	62.323
740.08	62.359
740.39	62.454
740.71	62.461
741.02	62.416
741.33	62.506
741.64	62.472
741.96	62.600
742.27	62.559
742.58	62.782
742.90	63.074
743.21	62.995
743.52	63.010
743.83	62.985
744.14	62.923
744.46	63.128
744.77	63.318
745.08	63.368
745.39	63.374
745.71	63.358
746.02	63.300
746.33	63.026
746.64	63.131
746.95	62.887
747.27	63.103
747.58	63.169
747.89	62.923
748.20	62.805
748.51	62.882
748.82	62.717
749.14	62.723
749.45	62.727
749.76	62.825
750.07	62.821
750.38	62.920
750.69	62.679
751.01	62.672
751.32	62.727
751.63	62.809
751.94	62.562
752.25	62.605
752.56	62.593
752.87	62.458
753.18	62.403
753.49	62.350
753.81	62.303
754.12	62.344
754.43	62.381
754.74	62.335
755.05	62.290
755.36	62.404
755.67	62.536
755.98	62.648
756.29	62.685
756.60	62.658
756.91	62.582
757.22	62.739
757.53	62.850
757.84	62.833
758.15	62.934
758.46	62.769
758.77	62.704
759.09	62.565
759.40	62.504
759.71	62.359
760.02	62.292
760.33	62.219
760.64	61.893
760.95	61.680
761.26	61.497
761.57	61.304
761.88	61.229
762.18	61.075
762.49	60.900
762.80	60.833
763.11	60.637
763.42	60.493
763.73	60.339
764.04	60.369
764.35	60.351
764.66	60.269
764.97	60.051
765.28	59.990
765.59	60.026
765.90	59.910
766.21	59.578
766.52	59.555
766.83	59.489
767.14	59.567
767.44	59.369
767.75	59.193
768.06	59.132
768.37	59.277
768.68	59.315
768.99	59.157
769.30	59.077
769.61	59.026
769.91	59.193
770.22	58.917
770.53	58.484
770.84	58.463
771.15	58.463
771.46	58.300
771.77	58.258
772.07	58.139
772.38	58.118
772.69	58.235
773.00	58.353
773.31	58.265
773.61	58.425
773.92	58.651
774.23	58.623
774.54	58.512
774.85	58.213
775.15	57.868
775.46	57.823
775.77	57.658
776.08	57.571
776.39	57.349
776.69	57.276
777.00	57.520
777.31	57.540
777.62	57.377
777.92	57.114
778.23	57.498
778.54	57.687
778.85	57.314
779.15	57.259
779.46	57.106
779.77	57.069
780.07	57.009
780.38	56.879
780.69	56.613
781.00	56.786
781.30	56.989
781.61	56.466
781.92	56.672
782.22	56.866
782.53	56.733
782.84	56.823
783.14	57.282
783.45	57.382
783.76	57.383
784.06	57.490
784.37	57.398
784.68	57.392
784.98	57.938
785.29	57.897
785.60	58.122
785.90	58.302
786.21	58.273
786.51	57.842
786.82	57.779
787.13	57.780
787.43	57.924
787.74	58.072
788.04	58.214
788.35	58.103
788.66	58.193
788.96	58.142
789.27	58.200
789.57	58.317
789.88	58.523
790.19	58.542
790.49	58.304
790.80	58.204
791.10	58.243
791.41	58.060
791.71	58.082
792.02	57.747
792.32	57.502
792.63	57.351
792.93	57.075
793.24	57.178
793.54	57.240
793.85	57.129
794.15	57.053
794.46	57.093
794.76	57.213
795.07	57.339
795.37	57.378
795.68	57.537
795.98	57.789
796.29	58.473
796.59	58.491
796.90	58.451
797.20	58.762
797.51	58.663
797.81	58.552
798.12	58.721
798.42	58.512
798.72	58.629
799.03	58.699
799.33	58.471
799.64	57.771
799.94	57.811
800.25	57.767
800.55	57.486
800.85	57.687
801.16	57.679
801.46	57.285
801.77	57.392
802.07	57.264
802.37	57.196
802.68	57.128
802.98	57.318
803.28	56.871
803.59	57.092
803.89	57.242
804.20	57.682
804.50	57.698
804.80	57.806
805.11	57.560
805.41	57.546
805.71	57.855
806.02	58.068
806.32	58.271
806.62	59.096
806.93	58.823
807.23	59.014
807.53	58.787
807.83	58.753
808.14	58.957
808.44	58.902
808.74	59.047
809.05	58.824
809.35	58.653
809.65	59.105
809.95	58.877
810.26	58.813
810.56	58.806
810.86	58.723
811.16	58.876
811.47	59.149
811.77	60.187
812.07	59.994
812.37	59.765
812.68	60.482
812.98	60.356
813.28	60.177
813.58	60.611
813.88	60.380
814.19	61.014
814.49	61.061
814.79	61.216
815.09	60.996
815.39	61.035
815.70	61.491
816.00	60.883
816.30	60.469
816.60	60.283
816.90	59.998
817.20	60.314
817.50	60.166
817.81	60.039
818.11	60.002
818.41	60.253
818.71	60.360
819.01	60.326
819.31	60.613
819.61	60.790
819.92	61.039
820.22	61.252
820.52	61.355
820.82	61.467
821.12	61.689
821.42	61.822
821.72	61.791
822.02	61.930
822.32	62.094
822.62	62.141
822.92	62.129
823.22	62.191
823.52	62.245
823.83	62.288
824.13	62.216
824.43	61.964
824.73	61.881
825.03	61.744
825.33	61.759
825.63	61.671
825.93	61.529
826.23	61.665
826.53	61.510
826.83	61.371
827.13	61.327
827.43	61.368
827.73	61.718
828.03	61.815
828.33	62.156
828.63	62.152
828.93	62.166
829.23	62.121
829.53	61.957
829.83	61.857
830.13	61.940
830.42	61.708
830.72	61.439
831.02	61.126
831.32	61.044
831.62	60.884
831.92	60.631
832.22	60.405
832.52	60.462
832.82	60.473
833.12	60.719
833.42	60.510
833.72	60.511
834.01	60.708
834.31	60.690
834.61	60.794
834.91	61.101
835.21	61.161
835.51	61.378
835.81	61.252
836.11	61.372
836.40	60.958
836.70	61.204
837.00	61.379
837.30	61.231
837.60	61.707
837.90	60.994
838.19	60.658
838.49	60.507
838.79	60.473
839.09	60.768
839.39	60.586
839.68	60.898
839.98	60.048
840.28	59.889
840.58	59.442
840.88	59.321
841.17	59.183
841.47	59.336
841.77	59.480
842.07	59.793
842.36	59.294
842.66	58.903
842.96	57.586
843.26	58.418
843.55	58.495
843.85	59.908
844.15	59.156
844.45	59.674
844.74	59.638
845.04	58.874
845.34	58.892
845.63	59.554
845.93	59.470
846.23	60.363
846.53	59.555
846.82	58.260
847.12	56.999
847.42	56.830
847.71	55.893
848.01	55.001
848.31	55.524
848.60	54.516
848.90	54.008
849.19	53.690
849.49	52.563
849.79	52.525
850.08	52.412
850.38	51.718
850.68	51.245
850.97	53.462
851.27	54.514
851.56	54.303
851.86	53.863
852.16	53.550
852.45	53.600
852.75	54.911
853.04	58.591
853.34	58.979
853.64	59.965
853.93	58.413
854.23	55.761
854.52	54.426
854.82	54.812
855.11	54.335
855.41	55.833
855.70	56.630
856.00	56.241
856.30	52.629
856.59	53.491
856.89	52.642
857.18	55.591
857.48	57.210
857.77	55.033
858.07	55.021
858.36	54.905
858.66	53.589
858.95	52.421
859.25	52.090
859.54	53.446
859.84	52.995
860.13	53.629
860.42	53.160
860.72	52.446
861.01	54.217
861.31	54.932
861.60	56.360
861.90	56.558
862.19	57.678
862.49	57.729
862.78	55.669
863.07	56.163
863.37	55.773
863.66	55.441
863.96	56.661
864.25	58.360
864.54	57.444
864.84	57.370
865.13	56.584
865.43	55.984
865.72	75.397
866.01	53.454
866.31	60.203
866.60	43.335
866.89	52.955
>>>>>End Spectral Data<<<<<
