OOIBase32 Version 2.0.0.6 Data File
++++++++++++++++++++++++++++++++++++
Date: 01-23-2012, 23:10:37
User: Valued Ocean Optics Customer
Spectrometer Serial Number: USB2E2917
Spectrometer Channel: Master
Integration Time (msec): 5
Spectra Averaged: 10
Boxcar Smoothing: 5
Correct for Electrical Dark: Enabled
Time Normalized: Disabled
Dual-beam Reference: Disabled
Reference Channel: Master
Temperature: Not acquired
Spectrometer Type: S2000
ADC Type: USB2000
Number of Pixels in File: 2048
Graph Title: 
>>>>>Begin Spectral Data<<<<<
180.30	0.000
180.67	0.000
181.03	-59.763
181.40	257.541
181.77	3764.755
182.14	80.527
182.51	381.147
182.88	-40.517
183.25	-36.207
183.62	13.199
183.99	45.774
184.36	-21.436
184.73	211.345
185.10	16.723
185.46	-513.433
185.83	221.382
186.20	1471.000
186.57	164.187
186.94	149.167
187.31	38.381
187.68	6.820
188.05	-41.862
188.42	1.417
188.78	57.391
189.15	472.741
189.52	-75.952
189.89	-18.800
190.26	-1.673
190.63	11.946
191.00	-4.035
191.37	-1.611
191.73	9.033
192.10	15.723
192.47	18.332
192.84	14.551
193.21	20.420
193.58	14.760
193.94	10.890
194.31	9.475
194.68	-4.137
195.05	-5.183
195.42	-3.942
195.79	-8.914
196.15	-23.722
196.52	-19.445
196.89	1.129
197.26	0.644
197.63	24.127
198.00	32.815
198.36	43.864
198.73	51.417
199.10	42.391
199.47	39.310
199.84	48.416
200.20	47.580
200.57	31.848
200.94	24.578
201.31	23.171
201.68	2.129
202.04	1.452
202.41	-11.345
202.78	-14.966
203.15	-3.586
203.51	-11.543
203.88	-27.536
204.25	-24.279
204.62	-29.162
204.98	-38.121
205.35	-52.665
205.72	-53.302
206.09	-53.361
206.46	-94.339
206.82	-73.220
207.19	-74.678
207.56	-117.870
207.92	-78.261
208.29	-106.580
208.66	-48.208
209.03	-51.067
209.39	-18.784
209.76	-15.932
210.13	-25.353
210.50	-5.461
210.86	13.912
211.23	6.244
211.60	16.747
211.96	2.224
212.33	5.372
212.70	-11.175
213.07	-2.796
213.43	-22.194
213.80	-28.404
214.17	-18.498
214.53	-9.871
214.90	-13.934
215.27	-3.770
215.63	-9.440
216.00	-3.442
216.37	-1.444
216.74	-7.753
217.10	0.260
217.47	3.802
217.84	11.623
218.20	7.309
218.57	3.923
218.94	6.302
219.30	-0.610
219.67	-6.402
220.04	-5.562
220.40	-1.923
220.77	-2.793
221.13	-2.247
221.50	0.514
221.87	-2.215
222.23	-4.040
222.60	-10.299
222.97	-11.411
223.33	-6.720
223.70	-0.634
224.07	0.677
224.43	-2.450
224.80	1.256
225.16	-2.012
225.53	-2.579
225.90	-3.651
226.26	-1.280
226.63	0.972
226.99	1.324
227.36	2.980
227.73	4.090
228.09	4.905
228.46	6.530
228.82	5.865
229.19	7.533
229.56	6.736
229.92	7.957
230.29	9.538
230.65	9.510
231.02	7.446
231.38	4.382
231.75	1.272
232.12	-1.331
232.48	-3.673
232.85	-4.445
233.21	-5.659
233.58	-5.651
233.94	-5.055
234.31	-5.952
234.68	-6.408
235.04	-5.030
235.41	-3.380
235.77	-1.296
236.14	0.362
236.50	2.011
236.87	2.456
237.23	2.614
237.60	2.225
237.96	1.946
238.33	1.058
238.69	0.676
239.06	0.557
239.42	0.534
239.79	0.018
240.15	0.132
240.52	0.502
240.88	0.828
241.25	0.453
241.61	0.768
241.98	0.747
242.34	0.810
242.71	0.954
243.07	1.289
243.44	1.076
243.80	1.100
244.17	0.783
244.53	0.081
244.90	-0.213
245.26	-0.048
245.63	-0.287
245.99	-0.480
246.36	-0.730
246.72	-0.483
247.09	-0.803
247.45	-0.605
247.81	-0.442
248.18	-0.522
248.54	-0.221
248.91	-0.543
249.27	-0.577
249.64	-0.207
250.00	-0.201
250.36	-0.091
250.73	-0.785
251.09	-0.674
251.46	-1.054
251.82	-1.567
252.19	-1.383
252.55	-1.736
252.91	-1.413
253.28	-1.945
253.64	-2.725
254.01	-2.425
254.37	-1.730
254.73	-0.991
255.10	-0.474
255.46	0.016
255.83	0.267
256.19	0.308
256.55	0.274
256.92	0.562
257.28	0.854
257.65	1.151
258.01	1.245
258.37	1.138
258.74	0.888
259.10	0.547
259.46	0.269
259.83	0.207
260.19	0.223
260.55	0.375
260.92	0.079
261.28	0.063
261.64	-0.131
262.01	-0.294
262.37	-0.161
262.73	0.045
263.10	0.588
263.46	0.968
263.82	0.961
264.19	0.666
264.55	0.243
264.91	0.182
265.28	-0.143
265.64	-0.002
266.00	-0.095
266.37	-0.358
266.73	-0.315
267.09	-0.374
267.46	-0.563
267.82	-0.579
268.18	-0.322
268.54	0.076
268.91	0.247
269.27	0.383
269.63	0.637
270.00	0.594
270.36	0.735
270.72	0.835
271.08	0.604
271.45	0.607
271.81	0.738
272.17	0.656
272.53	0.541
272.90	0.538
273.26	0.589
273.62	0.168
273.98	-0.106
274.35	-0.330
274.71	-0.414
275.07	-0.361
275.43	-0.330
275.80	-0.235
276.16	-0.175
276.52	0.101
276.88	-0.007
277.25	-0.040
277.61	-0.006
277.97	0.072
278.33	0.286
278.69	0.107
279.06	0.112
279.42	0.056
279.78	-0.085
280.14	-0.090
280.50	-0.146
280.87	0.061
281.23	-0.005
281.59	0.038
281.95	0.376
282.31	0.435
282.68	0.402
283.04	0.369
283.40	0.470
283.76	0.489
284.12	0.479
284.48	0.346
284.85	0.342
285.21	0.419
285.57	0.457
285.93	0.313
286.29	0.071
286.65	0.207
287.02	0.557
287.38	0.549
287.74	0.543
288.10	0.554
288.46	0.590
288.82	0.485
289.18	0.398
289.54	0.415
289.91	0.545
290.27	0.637
290.63	0.790
290.99	0.584
291.35	0.555
291.71	0.623
292.07	0.726
292.43	0.644
292.79	0.756
293.16	0.873
293.52	1.041
293.88	1.149
294.24	1.114
294.60	1.005
294.96	0.947
295.32	0.985
295.68	0.959
296.04	0.843
296.40	0.987
296.76	0.948
297.12	0.792
297.49	0.636
297.85	0.259
298.21	0.349
298.57	0.151
298.93	0.109
299.29	-0.020
299.65	0.007
300.01	-0.012
300.37	-0.074
300.73	-0.012
301.09	0.095
301.45	0.115
301.81	0.401
302.17	0.419
302.53	0.442
302.89	0.398
303.25	0.478
303.61	0.343
303.97	0.238
304.33	0.226
304.69	0.113
305.05	0.026
305.41	0.021
305.77	-0.018
306.13	-0.088
306.49	-0.053
306.85	0.047
307.21	0.050
307.57	0.173
307.93	0.353
308.29	0.486
308.65	0.610
309.01	0.782
309.37	0.786
309.73	0.774
310.09	0.881
310.45	0.981
310.81	0.891
311.17	0.904
311.53	0.774
311.89	0.717
312.25	0.666
312.61	0.567
312.96	0.503
313.32	0.600
313.68	0.540
314.04	0.451
314.40	0.419
314.76	0.440
315.12	0.385
315.48	0.505
315.84	0.443
316.20	0.373
316.56	0.299
316.92	0.198
317.27	-0.010
317.63	0.005
317.99	-0.010
318.35	0.024
318.71	0.104
319.07	0.130
319.43	0.090
319.79	0.208
320.15	0.240
320.50	0.336
320.86	0.366
321.22	0.411
321.58	0.387
321.94	0.367
322.30	0.292
322.66	0.212
323.01	0.246
323.37	0.278
323.73	0.209
324.09	0.161
324.45	0.136
324.81	0.159
325.17	0.278
325.52	0.232
325.88	0.177
326.24	0.216
326.60	0.199
326.96	0.127
327.31	0.078
327.67	-0.001
328.03	-0.030
328.39	-0.167
328.75	-0.147
329.11	-0.203
329.46	-0.130
329.82	-0.059
330.18	-0.097
330.54	-0.090
330.90	-0.101
331.25	-0.094
331.61	0.038
331.97	0.085
332.33	0.274
332.68	0.313
333.04	0.273
333.40	0.214
333.76	0.211
334.11	0.191
334.47	0.255
334.83	0.331
335.19	0.318
335.54	0.313
335.90	0.319
336.26	0.245
336.62	0.109
336.97	0.032
337.33	-0.039
337.69	-0.065
338.05	-0.139
338.40	-0.236
338.76	-0.321
339.12	-0.246
339.48	-0.373
339.83	-0.464
340.19	-0.461
340.55	-0.421
340.90	-0.410
341.26	-0.324
341.62	-0.381
341.97	-0.331
342.33	-0.288
342.69	-0.232
343.04	-0.284
343.40	-0.269
343.76	-0.229
344.12	-0.207
344.47	-0.100
344.83	-0.016
345.19	-0.010
345.54	0.035
345.90	0.091
346.26	0.143
346.61	0.183
346.97	0.199
347.32	0.242
347.68	0.219
348.04	0.236
348.39	0.116
348.75	0.054
349.11	-0.015
349.46	-0.058
349.82	-0.089
350.18	-0.134
350.53	-0.231
350.89	-0.300
351.24	-0.323
351.60	-0.282
351.96	-0.272
352.31	-0.246
352.67	-0.158
353.02	-0.130
353.38	-0.124
353.74	-0.093
354.09	-0.148
354.45	-0.098
354.80	-0.073
355.16	-0.054
355.52	-0.065
355.87	-0.134
356.23	-0.119
356.58	-0.174
356.94	-0.164
357.29	-0.127
357.65	-0.127
358.00	-0.059
358.36	-0.092
358.72	-0.094
359.07	-0.103
359.43	-0.091
359.78	-0.017
360.14	-0.028
360.49	-0.037
360.85	-0.041
361.20	-0.052
361.56	-0.112
361.91	-0.131
362.27	-0.078
362.62	-0.028
362.98	-0.034
363.33	-0.061
363.69	-0.133
364.04	-0.096
364.40	-0.099
364.75	-0.116
365.11	-0.128
365.46	-0.135
365.82	-0.135
366.17	-0.176
366.53	-0.198
366.88	-0.170
367.24	-0.150
367.59	-0.100
367.95	-0.083
368.30	-0.072
368.66	-0.006
369.01	0.009
369.37	0.069
369.72	0.129
370.08	0.137
370.43	0.132
370.78	0.115
371.14	0.088
371.49	0.089
371.85	0.054
372.20	0.046
372.56	0.026
372.91	0.030
373.26	0.022
373.62	-0.038
373.97	-0.024
374.33	-0.029
374.68	-0.030
375.03	0.020
375.39	-0.028
375.74	-0.051
376.10	-0.039
376.45	-0.048
376.80	-0.040
377.16	-0.063
377.51	-0.024
377.87	-0.011
378.22	-0.047
378.57	-0.057
378.93	-0.077
379.28	-0.024
379.63	-0.025
379.99	0.029
380.34	0.019
380.70	-0.007
381.05	0.030
381.40	-0.012
381.76	0.011
382.11	0.051
382.46	0.094
382.82	0.118
383.17	0.077
383.52	0.063
383.88	-0.013
384.23	-0.017
384.58	-0.029
384.94	-0.067
385.29	-0.052
385.64	-0.074
385.99	-0.057
386.35	-0.077
386.70	-0.087
387.05	-0.100
387.41	-0.096
387.76	-0.088
388.11	-0.075
388.47	-0.056
388.82	-0.052
389.17	-0.030
389.52	-0.023
389.88	0.001
390.23	0.024
390.58	0.071
390.93	0.119
391.29	0.150
391.64	0.190
391.99	0.227
392.34	0.236
392.70	0.255
393.05	0.231
393.40	0.221
393.75	0.177
394.11	0.149
394.46	0.091
394.81	0.075
395.16	0.061
395.52	0.042
395.87	0.010
396.22	0.055
396.57	0.029
396.92	0.020
397.28	0.024
397.63	0.002
397.98	0.020
398.33	0.012
398.68	-0.010
399.04	-0.011
399.39	-0.006
399.74	-0.012
400.09	-0.046
400.44	-0.007
400.80	0.008
401.15	-0.029
401.50	0.016
401.85	0.026
402.20	0.053
402.55	0.077
402.90	0.051
403.26	0.042
403.61	0.036
403.96	0.001
404.31	-0.018
404.66	-0.020
405.01	-0.010
405.36	-0.027
405.72	-0.061
406.07	-0.095
406.42	-0.108
406.77	-0.081
407.12	-0.081
407.47	-0.093
407.82	-0.067
408.17	-0.057
408.53	-0.087
408.88	-0.098
409.23	-0.130
409.58	-0.139
409.93	-0.119
410.28	-0.103
410.63	-0.129
410.98	-0.131
411.33	-0.100
411.68	-0.081
412.03	-0.083
412.38	-0.057
412.73	-0.003
413.09	0.048
413.44	0.092
413.79	0.133
414.14	0.144
414.49	0.179
414.84	0.201
415.19	0.221
415.54	0.251
415.89	0.276
416.24	0.334
416.59	0.348
416.94	0.364
417.29	0.393
417.64	0.387
417.99	0.412
418.34	0.437
418.69	0.469
419.04	0.461
419.39	0.470
419.74	0.482
420.09	0.479
420.44	0.489
420.79	0.489
421.14	0.482
421.49	0.495
421.84	0.491
422.19	0.497
422.54	0.471
422.89	0.484
423.24	0.467
423.59	0.460
423.94	0.440
424.29	0.419
424.64	0.421
424.99	0.410
425.34	0.381
425.68	0.363
426.03	0.328
426.38	0.329
426.73	0.314
427.08	0.305
427.43	0.310
427.78	0.327
428.13	0.331
428.48	0.330
428.83	0.337
429.18	0.370
429.53	0.377
429.87	0.374
430.22	0.370
430.57	0.392
430.92	0.389
431.27	0.384
431.62	0.354
431.97	0.348
432.32	0.337
432.67	0.328
433.01	0.304
433.36	0.296
433.71	0.303
434.06	0.298
434.41	0.272
434.76	0.289
435.11	0.281
435.45	0.297
435.80	0.293
436.15	0.304
436.50	0.314
436.85	0.339
437.20	0.334
437.54	0.337
437.89	0.353
438.24	0.364
438.59	0.354
438.94	0.352
439.29	0.344
439.63	0.353
439.98	0.336
440.33	0.323
440.68	0.312
441.03	0.326
441.37	0.333
441.72	0.333
442.07	0.330
442.42	0.354
442.76	0.367
443.11	0.381
443.46	0.393
443.81	0.411
444.16	0.424
444.50	0.426
444.85	0.427
445.20	0.424
445.55	0.422
445.89	0.422
446.24	0.404
446.59	0.381
446.94	0.362
447.28	0.336
447.63	0.304
447.98	0.290
448.32	0.268
448.67	0.238
449.02	0.228
449.37	0.194
449.71	0.189
450.06	0.186
450.41	0.193
450.75	0.191
451.10	0.192
451.45	0.188
451.79	0.178
452.14	0.168
452.49	0.168
452.84	0.156
453.18	0.160
453.53	0.140
453.88	0.129
454.22	0.130
454.57	0.140
454.92	0.153
455.26	0.178
455.61	0.203
455.95	0.227
456.30	0.248
456.65	0.284
456.99	0.309
457.34	0.339
457.69	0.361
458.03	0.373
458.38	0.390
458.73	0.388
459.07	0.377
459.42	0.352
459.76	0.334
460.11	0.308
460.46	0.263
460.80	0.224
461.15	0.182
461.49	0.146
461.84	0.124
462.19	0.082
462.53	0.079
462.88	0.079
463.22	0.071
463.57	0.071
463.91	0.079
464.26	0.102
464.61	0.125
464.95	0.115
465.30	0.115
465.64	0.127
465.99	0.146
466.33	0.150
466.68	0.144
467.02	0.145
467.37	0.136
467.71	0.122
468.06	0.107
468.41	0.076
468.75	0.083
469.10	0.077
469.44	0.058
469.79	0.031
470.13	-0.018
470.48	-0.028
470.82	-0.039
471.17	-0.031
471.51	-0.044
471.86	-0.068
472.20	-0.073
472.55	-0.086
472.89	-0.099
473.23	-0.115
473.58	-0.123
473.92	-0.115
474.27	-0.129
474.61	-0.142
474.96	-0.160
475.30	-0.151
475.65	-0.150
475.99	-0.146
476.34	-0.140
476.68	-0.128
477.02	-0.117
477.37	-0.096
477.71	-0.074
478.06	-0.029
478.40	0.046
478.75	0.111
479.09	0.195
479.43	0.273
479.78	0.342
480.12	0.406
480.47	0.463
480.81	0.519
481.15	0.562
481.50	0.612
481.84	0.657
482.19	0.688
482.53	0.721
482.87	0.734
483.22	0.732
483.56	0.717
483.90	0.696
484.25	0.667
484.59	0.638
484.94	0.607
485.28	0.582
485.62	0.540
485.97	0.502
486.31	0.467
486.65	0.441
487.00	0.423
487.34	0.416
487.68	0.406
488.03	0.399
488.37	0.383
488.71	0.373
489.06	0.353
489.40	0.353
489.74	0.345
490.09	0.327
490.43	0.304
490.77	0.272
491.11	0.239
491.46	0.215
491.80	0.179
492.14	0.146
492.49	0.123
492.83	0.082
493.17	0.029
493.51	-0.013
493.86	-0.042
494.20	-0.071
494.54	-0.074
494.88	-0.066
495.23	-0.064
495.57	-0.053
495.91	-0.033
496.25	-0.028
496.60	-0.021
496.94	-0.018
497.28	-0.013
497.62	-0.020
497.97	-0.019
498.31	-0.017
498.65	-0.022
498.99	-0.027
499.33	-0.011
499.68	-0.008
500.02	0.009
500.36	0.027
500.70	0.056
501.04	0.070
501.39	0.075
501.73	0.092
502.07	0.119
502.41	0.146
502.75	0.178
503.09	0.195
503.44	0.220
503.78	0.232
504.12	0.260
504.46	0.304
504.80	0.357
505.14	0.425
505.49	0.477
505.83	0.521
506.17	0.567
506.51	0.614
506.85	0.676
507.19	0.734
507.53	0.799
507.87	0.860
508.22	0.896
508.56	0.936
508.90	0.972
509.24	1.033
509.58	1.078
509.92	1.135
510.26	1.202
510.60	1.252
510.94	1.311
511.28	1.367
511.63	1.433
511.97	1.529
512.31	1.620
512.65	1.721
512.99	1.813
513.33	1.946
513.67	2.075
514.01	2.217
514.35	2.353
514.69	2.501
515.03	2.652
515.37	2.798
515.71	2.925
516.05	3.044
516.39	3.158
516.73	3.270
517.07	3.378
517.41	3.472
517.75	3.552
518.09	3.641
518.43	3.723
518.77	3.790
519.11	3.866
519.45	3.944
519.79	4.064
520.13	4.187
520.47	4.322
520.81	4.459
521.15	4.636
521.49	4.801
521.83	4.971
522.17	5.132
522.51	5.337
522.85	5.549
523.19	5.795
523.53	6.039
523.87	6.293
524.21	6.532
524.55	6.736
524.89	6.927
525.23	7.111
525.57	7.278
525.91	7.443
526.25	7.564
526.58	7.683
526.92	7.787
527.26	7.867
527.60	7.926
527.94	7.977
528.28	8.038
528.62	8.077
528.96	8.128
529.30	8.179
529.64	8.220
529.97	8.273
530.31	8.318
530.65	8.369
530.99	8.436
531.33	8.516
531.67	8.595
532.01	8.663
532.35	8.728
532.68	8.781
533.02	8.815
533.36	8.868
533.70	8.914
534.04	8.962
534.38	8.995
534.71	9.024
535.05	9.052
535.39	9.089
535.73	9.129
536.07	9.203
536.41	9.258
536.74	9.337
537.08	9.382
537.42	9.456
537.76	9.539
538.10	9.619
538.43	9.689
538.77	9.765
539.11	9.840
539.45	9.888
539.79	9.935
540.12	9.974
540.46	9.988
540.80	10.011
541.14	10.021
541.47	10.000
541.81	9.995
542.15	9.991
542.49	9.978
542.82	9.951
543.16	9.935
543.50	9.911
543.84	9.899
544.17	9.900
544.51	9.915
544.85	9.921
545.18	9.949
545.52	9.954
545.86	9.951
546.20	9.961
546.53	9.965
546.87	9.960
547.21	9.950
547.54	9.943
547.88	9.930
548.22	9.918
548.55	9.910
548.89	9.899
549.23	9.890
549.56	9.900
549.90	9.901
550.24	9.912
550.57	9.935
550.91	9.924
551.25	9.930
551.58	9.932
551.92	9.913
552.26	9.903
552.59	9.883
552.93	9.870
553.27	9.835
553.60	9.806
553.94	9.745
554.27	9.723
554.61	9.715
554.95	9.669
555.28	9.646
555.62	9.610
555.95	9.588
556.29	9.583
556.63	9.542
556.96	9.510
557.30	9.455
557.63	9.402
557.97	9.340
558.31	9.266
558.64	9.217
558.98	9.161
559.31	9.129
559.65	9.053
559.98	8.973
560.32	8.910
560.65	8.850
560.99	8.793
561.33	8.735
561.66	8.666
562.00	8.600
562.33	8.552
562.67	8.478
563.00	8.401
563.34	8.345
563.67	8.265
564.01	8.192
564.34	8.109
564.68	8.040
565.01	7.984
565.35	7.916
565.68	7.853
566.02	7.753
566.35	7.673
566.69	7.565
567.02	7.492
567.36	7.407
567.69	7.328
568.03	7.272
568.36	7.179
568.69	7.082
569.03	6.987
569.36	6.895
569.70	6.804
570.03	6.721
570.37	6.668
570.70	6.574
571.04	6.486
571.37	6.393
571.70	6.296
572.04	6.222
572.37	6.162
572.71	6.086
573.04	6.004
573.37	5.958
573.71	5.886
574.04	5.797
574.38	5.707
574.71	5.658
575.04	5.596
575.38	5.518
575.71	5.437
576.05	5.338
576.38	5.288
576.71	5.198
577.05	5.092
577.38	4.997
577.71	4.911
578.05	4.831
578.38	4.741
578.71	4.665
579.05	4.596
579.38	4.518
579.71	4.456
580.05	4.335
580.38	4.275
580.71	4.232
581.05	4.198
581.38	4.155
581.71	4.142
582.05	4.097
582.38	4.069
582.71	4.034
583.04	4.020
583.38	3.971
583.71	3.971
584.04	3.953
584.38	3.921
584.71	3.904
585.04	3.889
585.37	3.851
585.71	3.843
586.04	3.818
586.37	3.806
586.70	3.775
587.04	3.787
587.37	3.790
587.70	3.776
588.03	3.766
588.37	3.740
588.70	3.702
589.03	3.684
589.36	3.659
589.69	3.614
590.03	3.573
590.36	3.531
590.69	3.502
591.02	3.449
591.35	3.438
591.69	3.413
592.02	3.378
592.35	3.399
592.68	3.403
593.01	3.382
593.35	3.391
593.68	3.393
594.01	3.383
594.34	3.355
594.67	3.350
595.00	3.313
595.34	3.267
595.67	3.229
596.00	3.169
596.33	3.092
596.66	3.036
596.99	2.979
597.32	2.902
597.65	2.868
597.99	2.806
598.32	2.737
598.65	2.688
598.98	2.666
599.31	2.645
599.64	2.627
599.97	2.633
600.30	2.625
600.63	2.607
600.96	2.619
601.30	2.628
601.63	2.633
601.96	2.643
602.29	2.653
602.62	2.635
602.95	2.607
603.28	2.581
603.61	2.529
603.94	2.485
604.27	2.473
604.60	2.416
604.93	2.374
605.26	2.333
605.59	2.272
605.92	2.215
606.25	2.166
606.58	2.133
606.91	2.073
607.24	2.055
607.57	2.036
607.90	1.983
608.23	1.948
608.56	1.862
608.89	1.788
609.22	1.718
609.55	1.660
609.88	1.571
610.21	1.522
610.54	1.448
610.87	1.380
611.20	1.295
611.53	1.217
611.86	1.149
612.19	1.088
612.52	1.020
612.85	0.993
613.18	0.941
613.51	0.908
613.84	0.817
614.17	0.792
614.49	0.753
614.82	0.698
615.15	0.657
615.48	0.636
615.81	0.609
616.14	0.607
616.47	0.562
616.80	0.493
617.13	0.475
617.46	0.458
617.78	0.389
618.11	0.342
618.44	0.317
618.77	0.276
619.10	0.238
619.43	0.218
619.76	0.161
620.09	0.156
620.41	0.169
620.74	0.143
621.07	0.165
621.40	0.199
621.73	0.199
622.06	0.217
622.38	0.243
622.71	0.239
623.04	0.284
623.37	0.339
623.70	0.345
624.02	0.363
624.35	0.390
624.68	0.400
625.01	0.438
625.34	0.448
625.66	0.463
625.99	0.484
626.32	0.511
626.65	0.492
626.98	0.472
627.30	0.467
627.63	0.431
627.96	0.408
628.29	0.388
628.61	0.338
628.94	0.319
629.27	0.296
629.60	0.213
629.92	0.194
630.25	0.154
630.58	0.112
630.91	0.087
631.23	0.085
631.56	0.055
631.89	0.001
632.21	-0.027
632.54	-0.055
632.87	-0.114
633.19	-0.124
633.52	-0.203
633.85	-0.228
634.18	-0.258
634.50	-0.321
634.83	-0.398
635.16	-0.452
635.48	-0.524
635.81	-0.600
636.14	-0.670
636.46	-0.709
636.79	-0.761
637.11	-0.799
637.44	-0.888
637.77	-0.950
638.09	-0.996
638.42	-1.047
638.75	-1.079
639.07	-1.078
639.40	-1.106
639.73	-1.140
640.05	-1.185
640.38	-1.191
640.70	-1.253
641.03	-1.274
641.36	-1.291
641.68	-1.315
642.01	-1.321
642.33	-1.352
642.66	-1.390
642.98	-1.430
643.31	-1.467
643.64	-1.504
643.96	-1.534
644.29	-1.538
644.61	-1.557
644.94	-1.573
645.26	-1.570
645.59	-1.534
645.91	-1.533
646.24	-1.522
646.56	-1.497
646.89	-1.454
647.22	-1.437
647.54	-1.441
647.87	-1.412
648.19	-1.451
648.52	-1.441
648.84	-1.448
649.17	-1.509
649.49	-1.530
649.82	-1.562
650.14	-1.567
650.47	-1.623
650.79	-1.594
651.11	-1.619
651.44	-1.640
651.76	-1.611
652.09	-1.584
652.41	-1.589
652.74	-1.571
653.06	-1.548
653.39	-1.512
653.71	-1.487
654.04	-1.468
654.36	-1.480
654.68	-1.435
655.01	-1.416
655.33	-1.351
655.66	-1.348
655.98	-1.312
656.30	-1.333
656.63	-1.343
656.95	-1.355
657.28	-1.330
657.60	-1.357
657.92	-1.367
658.25	-1.415
658.57	-1.414
658.90	-1.462
659.22	-1.506
659.54	-1.573
659.87	-1.584
660.19	-1.614
660.51	-1.664
660.84	-1.763
661.16	-1.801
661.48	-1.836
661.81	-1.837
662.13	-1.898
662.45	-1.919
662.78	-1.924
663.10	-1.866
663.42	-1.855
663.75	-1.826
664.07	-1.814
664.39	-1.797
664.72	-1.759
665.04	-1.771
665.36	-1.739
665.69	-1.689
666.01	-1.630
666.33	-1.634
666.65	-1.667
666.98	-1.586
667.30	-1.532
667.62	-1.476
667.94	-1.395
668.27	-1.308
668.59	-1.210
668.91	-1.120
669.23	-1.071
669.56	-1.050
669.88	-0.961
670.20	-0.910
670.52	-0.882
670.85	-0.870
671.17	-0.772
671.49	-0.754
671.81	-0.685
672.13	-0.661
672.46	-0.653
672.78	-0.610
673.10	-0.495
673.42	-0.421
673.74	-0.315
674.07	-0.207
674.39	-0.033
674.71	0.021
675.03	0.175
675.35	0.296
675.67	0.430
676.00	0.585
676.32	0.692
676.64	0.800
676.96	0.928
677.28	1.046
677.60	1.166
677.92	1.239
678.25	1.362
678.57	1.429
678.89	1.482
679.21	1.540
679.53	1.583
679.85	1.673
680.17	1.723
680.49	1.791
680.81	1.869
681.13	1.862
681.46	1.941
681.78	2.011
682.10	2.063
682.42	2.151
682.74	2.268
683.06	2.380
683.38	2.522
683.70	2.676
684.02	2.805
684.34	2.946
684.66	3.140
684.98	3.226
685.30	3.343
685.62	3.475
685.94	3.529
686.26	3.583
686.58	3.630
686.90	3.689
687.22	3.712
687.54	3.711
687.86	3.735
688.18	3.727
688.50	3.781
688.82	3.761
689.14	3.808
689.46	3.942
689.78	4.028
690.10	4.138
690.42	4.223
690.74	4.381
691.06	4.577
691.38	4.718
691.70	4.933
692.02	5.141
692.34	5.384
692.66	5.594
692.98	5.798
693.30	6.119
693.62	6.432
693.94	6.720
694.26	6.966
694.57	7.259
694.89	7.588
695.21	7.888
695.53	8.151
695.85	8.488
696.17	8.783
696.49	9.107
696.81	9.382
697.13	9.675
697.44	10.008
697.76	10.365
698.08	10.706
698.40	11.030
698.72	11.412
699.04	11.825
699.36	12.238
699.67	12.659
699.99	13.068
700.31	13.533
700.63	13.988
700.95	14.465
701.27	14.963
701.58	15.356
701.90	15.794
702.22	16.274
702.54	16.682
702.86	17.187
703.17	17.624
703.49	18.121
703.81	18.565
704.13	19.076
704.45	19.497
704.76	19.860
705.08	20.391
705.40	20.834
705.72	21.245
706.03	21.748
706.35	22.128
706.67	22.550
706.99	22.919
707.30	23.348
707.62	23.772
707.94	24.252
708.26	24.646
708.57	24.981
708.89	25.443
709.21	25.798
709.53	26.134
709.84	26.448
710.16	26.853
710.48	27.286
710.79	27.676
711.11	28.009
711.43	28.344
711.74	28.760
712.06	29.233
712.38	29.626
712.69	30.061
713.01	30.469
713.33	30.985
713.64	31.525
713.96	31.923
714.28	32.368
714.59	32.875
714.91	33.339
715.23	33.829
715.54	34.124
715.86	34.645
716.17	35.073
716.49	35.568
716.81	36.000
717.12	36.348
717.44	36.827
717.76	37.348
718.07	37.652
718.39	38.088
718.70	38.479
719.02	38.961
719.33	39.230
719.65	39.559
719.97	39.816
720.28	40.111
720.60	40.528
720.91	40.979
721.23	41.340
721.54	41.817
721.86	42.180
722.17	42.465
722.49	42.991
722.81	43.388
723.12	43.804
723.44	44.143
723.75	44.488
724.07	44.787
724.38	45.050
724.70	45.317
725.01	45.564
725.33	45.755
725.64	46.126
725.96	46.281
726.27	46.484
726.59	46.825
726.90	47.229
727.22	47.474
727.53	47.781
727.84	47.988
728.16	48.238
728.47	48.483
728.79	48.874
729.10	49.106
729.42	49.430
729.73	49.733
730.05	49.888
730.36	50.058
730.67	50.347
730.99	50.511
731.30	50.750
731.62	51.010
731.93	51.258
732.24	51.401
732.56	51.610
732.87	51.761
733.19	52.008
733.50	52.231
733.81	52.479
734.13	52.678
734.44	52.957
734.76	53.102
735.07	53.380
735.38	53.564
735.70	53.912
736.01	54.134
736.32	54.301
736.64	54.487
736.95	54.617
737.26	54.683
737.58	54.890
737.89	55.039
738.20	55.249
738.52	55.307
738.83	55.528
739.14	55.547
739.45	55.726
739.77	55.942
740.08	56.011
740.39	56.126
740.71	56.352
741.02	56.484
741.33	56.612
741.64	56.807
741.96	56.983
742.27	57.070
742.58	57.293
742.90	57.265
743.21	57.442
743.52	57.639
743.83	57.928
744.14	58.076
744.46	58.256
744.77	58.632
745.08	58.723
745.39	58.728
745.71	58.749
746.02	58.834
746.33	59.082
746.64	59.133
746.95	59.114
747.27	59.212
747.58	59.285
747.89	59.206
748.20	58.819
748.51	58.922
748.82	58.869
749.14	58.931
749.45	58.940
749.76	58.947
750.07	58.988
750.38	59.062
750.69	59.030
751.01	59.109
751.32	59.149
751.63	59.475
751.94	59.371
752.25	59.347
752.56	59.323
752.87	59.190
753.18	59.055
753.49	59.183
753.81	59.203
754.12	59.115
754.43	59.119
754.74	59.076
755.05	59.004
755.36	59.022
755.67	59.221
755.98	59.492
756.29	59.534
756.60	59.795
756.91	59.663
757.22	59.900
757.53	60.162
757.84	60.382
758.15	60.617
758.46	60.695
758.77	60.742
759.09	60.741
759.40	60.680
759.71	60.844
760.02	60.745
760.33	60.650
760.64	60.522
760.95	60.488
761.26	60.266
761.57	60.142
761.88	60.058
762.18	60.050
762.49	59.902
762.80	59.885
763.11	59.779
763.42	59.639
763.73	59.629
764.04	59.543
764.35	59.410
764.66	59.389
764.97	59.320
765.28	59.320
765.59	59.122
765.90	59.074
766.21	58.854
766.52	58.690
766.83	58.765
767.14	58.791
767.44	58.592
767.75	58.498
768.06	58.429
768.37	58.176
768.68	57.950
768.99	57.900
769.30	57.939
769.61	57.636
769.91	57.869
770.22	57.706
770.53	57.520
770.84	57.480
771.15	57.547
771.46	57.356
771.77	57.421
772.07	57.257
772.38	57.294
772.69	57.227
773.00	57.463
773.31	57.035
773.61	57.037
773.92	56.919
774.23	56.937
774.54	56.813
774.85	56.715
775.15	56.792
775.46	57.035
775.77	56.931
776.08	56.828
776.39	56.401
776.69	56.494
777.00	56.423
777.31	56.523
777.62	56.513
777.92	56.308
778.23	56.514
778.54	56.307
778.85	55.986
779.15	55.985
779.46	55.798
779.77	56.247
780.07	56.263
780.38	56.355
780.69	56.460
781.00	56.639
781.30	56.727
781.61	56.294
781.92	56.442
782.22	56.799
782.53	56.719
782.84	57.195
783.14	57.230
783.45	57.179
783.76	57.430
784.06	57.203
784.37	56.801
784.68	57.000
784.98	57.267
785.29	57.420
785.60	57.236
785.90	57.505
786.21	57.377
786.51	57.366
786.82	57.444
787.13	57.379
787.43	57.561
787.74	57.868
788.04	57.969
788.35	58.306
788.66	58.090
788.96	58.441
789.27	58.705
789.57	58.510
789.88	58.580
790.19	58.560
790.49	58.451
790.80	58.361
791.10	58.393
791.41	58.401
791.71	58.380
792.02	58.209
792.32	57.787
792.63	57.370
792.93	57.358
793.24	57.170
793.54	57.393
793.85	57.458
794.15	57.528
794.46	57.445
794.76	57.197
795.07	57.357
795.37	57.896
795.68	57.911
795.98	58.284
796.29	58.903
796.59	58.940
796.90	58.937
797.20	58.628
797.51	58.417
797.81	58.401
798.12	58.510
798.42	58.234
798.72	58.218
799.03	58.443
799.33	58.135
799.64	58.084
799.94	58.065
800.25	57.691
800.55	57.790
800.85	58.270
801.16	58.459
801.46	58.073
801.77	58.096
802.07	57.762
802.37	57.328
802.68	56.920
802.98	56.614
803.28	56.536
803.59	56.783
803.89	57.206
804.20	57.274
804.50	56.992
804.80	57.620
805.11	57.412
805.41	57.699
805.71	57.981
806.02	58.354
806.32	58.517
806.62	58.750
806.93	58.769
807.23	58.884
807.53	58.974
807.83	59.372
808.14	59.345
808.44	59.179
808.74	59.079
809.05	59.325
809.35	58.906
809.65	58.818
809.95	58.873
810.26	58.689
810.56	58.460
810.86	58.348
811.16	58.600
811.47	59.002
811.77	59.558
812.07	59.381
812.37	59.196
812.68	59.959
812.98	60.097
813.28	60.127
813.58	60.665
813.88	60.524
814.19	60.683
814.49	60.445
814.79	60.245
815.09	60.509
815.39	60.886
815.70	61.445
816.00	61.304
816.30	61.245
816.60	61.309
816.90	60.751
817.20	61.079
817.50	60.805
817.81	60.513
818.11	60.254
818.41	60.214
818.71	60.175
819.01	60.196
819.31	60.591
819.61	60.768
819.92	60.993
820.22	61.427
820.52	61.597
820.82	61.892
821.12	62.198
821.42	62.505
821.72	62.708
822.02	63.041
822.32	63.398
822.62	63.655
822.92	63.870
823.22	64.120
823.52	64.250
823.83	64.404
824.13	64.421
824.43	64.286
824.73	64.267
825.03	64.272
825.33	64.248
825.63	64.055
825.93	63.827
826.23	63.794
826.53	63.547
826.83	63.334
827.13	63.312
827.43	63.296
827.73	63.949
828.03	64.182
828.33	64.440
828.63	64.449
828.93	64.275
829.23	64.332
829.53	64.400
829.83	64.289
830.13	64.093
830.42	63.527
830.72	63.466
831.02	62.972
831.32	62.541
831.62	62.101
831.92	61.983
832.22	61.967
832.52	61.670
832.82	61.422
833.12	61.483
833.42	61.630
833.72	61.959
834.01	62.104
834.31	61.950
834.61	62.096
834.91	62.676
835.21	62.845
835.51	63.164
835.81	63.154
836.11	63.427
836.40	63.468
836.70	63.607
837.00	63.576
837.30	63.216
837.60	63.733
837.90	63.857
838.19	63.211
838.49	63.315
838.79	62.839
839.09	63.030
839.39	63.203
839.68	63.763
839.98	63.376
840.28	62.839
840.58	63.245
840.88	63.233
841.17	63.032
841.47	63.426
841.77	62.599
842.07	63.290
842.36	63.567
842.66	62.804
842.96	61.158
843.26	60.697
843.55	61.531
843.85	61.319
844.15	60.750
844.45	60.382
844.74	60.611
845.04	60.328
845.34	60.107
845.63	59.143
845.93	59.456
846.23	60.838
846.53	60.805
846.82	60.879
847.12	60.381
847.42	60.109
847.71	59.451
848.01	58.490
848.31	58.296
848.60	56.953
848.90	55.630
849.19	55.921
849.49	55.686
849.79	56.931
850.08	56.446
850.38	55.675
850.68	55.241
850.97	56.571
851.27	56.370
851.56	58.515
851.86	58.249
852.16	62.033
852.45	62.377
852.75	62.548
853.04	64.261
853.34	64.465
853.64	64.438
853.93	62.864
854.23	62.183
854.52	63.681
854.82	64.222
855.11	64.885
855.41	64.143
855.70	64.669
856.00	63.752
856.30	61.845
856.59	62.352
856.89	64.020
857.18	66.794
857.48	66.926
857.77	64.232
858.07	63.311
858.36	61.533
858.66	59.835
858.95	58.988
859.25	60.362
859.54	60.583
859.84	60.299
860.13	57.640
860.42	56.532
860.72	56.523
861.01	58.032
861.31	58.982
861.60	62.081
861.90	63.593
862.19	63.734
862.49	63.622
862.78	62.668
863.07	63.110
863.37	66.625
863.66	65.799
863.96	67.507
864.25	67.931
864.54	67.995
864.84	67.439
865.13	66.807
865.43	67.587
865.72	70.543
866.01	77.767
866.31	64.979
866.60	59.578
866.89	73.370
>>>>>End Spectral Data<<<<<
