OOIBase32 Version 2.0.0.6 Data File
++++++++++++++++++++++++++++++++++++
Date: 01-23-2012, 23:11:30
User: Valued Ocean Optics Customer
Spectrometer Serial Number: USB2E2917
Spectrometer Channel: Master
Integration Time (msec): 5
Spectra Averaged: 10
Boxcar Smoothing: 5
Correct for Electrical Dark: Enabled
Time Normalized: Disabled
Dual-beam Reference: Disabled
Reference Channel: Master
Temperature: Not acquired
Spectrometer Type: S2000
ADC Type: USB2000
Number of Pixels in File: 2048
Graph Title: 
>>>>>Begin Spectral Data<<<<<
180.30	0.000
180.67	0.000
181.03	-27.546
181.40	901.272
181.77	2048.547
182.14	52.681
182.51	-423.306
182.88	135.235
183.25	43.746
183.62	-27.542
183.99	325.612
184.36	-0.908
184.73	332.174
185.10	71.914
185.46	471.278
185.83	-219.884
186.20	1328.017
186.57	111.672
186.94	46.168
187.31	24.913
187.68	-107.712
188.05	6.048
188.42	38.085
188.78	30.212
189.15	38.716
189.52	36.019
189.89	9.400
190.26	22.066
190.63	16.168
191.00	21.267
191.37	20.689
191.73	34.909
192.10	36.747
192.47	38.927
192.84	34.543
193.21	27.414
193.58	18.236
193.94	11.768
194.31	-5.064
194.68	-10.007
195.05	-20.526
195.42	-32.064
195.79	-55.757
196.15	-76.727
196.52	-102.158
196.89	-122.879
197.26	-98.462
197.63	-55.056
198.00	-40.624
198.36	-22.430
198.73	-28.451
199.10	-21.126
199.47	-15.059
199.84	-9.790
200.20	-5.636
200.57	11.665
200.94	16.613
201.31	11.770
201.68	-11.756
202.04	-13.222
202.41	-9.182
202.78	-18.213
203.15	-10.973
203.51	-4.005
203.88	-12.756
204.25	-12.424
204.62	-37.118
204.98	-37.809
205.35	-51.865
205.72	-46.050
206.09	-60.218
206.46	-131.847
206.82	-88.529
207.19	-61.944
207.56	-107.446
207.92	-73.923
208.29	-81.167
208.66	-46.811
209.03	-44.226
209.39	-0.771
209.76	4.782
210.13	8.567
210.50	15.118
210.86	30.260
211.23	16.216
211.60	42.755
211.96	43.120
212.33	36.160
212.70	29.985
213.07	26.766
213.43	-17.909
213.80	-29.158
214.17	-10.691
214.53	0.081
214.90	-6.676
215.27	-2.040
215.63	-20.436
216.00	-25.685
216.37	-20.553
216.74	-24.100
217.10	-23.811
217.47	-12.038
217.84	-4.275
218.20	-2.111
218.57	-2.788
218.94	-3.127
219.30	-7.561
219.67	-7.553
220.04	-5.651
220.40	-12.284
220.77	-18.126
221.13	-12.380
221.50	-12.329
221.87	-17.605
222.23	-25.532
222.60	-33.716
222.97	-33.605
223.33	-32.122
223.70	-24.941
224.07	-22.029
224.43	-19.949
224.80	-13.539
225.16	-15.717
225.53	-13.342
225.90	-11.748
226.26	-8.485
226.63	-6.737
226.99	-4.860
227.36	-2.291
227.73	-1.998
228.09	-2.370
228.46	0.011
228.82	-0.458
229.19	0.660
229.56	-0.146
229.92	1.792
230.29	1.476
230.65	1.792
231.02	0.301
231.38	-3.113
231.75	-2.520
232.12	-3.429
232.48	-6.593
232.85	-6.786
233.21	-7.008
233.58	-8.441
233.94	-9.986
234.31	-9.882
234.68	-9.610
235.04	-8.695
235.41	-6.464
235.77	-6.236
236.14	-4.822
236.50	-2.461
236.87	-2.335
237.23	-1.335
237.60	-0.994
237.96	-0.590
238.33	-0.972
238.69	-0.949
239.06	-0.691
239.42	-0.727
239.79	-1.188
240.15	-1.229
240.52	-1.353
240.88	-0.551
241.25	-1.249
241.61	-0.768
241.98	-1.042
242.34	-0.836
242.71	-0.316
243.07	0.111
243.44	-0.075
243.80	0.040
244.17	0.163
244.53	0.035
244.90	-0.122
245.26	0.305
245.63	0.063
245.99	-0.172
246.36	0.033
246.72	-0.100
247.09	-0.956
247.45	-0.894
247.81	-0.639
248.18	-0.887
248.54	-0.755
248.91	-1.042
249.27	-0.993
249.64	-0.528
250.00	-0.037
250.36	-0.262
250.73	-0.404
251.09	0.281
251.46	0.243
251.82	-0.290
252.19	-0.043
252.55	-0.099
252.91	0.033
253.28	-0.364
253.64	-1.178
254.01	-1.414
254.37	-1.196
254.73	-0.732
255.10	-0.458
255.46	0.136
255.83	0.211
256.19	0.219
256.55	0.004
256.92	0.245
257.28	0.286
257.65	0.748
258.01	0.816
258.37	0.687
258.74	0.498
259.10	0.390
259.46	0.175
259.83	0.168
260.19	0.057
260.55	-0.067
260.92	-0.300
261.28	-0.270
261.64	-0.478
262.01	-0.304
262.37	-0.317
262.73	-0.109
263.10	0.020
263.46	-0.014
263.82	0.053
264.19	0.257
264.55	0.365
264.91	0.464
265.28	0.320
265.64	-0.131
266.00	-0.403
266.37	-0.396
266.73	-0.711
267.09	-0.922
267.46	-0.865
267.82	-0.911
268.18	-1.075
268.54	-0.864
268.91	-0.732
269.27	-0.582
269.63	-0.143
270.00	0.002
270.36	0.109
270.72	0.467
271.08	0.521
271.45	0.335
271.81	0.243
272.17	0.232
272.53	0.189
272.90	0.037
273.26	-0.068
273.62	-0.436
273.98	-0.679
274.35	-0.881
274.71	-0.977
275.07	-0.961
275.43	-0.772
275.80	-0.593
276.16	-0.449
276.52	-0.293
276.88	-0.291
277.25	-0.494
277.61	-0.525
277.97	-0.641
278.33	-0.423
278.69	-0.757
279.06	-0.789
279.42	-0.741
279.78	-0.792
280.14	-0.773
280.50	-0.826
280.87	-0.771
281.23	-0.716
281.59	-0.450
281.95	-0.255
282.31	-0.221
282.68	-0.151
283.04	0.028
283.40	0.011
283.76	0.018
284.12	0.102
284.48	0.125
284.85	0.060
285.21	0.182
285.57	0.052
285.93	0.042
286.29	-0.214
286.65	-0.099
287.02	0.052
287.38	0.043
287.74	0.045
288.10	-0.034
288.46	-0.120
288.82	-0.052
289.18	-0.033
289.54	0.065
289.91	0.131
290.27	0.307
290.63	0.367
290.99	0.247
291.35	0.353
291.71	0.474
292.07	0.424
292.43	0.499
292.79	0.645
293.16	0.504
293.52	0.559
293.88	0.509
294.24	0.529
294.60	0.410
294.96	0.293
295.32	0.292
295.68	0.252
296.04	0.299
296.40	0.327
296.76	0.276
297.12	0.345
297.49	0.186
297.85	0.212
298.21	0.130
298.57	-0.045
298.93	-0.062
299.29	-0.300
299.65	-0.360
300.01	-0.441
300.37	-0.436
300.73	-0.369
301.09	-0.376
301.45	-0.149
301.81	-0.078
302.17	0.010
302.53	0.133
302.89	0.133
303.25	0.202
303.61	0.272
303.97	0.171
304.33	0.125
304.69	0.123
305.05	0.108
305.41	-0.044
305.77	-0.101
306.13	-0.186
306.49	-0.237
306.85	-0.143
307.21	-0.111
307.57	0.014
307.93	0.208
308.29	0.281
308.65	0.144
309.01	0.030
309.37	0.053
309.73	0.029
310.09	0.194
310.45	0.364
310.81	0.299
311.17	0.320
311.53	0.172
311.89	0.138
312.25	0.081
312.61	0.112
312.96	0.289
313.32	0.387
313.68	0.347
314.04	0.253
314.40	0.300
314.76	0.241
315.12	0.170
315.48	0.169
315.84	0.021
316.20	-0.012
316.56	-0.050
316.92	-0.102
317.27	-0.171
317.63	-0.127
317.99	-0.253
318.35	-0.404
318.71	-0.370
319.07	-0.268
319.43	-0.240
319.79	0.038
320.15	0.032
320.50	0.109
320.86	0.127
321.22	0.130
321.58	0.211
321.94	0.282
322.30	0.217
322.66	0.297
323.01	0.228
323.37	0.132
323.73	-0.037
324.09	-0.064
324.45	0.012
324.81	-0.015
325.17	-0.089
325.52	-0.205
325.88	-0.226
326.24	-0.063
326.60	-0.137
326.96	-0.069
327.31	-0.031
327.67	-0.037
328.03	-0.015
328.39	-0.165
328.75	-0.106
329.11	0.033
329.46	0.150
329.82	0.239
330.18	0.149
330.54	0.163
330.90	0.069
331.25	0.037
331.61	0.052
331.97	0.021
332.33	0.072
332.68	0.021
333.04	-0.038
333.40	-0.131
333.76	-0.294
334.11	-0.312
334.47	-0.280
334.83	-0.241
335.19	-0.262
335.54	-0.280
335.90	-0.269
336.26	-0.287
336.62	-0.295
336.97	-0.369
337.33	-0.394
337.69	-0.305
338.05	-0.331
338.40	-0.416
338.76	-0.466
339.12	-0.378
339.48	-0.396
339.83	-0.415
340.19	-0.397
340.55	-0.360
340.90	-0.368
341.26	-0.298
341.62	-0.324
341.97	-0.276
342.33	-0.187
342.69	-0.125
343.04	-0.152
343.40	-0.204
343.76	-0.262
344.12	-0.285
344.47	-0.342
344.83	-0.192
345.19	-0.195
345.54	-0.124
345.90	-0.131
346.26	-0.112
346.61	-0.099
346.97	-0.068
347.32	0.024
347.68	0.072
348.04	0.050
348.39	0.016
348.75	-0.007
349.11	-0.037
349.46	-0.058
349.82	-0.036
350.18	-0.135
350.53	-0.080
350.89	-0.086
351.24	-0.115
351.60	-0.107
351.96	-0.099
352.31	-0.084
352.67	-0.129
353.02	-0.148
353.38	-0.140
353.74	-0.176
354.09	-0.161
354.45	-0.208
354.80	-0.230
355.16	-0.181
355.52	-0.157
355.87	-0.195
356.23	-0.177
356.58	-0.162
356.94	-0.142
357.29	-0.137
357.65	-0.070
358.00	-0.031
358.36	-0.014
358.72	-0.005
359.07	-0.024
359.43	-0.029
359.78	0.086
360.14	0.099
360.49	0.079
360.85	0.082
361.20	0.070
361.56	0.014
361.91	0.031
362.27	0.021
362.62	0.033
362.98	0.016
363.33	0.010
363.69	-0.040
364.04	-0.005
364.40	-0.045
364.75	-0.045
365.11	-0.039
365.46	-0.027
365.82	-0.007
366.17	-0.012
366.53	-0.022
366.88	-0.029
367.24	0.006
367.59	-0.026
367.95	-0.004
368.30	0.031
368.66	0.024
369.01	-0.004
369.37	0.010
369.72	0.005
370.08	0.053
370.43	0.055
370.78	0.071
371.14	0.014
371.49	0.043
371.85	0.012
372.20	0.039
372.56	0.051
372.91	0.058
373.26	0.060
373.62	0.003
373.97	0.007
374.33	-0.019
374.68	-0.010
375.03	0.049
375.39	0.044
375.74	0.038
376.10	0.048
376.45	0.063
376.80	0.091
377.16	0.058
377.51	0.113
377.87	0.095
378.22	0.111
378.57	0.105
378.93	0.121
379.28	0.147
379.63	0.153
379.99	0.148
380.34	0.140
380.70	0.132
381.05	0.178
381.40	0.130
381.76	0.118
382.11	0.125
382.46	0.162
382.82	0.151
383.17	0.133
383.52	0.140
383.88	0.114
384.23	0.110
384.58	0.097
384.94	0.074
385.29	0.092
385.64	0.126
385.99	0.134
386.35	0.143
386.70	0.149
387.05	0.113
387.41	0.096
387.76	0.091
388.11	0.069
388.47	0.073
388.82	0.110
389.17	0.116
389.52	0.096
389.88	0.125
390.23	0.112
390.58	0.121
390.93	0.149
391.29	0.171
391.64	0.182
391.99	0.204
392.34	0.213
392.70	0.185
393.05	0.162
393.40	0.171
393.75	0.142
394.11	0.141
394.46	0.087
394.81	0.096
395.16	0.046
395.52	0.048
395.87	0.044
396.22	0.048
396.57	0.013
396.92	0.018
397.28	-0.017
397.63	-0.050
397.98	-0.092
398.33	-0.084
398.68	-0.105
399.04	-0.089
399.39	-0.091
399.74	-0.113
400.09	-0.134
400.44	-0.121
400.80	-0.122
401.15	-0.138
401.50	-0.106
401.85	-0.081
402.20	-0.095
402.55	-0.076
402.90	-0.087
403.26	-0.093
403.61	-0.105
403.96	-0.126
404.31	-0.138
404.66	-0.132
405.01	-0.127
405.36	-0.140
405.72	-0.175
406.07	-0.162
406.42	-0.198
406.77	-0.187
407.12	-0.191
407.47	-0.165
407.82	-0.131
408.17	-0.127
408.53	-0.147
408.88	-0.159
409.23	-0.166
409.58	-0.164
409.93	-0.168
410.28	-0.158
410.63	-0.176
410.98	-0.179
411.33	-0.170
411.68	-0.174
412.03	-0.140
412.38	-0.135
412.73	-0.100
413.09	-0.086
413.44	-0.059
413.79	-0.023
414.14	0.013
414.49	0.055
414.84	0.068
415.19	0.079
415.54	0.103
415.89	0.109
416.24	0.156
416.59	0.167
416.94	0.191
417.29	0.211
417.64	0.195
417.99	0.206
418.34	0.221
418.69	0.243
419.04	0.250
419.39	0.256
419.74	0.264
420.09	0.269
420.44	0.279
420.79	0.276
421.14	0.279
421.49	0.306
421.84	0.298
422.19	0.292
422.54	0.278
422.89	0.278
423.24	0.266
423.59	0.260
423.94	0.234
424.29	0.217
424.64	0.205
424.99	0.181
425.34	0.154
425.68	0.128
426.03	0.086
426.38	0.072
426.73	0.049
427.08	0.034
427.43	0.032
427.78	0.051
428.13	0.043
428.48	0.044
428.83	0.052
429.18	0.040
429.53	0.052
429.87	0.056
430.22	0.058
430.57	0.083
430.92	0.090
431.27	0.086
431.62	0.065
431.97	0.070
432.32	0.069
432.67	0.064
433.01	0.062
433.36	0.055
433.71	0.062
434.06	0.050
434.41	0.021
434.76	0.027
435.11	0.022
435.45	0.026
435.80	0.021
436.15	0.024
436.50	0.040
436.85	0.063
437.20	0.066
437.54	0.074
437.89	0.095
438.24	0.111
438.59	0.095
438.94	0.096
439.29	0.084
439.63	0.092
439.98	0.097
440.33	0.078
440.68	0.073
441.03	0.079
441.37	0.085
441.72	0.083
442.07	0.085
442.42	0.095
442.76	0.115
443.11	0.127
443.46	0.135
443.81	0.126
444.16	0.148
444.50	0.144
444.85	0.138
445.20	0.125
445.55	0.128
445.89	0.117
446.24	0.108
446.59	0.063
446.94	0.049
447.28	0.023
447.63	0.012
447.98	-0.018
448.32	-0.032
448.67	-0.050
449.02	-0.082
449.37	-0.133
449.71	-0.133
450.06	-0.137
450.41	-0.117
450.75	-0.133
451.10	-0.132
451.45	-0.153
451.79	-0.169
452.14	-0.178
452.49	-0.178
452.84	-0.172
453.18	-0.173
453.53	-0.209
453.88	-0.217
454.22	-0.218
454.57	-0.195
454.92	-0.189
455.26	-0.166
455.61	-0.120
455.95	-0.092
456.30	-0.079
456.65	-0.048
456.99	-0.014
457.34	0.025
457.69	0.033
458.03	0.037
458.38	0.030
458.73	0.035
459.07	0.028
459.42	-0.013
459.76	-0.043
460.11	-0.070
460.46	-0.106
460.80	-0.140
461.15	-0.186
461.49	-0.217
461.84	-0.236
462.19	-0.253
462.53	-0.277
462.88	-0.289
463.22	-0.287
463.57	-0.286
463.91	-0.280
464.26	-0.263
464.61	-0.255
464.95	-0.264
465.30	-0.260
465.64	-0.259
465.99	-0.251
466.33	-0.248
466.68	-0.252
467.02	-0.257
467.37	-0.271
467.71	-0.278
468.06	-0.288
468.41	-0.309
468.75	-0.305
469.10	-0.304
469.44	-0.330
469.79	-0.341
470.13	-0.385
470.48	-0.402
470.82	-0.419
471.17	-0.418
471.51	-0.432
471.86	-0.457
472.20	-0.455
472.55	-0.452
472.89	-0.453
473.23	-0.454
473.58	-0.469
473.92	-0.455
474.27	-0.451
474.61	-0.455
474.96	-0.466
475.30	-0.463
475.65	-0.474
475.99	-0.487
476.34	-0.493
476.68	-0.505
477.02	-0.498
477.37	-0.493
477.71	-0.466
478.06	-0.434
478.40	-0.361
478.75	-0.284
479.09	-0.201
479.43	-0.117
479.78	-0.040
480.12	0.019
480.47	0.085
480.81	0.131
481.15	0.177
481.50	0.221
481.84	0.255
482.19	0.277
482.53	0.298
482.87	0.314
483.22	0.315
483.56	0.301
483.90	0.285
484.25	0.256
484.59	0.242
484.94	0.221
485.28	0.190
485.62	0.166
485.97	0.137
486.31	0.109
486.65	0.078
487.00	0.053
487.34	0.039
487.68	0.023
488.03	0.005
488.37	-0.013
488.71	-0.029
489.06	-0.044
489.40	-0.059
489.74	-0.078
490.09	-0.096
490.43	-0.122
490.77	-0.148
491.11	-0.182
491.46	-0.203
491.80	-0.224
492.14	-0.272
492.49	-0.304
492.83	-0.351
493.17	-0.399
493.51	-0.437
493.86	-0.487
494.20	-0.516
494.54	-0.531
494.88	-0.537
495.23	-0.544
495.57	-0.545
495.91	-0.524
496.25	-0.519
496.60	-0.511
496.94	-0.509
497.28	-0.506
497.62	-0.500
497.97	-0.500
498.31	-0.503
498.65	-0.515
498.99	-0.537
499.33	-0.539
499.68	-0.535
500.02	-0.536
500.36	-0.534
500.70	-0.525
501.04	-0.529
501.39	-0.532
501.73	-0.524
502.07	-0.504
502.41	-0.483
502.75	-0.454
503.09	-0.445
503.44	-0.442
503.78	-0.441
504.12	-0.424
504.46	-0.402
504.80	-0.368
505.14	-0.333
505.49	-0.297
505.83	-0.279
506.17	-0.245
506.51	-0.218
506.85	-0.188
507.19	-0.166
507.53	-0.126
507.87	-0.094
508.22	-0.071
508.56	-0.048
508.90	-0.020
509.24	0.001
509.58	0.016
509.92	0.043
510.26	0.077
510.60	0.113
510.94	0.148
511.28	0.167
511.63	0.203
511.97	0.250
512.31	0.294
512.65	0.331
512.99	0.386
513.33	0.482
513.67	0.554
514.01	0.654
514.35	0.744
514.69	0.840
515.03	0.947
515.37	1.053
515.71	1.141
516.05	1.230
516.39	1.311
516.73	1.390
517.07	1.443
517.41	1.498
517.75	1.530
518.09	1.574
518.43	1.610
518.77	1.637
519.11	1.670
519.45	1.704
519.79	1.755
520.13	1.811
520.47	1.886
520.81	1.971
521.15	2.081
521.49	2.181
521.83	2.288
522.17	2.403
522.51	2.532
522.85	2.666
523.19	2.841
523.53	3.011
523.87	3.202
524.21	3.363
524.55	3.517
524.89	3.656
525.23	3.789
525.57	3.902
525.91	4.014
526.25	4.110
526.58	4.201
526.92	4.268
527.26	4.322
527.60	4.356
527.94	4.392
528.28	4.420
528.62	4.434
528.96	4.457
529.30	4.480
529.64	4.491
529.97	4.512
530.31	4.514
530.65	4.530
530.99	4.555
531.33	4.581
531.67	4.610
532.01	4.635
532.35	4.665
532.68	4.679
533.02	4.681
533.36	4.701
533.70	4.705
534.04	4.729
534.38	4.738
534.71	4.742
535.05	4.749
535.39	4.750
535.73	4.762
536.07	4.780
536.41	4.811
536.74	4.858
537.08	4.890
537.42	4.954
537.76	5.003
538.10	5.061
538.43	5.117
538.77	5.175
539.11	5.227
539.45	5.266
539.79	5.313
540.12	5.341
540.46	5.355
540.80	5.374
541.14	5.359
541.47	5.336
541.81	5.315
542.15	5.292
542.49	5.255
542.82	5.218
543.16	5.186
543.50	5.133
543.84	5.094
544.17	5.060
544.51	5.041
544.85	5.025
545.18	5.026
545.52	5.010
545.86	4.995
546.20	5.002
546.53	4.994
546.87	4.984
547.21	4.986
547.54	4.960
547.88	4.962
548.22	4.933
548.55	4.921
548.89	4.906
549.23	4.910
549.56	4.898
549.90	4.895
550.24	4.880
550.57	4.872
550.91	4.847
551.25	4.867
551.58	4.860
551.92	4.849
552.26	4.841
552.59	4.831
552.93	4.801
553.27	4.798
553.60	4.773
553.94	4.750
554.27	4.726
554.61	4.703
554.95	4.650
555.28	4.615
555.62	4.600
555.95	4.571
556.29	4.557
556.63	4.534
556.96	4.493
557.30	4.443
557.63	4.406
557.97	4.367
558.31	4.327
558.64	4.303
558.98	4.280
559.31	4.247
559.65	4.208
559.98	4.134
560.32	4.092
560.65	4.049
560.99	4.023
561.33	3.991
561.66	3.953
562.00	3.929
562.33	3.894
562.67	3.849
563.00	3.805
563.34	3.775
563.67	3.750
564.01	3.704
564.34	3.661
564.68	3.606
565.01	3.559
565.35	3.507
565.68	3.454
566.02	3.389
566.35	3.328
566.69	3.256
567.02	3.208
567.36	3.144
567.69	3.100
568.03	3.057
568.36	3.006
568.69	2.963
569.03	2.911
569.36	2.870
569.70	2.831
570.03	2.801
570.37	2.765
570.70	2.704
571.04	2.662
571.37	2.611
571.70	2.546
572.04	2.508
572.37	2.448
572.71	2.408
573.04	2.354
573.37	2.311
573.71	2.255
574.04	2.184
574.38	2.118
574.71	2.075
575.04	2.034
575.38	1.990
575.71	1.916
576.05	1.863
576.38	1.814
576.71	1.748
577.05	1.678
577.38	1.601
577.71	1.550
578.05	1.498
578.38	1.442
578.71	1.365
579.05	1.306
579.38	1.278
579.71	1.227
580.05	1.170
580.38	1.141
580.71	1.099
581.05	1.083
581.38	1.047
581.71	1.024
582.05	1.006
582.38	1.002
582.71	0.963
583.04	0.936
583.38	0.904
583.71	0.893
584.04	0.870
584.38	0.859
584.71	0.860
585.04	0.875
585.37	0.889
585.71	0.875
586.04	0.858
586.37	0.871
586.70	0.874
587.04	0.887
587.37	0.909
587.70	0.914
588.03	0.929
588.37	0.924
588.70	0.914
589.03	0.881
589.36	0.876
589.69	0.854
590.03	0.840
590.36	0.805
590.69	0.772
591.02	0.722
591.35	0.681
591.69	0.650
592.02	0.621
592.35	0.605
592.68	0.613
593.01	0.593
593.35	0.590
593.68	0.595
594.01	0.615
594.34	0.609
594.67	0.611
595.00	0.623
595.34	0.600
595.67	0.571
596.00	0.549
596.33	0.511
596.66	0.470
596.99	0.421
597.32	0.363
597.65	0.306
597.99	0.267
598.32	0.199
598.65	0.124
598.98	0.088
599.31	0.075
599.64	0.071
599.97	0.071
600.30	0.079
600.63	0.094
600.96	0.113
601.30	0.127
601.63	0.159
601.96	0.184
602.29	0.204
602.62	0.203
602.95	0.193
603.28	0.174
603.61	0.125
603.94	0.089
604.27	0.075
604.60	0.038
604.93	0.015
605.26	-0.045
605.59	-0.072
605.92	-0.091
606.25	-0.110
606.58	-0.129
606.91	-0.190
607.24	-0.187
607.57	-0.204
607.90	-0.251
608.23	-0.282
608.56	-0.332
608.89	-0.360
609.22	-0.401
609.55	-0.462
609.88	-0.519
610.21	-0.580
610.54	-0.619
610.87	-0.670
611.20	-0.736
611.53	-0.766
611.86	-0.822
612.19	-0.895
612.52	-0.968
612.85	-1.002
613.18	-1.036
613.51	-1.102
613.84	-1.164
614.17	-1.183
614.49	-1.194
614.82	-1.215
615.15	-1.244
615.48	-1.246
615.81	-1.254
616.14	-1.249
616.47	-1.291
616.80	-1.332
617.13	-1.327
617.46	-1.331
617.78	-1.359
618.11	-1.398
618.44	-1.409
618.77	-1.448
619.10	-1.473
619.43	-1.460
619.76	-1.480
620.09	-1.484
620.41	-1.476
620.74	-1.469
621.07	-1.434
621.40	-1.422
621.73	-1.430
622.06	-1.403
622.38	-1.383
622.71	-1.351
623.04	-1.345
623.37	-1.303
623.70	-1.283
624.02	-1.237
624.35	-1.204
624.68	-1.207
625.01	-1.162
625.34	-1.130
625.66	-1.129
625.99	-1.110
626.32	-1.116
626.65	-1.106
626.98	-1.130
627.30	-1.139
627.63	-1.178
627.96	-1.232
628.29	-1.262
628.61	-1.327
628.94	-1.361
629.27	-1.381
629.60	-1.438
629.92	-1.455
630.25	-1.511
630.58	-1.518
630.91	-1.544
631.23	-1.545
631.56	-1.537
631.89	-1.559
632.21	-1.567
632.54	-1.575
632.87	-1.607
633.19	-1.611
633.52	-1.662
633.85	-1.657
634.18	-1.722
634.50	-1.776
634.83	-1.850
635.16	-1.918
635.48	-1.965
635.81	-2.020
636.14	-2.096
636.46	-2.158
636.79	-2.214
637.11	-2.254
637.44	-2.349
637.77	-2.386
638.09	-2.429
638.42	-2.449
638.75	-2.499
639.07	-2.509
639.40	-2.524
639.73	-2.544
640.05	-2.560
640.38	-2.544
640.70	-2.575
641.03	-2.566
641.36	-2.568
641.68	-2.556
642.01	-2.552
642.33	-2.517
642.66	-2.521
642.98	-2.516
643.31	-2.501
643.64	-2.478
643.96	-2.490
644.29	-2.446
644.61	-2.438
644.94	-2.411
645.26	-2.359
645.59	-2.321
645.91	-2.319
646.24	-2.284
646.56	-2.271
646.89	-2.238
647.22	-2.215
647.54	-2.194
647.87	-2.192
648.19	-2.189
648.52	-2.191
648.84	-2.215
649.17	-2.269
649.49	-2.250
649.82	-2.276
650.14	-2.285
650.47	-2.318
650.79	-2.326
651.11	-2.338
651.44	-2.334
651.76	-2.326
652.09	-2.293
652.41	-2.277
652.74	-2.241
653.06	-2.230
653.39	-2.175
653.71	-2.139
654.04	-2.136
654.36	-2.108
654.68	-2.074
655.01	-2.039
655.33	-1.980
655.66	-1.953
655.98	-1.903
656.30	-1.895
656.63	-1.874
656.95	-1.873
657.28	-1.862
657.60	-1.840
657.92	-1.850
658.25	-1.863
658.57	-1.889
658.90	-1.937
659.22	-1.980
659.54	-2.042
659.87	-2.030
660.19	-2.090
660.51	-2.138
660.84	-2.204
661.16	-2.223
661.48	-2.257
661.81	-2.261
662.13	-2.294
662.45	-2.294
662.78	-2.273
663.10	-2.220
663.42	-2.209
663.75	-2.150
664.07	-2.102
664.39	-2.098
664.72	-2.092
665.04	-2.042
665.36	-1.985
665.69	-1.897
666.01	-1.819
666.33	-1.744
666.65	-1.717
666.98	-1.641
667.30	-1.565
667.62	-1.514
667.94	-1.409
668.27	-1.346
668.59	-1.298
668.91	-1.210
669.23	-1.171
669.56	-1.090
669.88	-1.037
670.20	-0.956
670.52	-0.884
670.85	-0.823
671.17	-0.724
671.49	-0.640
671.81	-0.512
672.13	-0.393
672.46	-0.329
672.78	-0.205
673.10	-0.165
673.42	-0.054
673.74	0.028
674.07	0.127
674.39	0.252
674.71	0.346
675.03	0.563
675.35	0.698
675.67	0.808
676.00	0.950
676.32	1.029
676.64	1.169
676.96	1.270
677.28	1.393
677.60	1.531
677.92	1.645
678.25	1.744
678.57	1.790
678.89	1.850
679.21	1.918
679.53	1.983
679.85	2.086
680.17	2.191
680.49	2.276
680.81	2.353
681.13	2.350
681.46	2.370
681.78	2.529
682.10	2.587
682.42	2.663
682.74	2.791
683.06	2.858
683.38	2.966
683.70	3.082
684.02	3.160
684.34	3.307
684.66	3.427
684.98	3.527
685.30	3.511
685.62	3.595
685.94	3.669
686.26	3.654
686.58	3.674
686.90	3.670
687.22	3.583
687.54	3.593
687.86	3.518
688.18	3.475
688.50	3.468
688.82	3.419
689.14	3.383
689.46	3.361
689.78	3.343
690.10	3.344
690.42	3.334
690.74	3.396
691.06	3.369
691.38	3.410
691.70	3.507
692.02	3.542
692.34	3.613
692.66	3.653
692.98	3.746
693.30	3.935
693.62	4.079
693.94	4.196
694.26	4.325
694.57	4.516
694.89	4.698
695.21	4.819
695.53	4.966
695.85	5.124
696.17	5.344
696.49	5.500
696.81	5.674
697.13	5.814
697.44	5.989
697.76	6.208
698.08	6.420
698.40	6.597
698.72	6.838
699.04	7.077
699.36	7.369
699.67	7.606
699.99	7.847
700.31	8.095
700.63	8.442
700.95	8.845
701.27	9.149
701.58	9.423
701.90	9.692
702.22	10.021
702.54	10.353
702.86	10.652
703.17	10.948
703.49	11.320
703.81	11.688
704.13	11.986
704.45	12.276
704.76	12.583
705.08	12.874
705.40	13.243
705.72	13.544
706.03	13.904
706.35	14.171
706.67	14.481
706.99	14.768
707.30	14.999
707.62	15.289
707.94	15.568
708.26	15.794
708.57	16.144
708.89	16.420
709.21	16.646
709.53	16.909
709.84	17.312
710.16	17.661
710.48	18.046
710.79	18.394
711.11	18.677
711.43	18.921
711.74	19.322
712.06	19.645
712.38	20.064
712.69	20.432
713.01	20.823
713.33	21.134
713.64	21.564
713.96	21.890
714.28	22.267
714.59	22.770
714.91	23.312
715.23	23.802
715.54	24.259
715.86	24.698
716.17	25.241
716.49	25.682
716.81	26.094
717.12	26.381
717.44	26.877
717.76	27.333
718.07	27.677
718.39	27.964
718.70	28.269
719.02	28.522
719.33	28.803
719.65	29.019
719.97	29.312
720.28	29.752
720.60	30.212
720.91	30.463
721.23	30.864
721.54	31.185
721.86	31.576
722.17	31.910
722.49	32.323
722.81	32.590
723.12	33.065
723.44	33.535
723.75	33.920
724.07	34.244
724.38	34.677
724.70	35.037
725.01	35.347
725.33	35.673
725.64	36.094
725.96	36.372
726.27	36.714
726.59	36.978
726.90	37.162
727.22	37.221
727.53	37.527
727.84	37.759
728.16	37.965
728.47	38.343
728.79	38.616
729.10	38.742
729.42	39.071
729.73	39.350
730.05	39.546
730.36	39.820
730.67	40.210
730.99	40.431
731.30	40.699
731.62	41.055
731.93	41.330
732.24	41.668
732.56	41.985
732.87	42.312
733.19	42.681
733.50	43.022
733.81	43.306
734.13	43.448
734.44	43.705
734.76	43.958
735.07	44.198
735.38	44.405
735.70	44.715
736.01	44.916
736.32	45.033
736.64	45.331
736.95	45.532
737.26	45.684
737.58	46.155
737.89	46.287
738.20	46.450
738.52	46.610
738.83	46.688
739.14	46.725
739.45	47.049
739.77	47.290
740.08	47.346
740.39	47.630
740.71	47.993
741.02	47.969
741.33	48.103
741.64	48.261
741.96	48.324
742.27	48.572
742.58	48.886
742.90	48.938
743.21	48.996
743.52	49.248
743.83	49.353
744.14	49.341
744.46	49.629
744.77	49.811
745.08	49.770
745.39	49.911
745.71	49.952
746.02	49.729
746.33	49.793
746.64	49.857
746.95	49.838
747.27	49.904
747.58	50.049
747.89	49.955
748.20	49.999
748.51	50.254
748.82	50.207
749.14	50.409
749.45	50.682
749.76	50.863
750.07	51.077
750.38	51.166
750.69	51.145
751.01	51.036
751.32	50.987
751.63	51.055
751.94	51.044
752.25	50.975
752.56	50.692
752.87	50.704
753.18	50.577
753.49	50.509
753.81	50.445
754.12	50.466
754.43	50.436
754.74	50.587
755.05	50.766
755.36	50.864
755.67	51.051
755.98	51.486
756.29	51.658
756.60	51.697
756.91	51.730
757.22	51.901
757.53	52.203
757.84	52.408
758.15	52.575
758.46	52.559
758.77	52.455
759.09	52.624
759.40	52.402
759.71	52.112
760.02	52.132
760.33	52.108
760.64	51.943
760.95	51.772
761.26	51.554
761.57	51.542
761.88	51.500
762.18	51.391
762.49	51.208
762.80	51.179
763.11	51.352
763.42	51.303
763.73	51.289
764.04	51.368
764.35	51.321
764.66	51.431
764.97	51.326
765.28	51.277
765.59	51.407
765.90	51.324
766.21	51.232
766.52	51.016
766.83	50.844
767.14	50.632
767.44	50.344
767.75	49.929
768.06	49.709
768.37	49.420
768.68	49.256
768.99	49.027
769.30	48.922
769.61	48.847
769.91	48.631
770.22	48.419
770.53	48.240
770.84	48.193
771.15	48.454
771.46	48.380
771.77	48.332
772.07	48.136
772.38	48.058
772.69	47.945
773.00	48.009
773.31	47.984
773.61	47.962
773.92	47.947
774.23	47.702
774.54	47.521
774.85	47.461
775.15	47.281
775.46	47.356
775.77	47.439
776.08	47.568
776.39	47.345
776.69	47.185
777.00	47.380
777.31	47.525
777.62	47.576
777.92	47.423
778.23	47.400
778.54	47.518
778.85	47.453
779.15	47.272
779.46	47.273
779.77	47.567
780.07	47.937
780.38	47.997
780.69	47.852
781.00	48.032
781.30	48.097
781.61	48.088
781.92	48.233
782.22	48.157
782.53	48.155
782.84	48.355
783.14	48.294
783.45	48.020
783.76	47.926
784.06	48.188
784.37	48.050
784.68	48.373
784.98	48.451
785.29	48.457
785.60	48.567
785.90	48.819
786.21	48.617
786.51	48.573
786.82	48.715
787.13	48.776
787.43	48.741
787.74	49.046
788.04	48.828
788.35	48.939
788.66	48.986
788.96	49.148
789.27	49.114
789.57	48.998
789.88	48.899
790.19	48.813
790.49	48.803
790.80	48.824
791.10	48.704
791.41	49.037
791.71	49.052
792.02	48.757
792.32	48.683
792.63	48.648
792.93	48.851
793.24	48.932
793.54	49.030
793.85	49.164
794.15	49.011
794.46	49.073
794.76	49.057
795.07	48.986
795.37	49.057
795.68	49.005
795.98	49.015
796.29	49.284
796.59	49.334
796.90	49.349
797.20	48.988
797.51	49.124
797.81	48.782
798.12	48.710
798.42	48.748
798.72	48.803
799.03	48.845
799.33	49.063
799.64	48.680
799.94	49.057
800.25	48.909
800.55	49.188
800.85	49.275
801.16	49.778
801.46	49.624
801.77	49.502
802.07	49.543
802.37	49.401
802.68	48.827
802.98	48.932
803.28	48.497
803.59	49.168
803.89	49.040
804.20	49.033
804.50	48.678
804.80	48.565
805.11	49.027
805.41	49.132
805.71	49.500
806.02	49.956
806.32	49.855
806.62	49.938
806.93	49.647
807.23	49.920
807.53	49.979
807.83	50.163
808.14	50.165
808.44	50.365
808.74	49.987
809.05	49.695
809.35	49.455
809.65	50.062
809.95	50.369
810.26	49.912
810.56	49.968
810.86	49.815
811.16	50.054
811.47	51.126
811.77	50.923
812.07	51.374
812.37	51.730
812.68	52.349
812.98	52.309
813.28	52.289
813.58	53.006
813.88	52.760
814.19	53.454
814.49	53.696
814.79	53.095
815.09	52.952
815.39	52.928
815.70	53.103
816.00	52.852
816.30	52.647
816.60	52.524
816.90	51.915
817.20	51.909
817.50	51.612
817.81	51.043
818.11	50.919
818.41	51.024
818.71	51.228
819.01	51.288
819.31	51.553
819.61	51.757
819.92	51.982
820.22	52.385
820.52	52.693
820.82	52.942
821.12	53.387
821.42	53.725
821.72	53.924
822.02	54.231
822.32	54.578
822.62	54.926
822.92	55.163
823.22	55.423
823.52	55.591
823.83	55.693
824.13	55.753
824.43	55.538
824.73	55.579
825.03	55.654
825.33	55.622
825.63	55.504
825.93	55.212
826.23	55.285
826.53	55.135
826.83	55.059
827.13	55.395
827.43	55.516
827.73	56.076
828.03	56.282
828.33	56.507
828.63	56.591
828.93	56.612
829.23	56.470
829.53	56.058
829.83	55.951
830.13	55.877
830.42	54.982
830.72	54.660
831.02	54.148
831.32	53.640
831.62	53.492
831.92	53.247
832.22	53.090
832.52	53.140
832.82	53.243
833.12	53.308
833.42	53.384
833.72	53.449
834.01	53.849
834.31	54.054
834.61	54.231
834.91	54.954
835.21	55.082
835.51	55.693
835.81	55.789
836.11	55.951
836.40	55.958
836.70	55.768
837.00	55.947
837.30	55.451
837.60	55.650
837.90	56.097
838.19	54.891
838.49	55.054
838.79	54.648
839.09	54.809
839.39	54.596
839.68	54.223
839.98	53.642
840.28	53.526
840.58	53.598
840.88	53.111
841.17	52.355
841.47	52.218
841.77	52.143
842.07	51.735
842.36	51.953
842.66	51.935
842.96	51.986
843.26	52.636
843.55	52.580
843.85	51.940
844.15	50.875
844.45	50.533
844.74	50.916
845.04	51.240
845.34	50.018
845.63	48.582
845.93	48.951
846.23	50.374
846.53	50.745
846.82	50.401
847.12	50.436
847.42	49.671
847.71	49.565
848.01	48.659
848.31	46.859
848.60	46.309
848.90	46.200
849.19	45.414
849.49	43.884
849.79	42.953
850.08	42.511
850.38	42.973
850.68	44.896
850.97	46.536
851.27	46.689
851.56	47.861
851.86	48.157
852.16	48.960
852.45	49.362
852.75	49.243
853.04	50.972
853.34	50.975
853.64	51.267
853.93	50.974
854.23	49.674
854.52	50.183
854.82	51.006
855.11	52.676
855.41	53.362
855.70	54.942
856.00	54.778
856.30	52.283
856.59	53.293
856.89	55.001
857.18	56.791
857.48	57.103
857.77	56.775
858.07	55.638
858.36	53.827
858.66	53.487
858.95	51.689
859.25	52.298
859.54	51.905
859.84	51.595
860.13	48.579
860.42	47.218
860.72	46.194
861.01	46.090
861.31	46.608
861.60	48.313
861.90	48.597
862.19	48.582
862.49	48.506
862.78	48.603
863.07	48.067
863.37	49.713
863.66	49.555
863.96	52.049
864.25	52.011
864.54	51.095
864.84	50.141
865.13	49.560
865.43	51.379
865.72	53.057
866.01	44.166
866.31	47.797
866.60	46.612
866.89	67.201
>>>>>End Spectral Data<<<<<
