OOIBase32 Version 2.0.0.6 Data File
++++++++++++++++++++++++++++++++++++
Date: 01-23-2012, 23:14:42
User: Valued Ocean Optics Customer
Spectrometer Serial Number: USB2E2917
Spectrometer Channel: Master
Integration Time (msec): 5
Spectra Averaged: 10
Boxcar Smoothing: 5
Correct for Electrical Dark: Enabled
Time Normalized: Disabled
Dual-beam Reference: Disabled
Reference Channel: Master
Temperature: Not acquired
Spectrometer Type: S2000
ADC Type: USB2000
Number of Pixels in File: 2048
Graph Title: 
>>>>>Begin Spectral Data<<<<<
180.30	0.000
180.67	0.000
181.03	20.696
181.40	672.706
181.77	470.260
182.14	25.526
182.51	-340.429
182.88	45.835
183.25	72.519
183.62	51.980
183.99	112.867
184.36	41.080
184.73	526.388
185.10	-32.048
185.46	-708.784
185.83	-50.615
186.20	-607.525
186.57	129.916
186.94	97.135
187.31	137.179
187.68	121.348
188.05	128.246
188.42	155.035
188.78	400.645
189.15	1395.871
189.52	-216.236
189.89	-35.682
190.26	-56.607
190.63	-15.012
191.00	-2.993
191.37	7.087
191.73	22.608
192.10	28.905
192.47	30.771
192.84	41.845
193.21	59.906
193.58	41.619
193.94	34.471
194.31	41.887
194.68	39.159
195.05	32.468
195.42	36.899
195.79	22.093
196.15	0.186
196.52	-16.429
196.89	-20.931
197.26	-43.406
197.63	-8.632
198.00	-4.251
198.36	-2.053
198.73	-15.018
199.10	-25.797
199.47	-20.375
199.84	-15.256
200.20	5.937
200.57	11.709
200.94	12.984
201.31	10.021
201.68	-8.511
202.04	-3.777
202.41	-5.433
202.78	-11.188
203.15	-12.205
203.51	-6.025
203.88	-1.952
204.25	1.140
204.62	-4.345
204.98	-17.660
205.35	-11.417
205.72	2.519
206.09	-8.745
206.46	-39.320
206.82	-46.239
207.19	-40.438
207.56	-110.844
207.92	-116.199
208.29	-130.094
208.66	-75.149
209.03	-48.478
209.39	-24.711
209.76	-24.520
210.13	-48.645
210.50	-33.643
210.86	-15.886
211.23	-13.593
211.60	17.927
211.96	21.490
212.33	14.251
212.70	4.177
213.07	-21.158
213.43	-64.781
213.80	-67.819
214.17	-36.944
214.53	-26.788
214.90	-27.258
215.27	-27.334
215.63	-37.133
216.00	-20.058
216.37	-18.371
216.74	-24.071
217.10	-11.149
217.47	-6.689
217.84	-4.804
218.20	-3.391
218.57	0.847
218.94	6.034
219.30	4.861
219.67	4.726
220.04	-8.030
220.40	-12.265
220.77	-14.856
221.13	-16.017
221.50	-13.090
221.87	-11.823
222.23	-15.777
222.60	-19.660
222.97	-21.393
223.33	-17.543
223.70	-13.627
224.07	-14.426
224.43	-13.183
224.80	-11.514
225.16	-11.569
225.53	-10.776
225.90	-13.439
226.26	-10.662
226.63	-9.012
226.99	-7.436
227.36	-6.491
227.73	-6.179
228.09	-4.283
228.46	-1.661
228.82	0.323
229.19	1.151
229.56	1.845
229.92	4.593
230.29	5.223
230.65	4.110
231.02	1.577
231.38	0.311
231.75	0.616
232.12	-2.108
232.48	-5.476
232.85	-7.400
233.21	-8.762
233.58	-10.550
233.94	-11.870
234.31	-13.638
234.68	-14.158
235.04	-13.328
235.41	-11.618
235.77	-10.082
236.14	-7.583
236.50	-4.778
236.87	-4.495
237.23	-2.356
237.60	-1.837
237.96	-1.347
238.33	-1.474
238.69	-1.220
239.06	-0.658
239.42	-0.994
239.79	-1.812
240.15	-1.741
240.52	-1.683
240.88	-0.982
241.25	-1.518
241.61	-0.960
241.98	-0.916
242.34	-0.538
242.71	-0.252
243.07	-0.276
243.44	-0.160
243.80	-0.015
244.17	0.124
244.53	-0.279
244.90	-0.408
245.26	-0.345
245.63	-0.617
245.99	-0.736
246.36	-0.881
246.72	-0.522
247.09	-0.884
247.45	-0.986
247.81	-0.722
248.18	-1.020
248.54	-0.865
248.91	-1.078
249.27	-1.075
249.64	-0.936
250.00	-0.464
250.36	-0.613
250.73	-1.159
251.09	-0.759
251.46	-0.520
251.82	-0.753
252.19	-0.846
252.55	-0.963
252.91	-0.802
253.28	-0.913
253.64	-1.578
254.01	-1.799
254.37	-1.225
254.73	-0.731
255.10	-0.083
255.46	0.175
255.83	0.276
256.19	0.592
256.55	0.676
256.92	0.746
257.28	0.778
257.65	1.166
258.01	1.272
258.37	1.212
258.74	0.972
259.10	0.759
259.46	0.478
259.83	0.461
260.19	0.480
260.55	0.573
260.92	0.461
261.28	0.533
261.64	0.496
262.01	0.396
262.37	0.444
262.73	0.477
263.10	0.549
263.46	0.650
263.82	0.502
264.19	0.496
264.55	0.111
264.91	0.080
265.28	-0.316
265.64	-0.515
266.00	-0.246
266.37	-0.211
266.73	-0.210
267.09	-0.149
267.46	-0.176
267.82	-0.279
268.18	-0.328
268.54	0.028
268.91	0.102
269.27	0.288
269.63	0.450
270.00	0.336
270.36	0.271
270.72	0.607
271.08	0.472
271.45	0.519
271.81	0.538
272.17	0.544
272.53	0.431
272.90	0.436
273.26	0.631
273.62	0.537
273.98	0.236
274.35	0.116
274.71	-0.025
275.07	0.208
275.43	0.427
275.80	0.584
276.16	0.259
276.52	0.092
276.88	-0.012
277.25	-0.417
277.61	-0.540
277.97	-0.591
278.33	-0.340
278.69	-0.527
279.06	-0.496
279.42	-0.752
279.78	-0.738
280.14	-0.429
280.50	-0.323
280.87	-0.207
281.23	0.021
281.59	0.090
281.95	0.296
282.31	0.336
282.68	0.299
283.04	0.099
283.40	0.294
283.76	0.390
284.12	0.434
284.48	0.415
284.85	0.470
285.21	0.569
285.57	0.627
285.93	0.646
286.29	0.507
286.65	0.619
287.02	0.906
287.38	0.874
287.74	0.736
288.10	0.669
288.46	0.726
288.82	0.568
289.18	0.421
289.54	0.463
289.91	0.449
290.27	0.437
290.63	0.580
290.99	0.389
291.35	0.427
291.71	0.522
292.07	0.534
292.43	0.472
292.79	0.498
293.16	0.452
293.52	0.506
293.88	0.585
294.24	0.835
294.60	0.709
294.96	0.644
295.32	0.681
295.68	0.654
296.04	0.583
296.40	0.745
296.76	0.805
297.12	0.782
297.49	0.654
297.85	0.436
298.21	0.268
298.57	0.093
298.93	0.182
299.29	-0.008
299.65	0.050
300.01	0.049
300.37	-0.023
300.73	0.170
301.09	0.395
301.45	0.486
301.81	0.735
302.17	0.814
302.53	0.895
302.89	0.781
303.25	0.851
303.61	0.803
303.97	0.757
304.33	0.745
304.69	0.665
305.05	0.635
305.41	0.576
305.77	0.516
306.13	0.419
306.49	0.451
306.85	0.666
307.21	0.704
307.57	0.748
307.93	0.813
308.29	0.890
308.65	0.857
309.01	0.795
309.37	0.846
309.73	0.959
310.09	1.020
310.45	1.069
310.81	0.992
311.17	1.028
311.53	0.954
311.89	1.047
312.25	0.979
312.61	0.915
312.96	0.944
313.32	1.020
313.68	0.896
314.04	0.834
314.40	0.903
314.76	0.838
315.12	0.758
315.48	0.805
315.84	0.653
316.20	0.627
316.56	0.625
316.92	0.638
317.27	0.558
317.63	0.568
317.99	0.497
318.35	0.482
318.71	0.580
319.07	0.696
319.43	0.813
319.79	1.014
320.15	0.954
320.50	0.970
320.86	0.947
321.22	0.931
321.58	0.792
321.94	0.788
322.30	0.693
322.66	0.678
323.01	0.531
323.37	0.443
323.73	0.337
324.09	0.351
324.45	0.412
324.81	0.367
325.17	0.398
325.52	0.429
325.88	0.386
326.24	0.424
326.60	0.324
326.96	0.331
327.31	0.166
327.67	0.097
328.03	0.129
328.39	0.049
328.75	0.032
329.11	0.044
329.46	0.112
329.82	0.234
330.18	0.242
330.54	0.310
330.90	0.353
331.25	0.455
331.61	0.568
331.97	0.533
332.33	0.538
332.68	0.633
333.04	0.625
333.40	0.587
333.76	0.553
334.11	0.544
334.47	0.600
334.83	0.574
335.19	0.532
335.54	0.553
335.90	0.587
336.26	0.651
336.62	0.508
336.97	0.402
337.33	0.322
337.69	0.343
338.05	0.323
338.40	0.177
338.76	0.139
339.12	0.233
339.48	0.159
339.83	0.136
340.19	0.082
340.55	0.215
340.90	0.234
341.26	0.266
341.62	0.238
341.97	0.211
342.33	0.249
342.69	0.358
343.04	0.326
343.40	0.213
343.76	0.184
344.12	0.215
344.47	0.229
344.83	0.276
345.19	0.368
345.54	0.434
345.90	0.455
346.26	0.508
346.61	0.485
346.97	0.514
347.32	0.629
347.68	0.652
348.04	0.619
348.39	0.520
348.75	0.547
349.11	0.533
349.46	0.438
349.82	0.407
350.18	0.360
350.53	0.418
350.89	0.393
351.24	0.366
351.60	0.317
351.96	0.364
352.31	0.340
352.67	0.355
353.02	0.302
353.38	0.324
353.74	0.343
354.09	0.293
354.45	0.199
354.80	0.201
355.16	0.273
355.52	0.331
355.87	0.228
356.23	0.291
356.58	0.277
356.94	0.322
357.29	0.329
357.65	0.350
358.00	0.435
358.36	0.437
358.72	0.415
359.07	0.365
359.43	0.370
359.78	0.454
360.14	0.468
360.49	0.466
360.85	0.476
361.20	0.465
361.56	0.431
361.91	0.408
362.27	0.436
362.62	0.501
362.98	0.490
363.33	0.455
363.69	0.457
364.04	0.474
364.40	0.447
364.75	0.431
365.11	0.449
365.46	0.464
365.82	0.467
366.17	0.446
366.53	0.399
366.88	0.400
367.24	0.440
367.59	0.415
367.95	0.394
368.30	0.428
368.66	0.408
369.01	0.393
369.37	0.406
369.72	0.426
370.08	0.487
370.43	0.510
370.78	0.569
371.14	0.507
371.49	0.509
371.85	0.492
372.20	0.464
372.56	0.477
372.91	0.498
373.26	0.465
373.62	0.396
373.97	0.394
374.33	0.349
374.68	0.318
375.03	0.370
375.39	0.342
375.74	0.309
376.10	0.321
376.45	0.332
376.80	0.334
377.16	0.333
377.51	0.398
377.87	0.343
378.22	0.338
378.57	0.332
378.93	0.338
379.28	0.377
379.63	0.416
379.99	0.443
380.34	0.443
380.70	0.446
381.05	0.498
381.40	0.486
381.76	0.555
382.11	0.587
382.46	0.606
382.82	0.623
383.17	0.638
383.52	0.624
383.88	0.607
384.23	0.617
384.58	0.608
384.94	0.585
385.29	0.593
385.64	0.562
385.99	0.592
386.35	0.612
386.70	0.593
387.05	0.558
387.41	0.589
387.76	0.610
388.11	0.598
388.47	0.588
388.82	0.615
389.17	0.617
389.52	0.620
389.88	0.601
390.23	0.568
390.58	0.592
390.93	0.648
391.29	0.642
391.64	0.644
391.99	0.677
392.34	0.714
392.70	0.701
393.05	0.686
393.40	0.683
393.75	0.661
394.11	0.648
394.46	0.609
394.81	0.588
395.16	0.562
395.52	0.511
395.87	0.497
396.22	0.496
396.57	0.476
396.92	0.494
397.28	0.479
397.63	0.483
397.98	0.490
398.33	0.500
398.68	0.482
399.04	0.491
399.39	0.514
399.74	0.494
400.09	0.478
400.44	0.492
400.80	0.480
401.15	0.474
401.50	0.481
401.85	0.495
402.20	0.482
402.55	0.515
402.90	0.502
403.26	0.490
403.61	0.470
403.96	0.446
404.31	0.453
404.66	0.457
405.01	0.454
405.36	0.451
405.72	0.436
406.07	0.428
406.42	0.376
406.77	0.385
407.12	0.390
407.47	0.421
407.82	0.448
408.17	0.437
408.53	0.435
408.88	0.411
409.23	0.382
409.58	0.389
409.93	0.400
410.28	0.408
410.63	0.382
410.98	0.367
411.33	0.346
411.68	0.340
412.03	0.369
412.38	0.357
412.73	0.397
413.09	0.438
413.44	0.455
413.79	0.484
414.14	0.528
414.49	0.579
414.84	0.617
415.19	0.631
415.54	0.654
415.89	0.656
416.24	0.699
416.59	0.730
416.94	0.753
417.29	0.782
417.64	0.785
417.99	0.797
418.34	0.806
418.69	0.813
419.04	0.821
419.39	0.828
419.74	0.839
420.09	0.855
420.44	0.858
420.79	0.858
421.14	0.849
421.49	0.872
421.84	0.864
422.19	0.870
422.54	0.874
422.89	0.891
423.24	0.881
423.59	0.869
423.94	0.837
424.29	0.824
424.64	0.824
424.99	0.805
425.34	0.772
425.68	0.763
426.03	0.723
426.38	0.713
426.73	0.685
427.08	0.673
427.43	0.673
427.78	0.710
428.13	0.703
428.48	0.695
428.83	0.708
429.18	0.704
429.53	0.724
429.87	0.736
430.22	0.724
430.57	0.740
430.92	0.738
431.27	0.748
431.62	0.723
431.97	0.730
432.32	0.720
432.67	0.704
433.01	0.695
433.36	0.664
433.71	0.658
434.06	0.652
434.41	0.627
434.76	0.646
435.11	0.631
435.45	0.621
435.80	0.608
436.15	0.619
436.50	0.638
436.85	0.659
437.20	0.672
437.54	0.673
437.89	0.693
438.24	0.706
438.59	0.697
438.94	0.691
439.29	0.682
439.63	0.692
439.98	0.679
440.33	0.657
440.68	0.656
441.03	0.666
441.37	0.671
441.72	0.661
442.07	0.667
442.42	0.676
442.76	0.699
443.11	0.721
443.46	0.733
443.81	0.751
444.16	0.773
444.50	0.768
444.85	0.750
445.20	0.738
445.55	0.739
445.89	0.722
446.24	0.710
446.59	0.672
446.94	0.646
447.28	0.608
447.63	0.577
447.98	0.550
448.32	0.536
448.67	0.518
449.02	0.506
449.37	0.475
449.71	0.473
450.06	0.461
450.41	0.483
450.75	0.490
451.10	0.498
451.45	0.489
451.79	0.472
452.14	0.453
452.49	0.449
452.84	0.458
453.18	0.444
453.53	0.431
453.88	0.425
454.22	0.418
454.57	0.415
454.92	0.425
455.26	0.446
455.61	0.491
455.95	0.533
456.30	0.561
456.65	0.579
456.99	0.614
457.34	0.641
457.69	0.657
458.03	0.663
458.38	0.668
458.73	0.660
459.07	0.650
459.42	0.628
459.76	0.588
460.11	0.556
460.46	0.516
460.80	0.477
461.15	0.438
461.49	0.402
461.84	0.384
462.19	0.364
462.53	0.345
462.88	0.335
463.22	0.319
463.57	0.327
463.91	0.323
464.26	0.353
464.61	0.363
464.95	0.361
465.30	0.368
465.64	0.370
465.99	0.381
466.33	0.399
466.68	0.392
467.02	0.394
467.37	0.383
467.71	0.373
468.06	0.357
468.41	0.337
468.75	0.327
469.10	0.327
469.44	0.298
469.79	0.267
470.13	0.227
470.48	0.206
470.82	0.194
471.17	0.197
471.51	0.186
471.86	0.169
472.20	0.157
472.55	0.160
472.89	0.140
473.23	0.133
473.58	0.131
473.92	0.141
474.27	0.149
474.61	0.126
474.96	0.122
475.30	0.133
475.65	0.123
475.99	0.129
476.34	0.120
476.68	0.126
477.02	0.142
477.37	0.144
477.71	0.167
478.06	0.201
478.40	0.273
478.75	0.331
479.09	0.409
479.43	0.501
479.78	0.575
480.12	0.646
480.47	0.715
480.81	0.771
481.15	0.830
481.50	0.880
481.84	0.932
482.19	0.977
482.53	1.016
482.87	1.037
483.22	1.037
483.56	1.028
483.90	1.002
484.25	0.969
484.59	0.936
484.94	0.901
485.28	0.862
485.62	0.820
485.97	0.769
486.31	0.725
486.65	0.690
487.00	0.664
487.34	0.648
487.68	0.640
488.03	0.633
488.37	0.625
488.71	0.610
489.06	0.600
489.40	0.594
489.74	0.584
490.09	0.572
490.43	0.549
490.77	0.514
491.11	0.481
491.46	0.451
491.80	0.414
492.14	0.371
492.49	0.351
492.83	0.308
493.17	0.247
493.51	0.201
493.86	0.154
494.20	0.123
494.54	0.113
494.88	0.105
495.23	0.093
495.57	0.093
495.91	0.113
496.25	0.115
496.60	0.114
496.94	0.116
497.28	0.120
497.62	0.119
497.97	0.106
498.31	0.100
498.65	0.091
498.99	0.082
499.33	0.092
499.68	0.087
500.02	0.080
500.36	0.084
500.70	0.087
501.04	0.071
501.39	0.068
501.73	0.086
502.07	0.105
502.41	0.120
502.75	0.144
503.09	0.149
503.44	0.159
503.78	0.167
504.12	0.178
504.46	0.205
504.80	0.249
505.14	0.287
505.49	0.314
505.83	0.333
506.17	0.358
506.51	0.385
506.85	0.410
507.19	0.439
507.53	0.461
507.87	0.494
508.22	0.498
508.56	0.508
508.90	0.526
509.24	0.542
509.58	0.560
509.92	0.592
510.26	0.605
510.60	0.629
510.94	0.646
511.28	0.670
511.63	0.696
511.97	0.747
512.31	0.782
512.65	0.812
512.99	0.866
513.33	0.941
513.67	0.995
514.01	1.073
514.35	1.151
514.69	1.228
515.03	1.323
515.37	1.418
515.71	1.495
516.05	1.581
516.39	1.662
516.73	1.726
517.07	1.768
517.41	1.801
517.75	1.831
518.09	1.857
518.43	1.892
518.77	1.897
519.11	1.905
519.45	1.919
519.79	1.953
520.13	1.985
520.47	2.042
520.81	2.110
521.15	2.211
521.49	2.307
521.83	2.403
522.17	2.484
522.51	2.599
522.85	2.727
523.19	2.881
523.53	3.026
523.87	3.192
524.21	3.339
524.55	3.475
524.89	3.596
525.23	3.720
525.57	3.826
525.91	3.935
526.25	4.024
526.58	4.103
526.92	4.170
527.26	4.227
527.60	4.260
527.94	4.292
528.28	4.305
528.62	4.323
528.96	4.345
529.30	4.357
529.64	4.369
529.97	4.383
530.31	4.391
530.65	4.397
530.99	4.406
531.33	4.433
531.67	4.444
532.01	4.482
532.35	4.496
532.68	4.504
533.02	4.515
533.36	4.514
533.70	4.516
534.04	4.518
534.38	4.522
534.71	4.524
535.05	4.512
535.39	4.520
535.73	4.527
536.07	4.541
536.41	4.553
536.74	4.588
537.08	4.630
537.42	4.690
537.76	4.748
538.10	4.799
538.43	4.848
538.77	4.905
539.11	4.958
539.45	4.992
539.79	5.040
540.12	5.070
540.46	5.085
540.80	5.097
541.14	5.091
541.47	5.068
541.81	5.050
542.15	5.032
542.49	5.007
542.82	4.975
543.16	4.944
543.50	4.908
543.84	4.873
544.17	4.841
544.51	4.818
544.85	4.790
545.18	4.784
545.52	4.770
545.86	4.746
546.20	4.734
546.53	4.711
546.87	4.687
547.21	4.654
547.54	4.629
547.88	4.624
548.22	4.591
548.55	4.581
548.89	4.579
549.23	4.574
549.56	4.574
549.90	4.572
550.24	4.578
550.57	4.590
550.91	4.590
551.25	4.608
551.58	4.586
551.92	4.581
552.26	4.551
552.59	4.524
552.93	4.502
553.27	4.484
553.60	4.453
553.94	4.405
554.27	4.385
554.61	4.361
554.95	4.331
555.28	4.329
555.62	4.304
555.95	4.308
556.29	4.274
556.63	4.249
556.96	4.222
557.30	4.189
557.63	4.164
557.97	4.121
558.31	4.077
558.64	4.019
558.98	3.977
559.31	3.963
559.65	3.928
559.98	3.892
560.32	3.857
560.65	3.819
560.99	3.790
561.33	3.765
561.66	3.744
562.00	3.748
562.33	3.737
562.67	3.707
563.00	3.666
563.34	3.621
563.67	3.594
564.01	3.547
564.34	3.526
564.68	3.490
565.01	3.460
565.35	3.410
565.68	3.350
566.02	3.291
566.35	3.240
566.69	3.180
567.02	3.151
567.36	3.103
567.69	3.083
568.03	3.033
568.36	2.983
568.69	2.942
569.03	2.898
569.36	2.864
569.70	2.837
570.03	2.802
570.37	2.784
570.70	2.734
571.04	2.702
571.37	2.648
571.70	2.610
572.04	2.573
572.37	2.519
572.71	2.491
573.04	2.449
573.37	2.404
573.71	2.366
574.04	2.320
574.38	2.280
574.71	2.238
575.04	2.205
575.38	2.143
575.71	2.096
576.05	2.070
576.38	2.026
576.71	1.966
577.05	1.914
577.38	1.862
577.71	1.808
578.05	1.746
578.38	1.710
578.71	1.646
579.05	1.593
579.38	1.536
579.71	1.469
580.05	1.414
580.38	1.388
580.71	1.346
581.05	1.315
581.38	1.283
581.71	1.265
582.05	1.220
582.38	1.225
582.71	1.217
583.04	1.216
583.38	1.205
583.71	1.192
584.04	1.171
584.38	1.162
584.71	1.153
585.04	1.158
585.37	1.152
585.71	1.156
586.04	1.152
586.37	1.162
586.70	1.172
587.04	1.191
587.37	1.191
587.70	1.177
588.03	1.182
588.37	1.182
588.70	1.162
589.03	1.154
589.36	1.141
589.69	1.102
590.03	1.088
590.36	1.041
590.69	1.004
591.02	0.979
591.35	0.967
591.69	0.958
592.02	0.939
592.35	0.949
592.68	0.955
593.01	0.946
593.35	0.952
593.68	0.955
594.01	0.975
594.34	0.952
594.67	0.961
595.00	0.954
595.34	0.918
595.67	0.896
596.00	0.862
596.33	0.804
596.66	0.750
596.99	0.703
597.32	0.641
597.65	0.598
597.99	0.559
598.32	0.494
598.65	0.446
598.98	0.405
599.31	0.374
599.64	0.377
599.97	0.383
600.30	0.402
600.63	0.408
600.96	0.437
601.30	0.448
601.63	0.481
601.96	0.500
602.29	0.524
602.62	0.545
602.95	0.561
603.28	0.545
603.61	0.511
603.94	0.484
604.27	0.473
604.60	0.431
604.93	0.419
605.26	0.385
605.59	0.351
605.92	0.316
606.25	0.282
606.58	0.242
606.91	0.199
607.24	0.214
607.57	0.210
607.90	0.186
608.23	0.142
608.56	0.082
608.89	0.041
609.22	0.009
609.55	-0.032
609.88	-0.084
610.21	-0.126
610.54	-0.164
610.87	-0.232
611.20	-0.305
611.53	-0.347
611.86	-0.367
612.19	-0.429
612.52	-0.473
612.85	-0.479
613.18	-0.505
613.51	-0.537
613.84	-0.585
614.17	-0.648
614.49	-0.659
614.82	-0.687
615.15	-0.740
615.48	-0.745
615.81	-0.743
616.14	-0.755
616.47	-0.807
616.80	-0.858
617.13	-0.867
617.46	-0.879
617.78	-0.878
618.11	-0.911
618.44	-0.921
618.77	-0.947
619.10	-1.004
619.43	-1.020
619.76	-1.063
620.09	-1.062
620.41	-1.045
620.74	-1.051
621.07	-1.037
621.40	-1.019
621.73	-1.008
622.06	-0.993
622.38	-0.938
622.71	-0.889
623.04	-0.849
623.37	-0.776
623.70	-0.770
624.02	-0.733
624.35	-0.692
624.68	-0.668
625.01	-0.651
625.34	-0.621
625.66	-0.616
625.99	-0.603
626.32	-0.603
626.65	-0.604
626.98	-0.619
627.30	-0.613
627.63	-0.632
627.96	-0.685
628.29	-0.744
628.61	-0.788
628.94	-0.835
629.27	-0.857
629.60	-0.935
629.92	-0.946
630.25	-0.995
630.58	-1.010
630.91	-1.045
631.23	-1.083
631.56	-1.094
631.89	-1.097
632.21	-1.100
632.54	-1.111
632.87	-1.150
633.19	-1.169
633.52	-1.217
633.85	-1.211
634.18	-1.279
634.50	-1.329
634.83	-1.353
635.16	-1.408
635.48	-1.472
635.81	-1.519
636.14	-1.592
636.46	-1.607
636.79	-1.629
637.11	-1.679
637.44	-1.786
637.77	-1.829
638.09	-1.864
638.42	-1.905
638.75	-1.900
639.07	-1.889
639.40	-1.901
639.73	-1.897
640.05	-1.937
640.38	-1.924
640.70	-1.949
641.03	-1.913
641.36	-1.908
641.68	-1.889
642.01	-1.878
642.33	-1.893
642.66	-1.898
642.98	-1.904
643.31	-1.909
643.64	-1.881
643.96	-1.873
644.29	-1.818
644.61	-1.804
644.94	-1.785
645.26	-1.732
645.59	-1.692
645.91	-1.639
646.24	-1.605
646.56	-1.596
646.89	-1.533
647.22	-1.502
647.54	-1.487
647.87	-1.490
648.19	-1.496
648.52	-1.485
648.84	-1.502
649.17	-1.545
649.49	-1.562
649.82	-1.567
650.14	-1.585
650.47	-1.628
650.79	-1.654
651.11	-1.656
651.44	-1.640
651.76	-1.615
652.09	-1.574
652.41	-1.550
652.74	-1.519
653.06	-1.491
653.39	-1.450
653.71	-1.379
654.04	-1.372
654.36	-1.332
654.68	-1.302
655.01	-1.261
655.33	-1.229
655.66	-1.227
655.98	-1.206
656.30	-1.182
656.63	-1.155
656.95	-1.130
657.28	-1.101
657.60	-1.053
657.92	-1.039
658.25	-1.058
658.57	-1.063
658.90	-1.082
659.22	-1.076
659.54	-1.091
659.87	-1.107
660.19	-1.181
660.51	-1.212
660.84	-1.280
661.16	-1.319
661.48	-1.334
661.81	-1.330
662.13	-1.333
662.45	-1.315
662.78	-1.296
663.10	-1.245
663.42	-1.229
663.75	-1.148
664.07	-1.148
664.39	-1.115
664.72	-1.077
665.04	-1.040
665.36	-0.984
665.69	-0.949
666.01	-0.870
666.33	-0.800
666.65	-0.760
666.98	-0.633
667.30	-0.496
667.62	-0.406
667.94	-0.299
668.27	-0.142
668.59	-0.013
668.91	0.132
669.23	0.258
669.56	0.363
669.88	0.476
670.20	0.587
670.52	0.714
670.85	0.764
671.17	0.916
671.49	1.042
671.81	1.124
672.13	1.171
672.46	1.272
672.78	1.435
673.10	1.582
673.42	1.726
673.74	1.884
674.07	1.940
674.39	2.143
674.71	2.250
675.03	2.430
675.35	2.568
675.67	2.791
676.00	2.911
676.32	2.988
676.64	3.082
676.96	3.229
677.28	3.333
677.60	3.528
677.92	3.574
678.25	3.702
678.57	3.787
678.89	3.867
679.21	3.953
679.53	4.058
679.85	4.171
680.17	4.312
680.49	4.399
680.81	4.552
681.13	4.599
681.46	4.710
681.78	4.818
682.10	4.918
682.42	5.055
682.74	5.155
683.06	5.253
683.38	5.327
683.70	5.405
684.02	5.450
684.34	5.570
684.66	5.699
684.98	5.824
685.30	5.857
685.62	5.915
685.94	5.957
686.26	5.961
686.58	5.940
686.90	5.949
687.22	5.899
687.54	5.839
687.86	5.659
688.18	5.520
688.50	5.456
688.82	5.413
689.14	5.325
689.46	5.275
689.78	5.193
690.10	5.156
690.42	5.087
690.74	5.058
691.06	5.106
691.38	5.132
691.70	5.173
692.02	5.134
692.34	5.103
692.66	5.112
692.98	5.092
693.30	5.208
693.62	5.221
693.94	5.250
694.26	5.286
694.57	5.255
694.89	5.314
695.21	5.378
695.53	5.505
695.85	5.597
696.17	5.694
696.49	5.831
696.81	5.920
697.13	6.090
697.44	6.234
697.76	6.411
698.08	6.671
698.40	6.896
698.72	7.108
699.04	7.284
699.36	7.609
699.67	7.874
699.99	8.144
700.31	8.434
700.63	8.731
700.95	9.118
701.27	9.421
701.58	9.643
701.90	9.880
702.22	10.175
702.54	10.444
702.86	10.643
703.17	10.827
703.49	11.082
703.81	11.349
704.13	11.532
704.45	11.725
704.76	11.955
705.08	12.206
705.40	12.422
705.72	12.686
706.03	12.979
706.35	13.213
706.67	13.573
706.99	13.837
707.30	14.039
707.62	14.332
707.94	14.617
708.26	14.815
708.57	15.047
708.89	15.359
709.21	15.590
709.53	15.802
709.84	16.132
710.16	16.407
710.48	16.679
710.79	17.032
711.11	17.340
711.43	17.591
711.74	17.944
712.06	18.378
712.38	18.707
712.69	19.011
713.01	19.412
713.33	19.722
713.64	20.083
713.96	20.387
714.28	20.789
714.59	21.198
714.91	21.643
715.23	22.012
715.54	22.240
715.86	22.615
716.17	23.033
716.49	23.333
716.81	23.723
717.12	24.072
717.44	24.543
717.76	24.902
718.07	25.275
718.39	25.546
718.70	25.961
719.02	26.314
719.33	26.644
719.65	26.924
719.97	27.223
720.28	27.589
720.60	27.975
720.91	28.252
721.23	28.595
721.54	28.869
721.86	29.271
722.17	29.567
722.49	30.038
722.81	30.321
723.12	30.774
723.44	31.180
723.75	31.443
724.07	31.712
724.38	32.100
724.70	32.328
725.01	32.597
725.33	32.891
725.64	33.207
725.96	33.402
726.27	33.662
726.59	33.906
726.90	34.115
727.22	34.242
727.53	34.521
727.84	34.623
728.16	34.849
728.47	35.079
728.79	35.355
729.10	35.538
729.42	35.695
729.73	35.992
730.05	36.157
730.36	36.477
730.67	36.850
730.99	37.025
731.30	37.317
731.62	37.531
731.93	37.838
732.24	37.985
732.56	38.256
732.87	38.711
733.19	38.982
733.50	39.176
733.81	39.416
734.13	39.742
734.44	40.114
734.76	40.375
735.07	40.765
735.38	41.108
735.70	41.431
736.01	41.775
736.32	41.911
736.64	42.164
736.95	42.571
737.26	42.787
737.58	42.923
737.89	43.099
738.20	43.394
738.52	43.577
738.83	43.518
739.14	43.737
739.45	43.918
739.77	44.177
740.08	44.322
740.39	44.488
740.71	44.636
741.02	44.767
741.33	44.838
741.64	45.039
741.96	45.136
742.27	45.411
742.58	45.526
742.90	45.584
743.21	45.582
743.52	45.816
743.83	45.822
744.14	45.961
744.46	46.161
744.77	46.386
745.08	46.319
745.39	46.425
745.71	46.560
746.02	46.814
746.33	46.697
746.64	46.742
746.95	46.694
747.27	46.828
747.58	46.903
747.89	46.895
748.20	46.828
748.51	46.932
748.82	46.840
749.14	46.738
749.45	46.570
749.76	46.851
750.07	47.155
750.38	47.207
750.69	47.223
751.01	47.148
751.32	47.197
751.63	47.505
751.94	47.377
752.25	47.501
752.56	47.522
752.87	47.470
753.18	47.300
753.49	47.126
753.81	47.147
754.12	47.149
754.43	47.279
754.74	47.287
755.05	47.215
755.36	47.502
755.67	47.713
755.98	47.947
756.29	48.215
756.60	48.547
756.91	48.603
757.22	48.655
757.53	48.864
757.84	48.900
758.15	49.074
758.46	49.152
758.77	49.000
759.09	48.932
759.40	48.880
759.71	48.747
760.02	48.532
760.33	48.548
760.64	48.460
760.95	48.395
761.26	48.240
761.57	48.099
761.88	47.982
762.18	47.895
762.49	47.775
762.80	47.838
763.11	47.813
763.42	47.686
763.73	47.618
764.04	47.517
764.35	47.327
764.66	47.395
764.97	47.295
765.28	47.163
765.59	47.186
765.90	47.110
766.21	46.633
766.52	46.416
766.83	46.471
767.14	46.425
767.44	46.346
767.75	46.249
768.06	46.154
768.37	45.950
768.68	45.879
768.99	45.642
769.30	45.515
769.61	45.533
769.91	45.361
770.22	44.971
770.53	44.549
770.84	44.470
771.15	44.400
771.46	43.982
771.77	44.052
772.07	43.961
772.38	43.981
772.69	44.046
773.00	44.140
773.31	44.127
773.61	44.267
773.92	44.196
774.23	44.154
774.54	44.000
774.85	44.131
775.15	44.110
775.46	43.910
775.77	43.812
776.08	43.583
776.39	43.455
776.69	43.554
777.00	43.595
777.31	43.808
777.62	43.679
777.92	43.851
778.23	43.791
778.54	43.787
778.85	43.720
779.15	43.369
779.46	43.444
779.77	43.509
780.07	43.790
780.38	43.949
780.69	43.687
781.00	43.646
781.30	43.469
781.61	43.510
781.92	43.458
782.22	43.605
782.53	43.958
782.84	44.093
783.14	44.211
783.45	44.003
783.76	44.037
784.06	44.301
784.37	44.432
784.68	44.534
784.98	44.627
785.29	44.586
785.60	44.575
785.90	44.755
786.21	44.723
786.51	44.606
786.82	44.609
787.13	44.753
787.43	44.719
787.74	44.710
788.04	45.003
788.35	45.132
788.66	45.048
788.96	45.022
789.27	44.883
789.57	44.589
789.88	44.646
790.19	44.635
790.49	44.320
790.80	44.194
791.10	44.508
791.41	44.082
791.71	44.080
792.02	44.317
792.32	44.248
792.63	44.449
792.93	44.525
793.24	44.448
793.54	44.705
793.85	44.732
794.15	44.777
794.46	44.680
794.76	44.845
795.07	44.634
795.37	44.591
795.68	44.818
795.98	45.004
796.29	45.284
796.59	45.193
796.90	45.028
797.20	44.816
797.51	45.112
797.81	44.763
798.12	44.629
798.42	44.766
798.72	44.761
799.03	44.965
799.33	44.569
799.64	44.502
799.94	44.756
800.25	44.642
800.55	44.744
800.85	44.912
801.16	45.413
801.46	45.300
801.77	45.165
802.07	45.237
802.37	44.689
802.68	44.865
802.98	44.924
803.28	44.753
803.59	44.663
803.89	44.876
804.20	44.647
804.50	44.441
804.80	45.058
805.11	44.969
805.41	45.203
805.71	45.429
806.02	45.461
806.32	45.349
806.62	45.649
806.93	45.826
807.23	46.046
807.53	46.165
807.83	46.073
808.14	45.752
808.44	45.948
808.74	45.621
809.05	45.656
809.35	45.361
809.65	45.599
809.95	45.500
810.26	45.212
810.56	45.132
810.86	45.030
811.16	45.227
811.47	45.911
811.77	46.429
812.07	46.448
812.37	46.680
812.68	47.174
812.98	47.267
813.28	47.471
813.58	48.307
813.88	48.123
814.19	48.686
814.49	48.853
814.79	48.401
815.09	48.236
815.39	48.198
815.70	48.375
816.00	48.089
816.30	47.725
816.60	47.202
816.90	46.969
817.20	47.545
817.50	47.356
817.81	47.109
818.11	47.149
818.41	47.259
818.71	47.380
819.01	47.487
819.31	47.894
819.61	48.079
819.92	48.442
820.22	48.770
820.52	48.905
820.82	49.175
821.12	49.592
821.42	49.948
821.72	50.210
822.02	50.484
822.32	50.800
822.62	51.007
822.92	51.278
823.22	51.557
823.52	51.699
823.83	51.799
824.13	51.848
824.43	51.690
824.73	51.563
825.03	51.406
825.33	51.353
825.63	51.136
825.93	51.061
826.23	51.013
826.53	50.860
826.83	50.730
827.13	50.816
827.43	50.804
827.73	51.311
828.03	51.355
828.33	51.744
828.63	51.921
828.93	52.137
829.23	51.928
829.53	51.694
829.83	51.172
830.13	51.037
830.42	50.955
830.72	50.593
831.02	49.977
831.32	49.905
831.62	49.499
831.92	49.435
832.22	49.261
832.52	49.151
832.82	49.345
833.12	49.542
833.42	49.564
833.72	49.434
834.01	49.759
834.31	49.788
834.61	50.164
834.91	50.641
835.21	50.983
835.51	51.115
835.81	51.030
836.11	51.080
836.40	51.411
836.70	51.078
837.00	51.248
837.30	51.194
837.60	51.491
837.90	50.944
838.19	50.064
838.49	49.910
838.79	49.773
839.09	50.385
839.39	50.265
839.68	50.010
839.98	49.647
840.28	49.150
840.58	48.992
840.88	49.060
841.17	49.232
841.47	49.929
841.77	49.861
842.07	50.127
842.36	49.544
842.66	48.865
842.96	47.759
843.26	48.072
843.55	47.034
843.85	46.925
844.15	46.376
844.45	44.548
844.74	44.179
845.04	42.913
845.34	42.573
845.63	42.701
845.93	43.724
846.23	45.327
846.53	46.184
846.82	47.496
847.12	46.963
847.42	45.977
847.71	46.175
848.01	45.933
848.31	46.233
848.60	46.725
848.90	45.982
849.19	44.867
849.49	43.800
849.79	44.050
850.08	44.852
850.38	44.722
850.68	45.400
850.97	47.140
851.27	46.898
851.56	46.222
851.86	45.753
852.16	45.843
852.45	45.688
852.75	45.719
853.04	46.690
853.34	45.211
853.64	45.717
853.93	44.666
854.23	43.374
854.52	44.482
854.82	45.883
855.11	46.291
855.41	48.318
855.70	48.287
856.00	48.185
856.30	47.374
856.59	49.564
856.89	50.484
857.18	52.813
857.48	52.887
857.77	52.312
858.07	51.635
858.36	50.528
858.66	49.559
858.95	51.363
859.25	51.301
859.54	50.911
859.84	50.145
860.13	48.183
860.42	46.615
860.72	46.482
861.01	46.480
861.31	46.592
861.60	47.148
861.90	48.502
862.19	47.703
862.49	48.091
862.78	47.815
863.07	47.660
863.37	47.993
863.66	46.341
863.96	48.553
864.25	49.813
864.54	50.229
864.84	52.001
865.13	50.420
865.43	49.969
865.72	68.353
866.01	54.654
866.31	66.299
866.60	42.859
866.89	40.277
>>>>>End Spectral Data<<<<<
