OOIBase32 Version 2.0.0.6 Data File
++++++++++++++++++++++++++++++++++++
Date: 01-23-2012, 23:05:06
User: Valued Ocean Optics Customer
Spectrometer Serial Number: USB2E2917
Spectrometer Channel: Master
Integration Time (msec): 5
Spectra Averaged: 10
Boxcar Smoothing: 5
Correct for Electrical Dark: Enabled
Time Normalized: Disabled
Dual-beam Reference: Disabled
Reference Channel: Master
Temperature: Not acquired
Spectrometer Type: S2000
ADC Type: USB2000
Number of Pixels in File: 2048
Graph Title: 
>>>>>Begin Spectral Data<<<<<
180.30	0.000
180.67	0.000
181.03	48.110
181.40	92.721
181.77	-10606.422
182.14	43.146
182.51	293.865
182.88	122.948
183.25	28.832
183.62	31.164
183.99	562.923
184.36	120.522
184.73	14.984
185.10	21.684
185.46	-1232.182
185.83	-232.787
186.20	1842.153
186.57	185.713
186.94	-10.973
187.31	65.490
187.68	66.809
188.05	97.658
188.42	231.266
188.78	485.563
189.15	1092.727
189.52	-284.865
189.89	-84.886
190.26	-32.537
190.63	-1.294
191.00	9.945
191.37	9.967
191.73	14.840
192.10	9.045
192.47	16.202
192.84	16.695
193.21	11.213
193.58	11.777
193.94	5.281
194.31	-16.650
194.68	-27.805
195.05	-37.582
195.42	-44.657
195.79	-44.491
196.15	-40.289
196.52	-41.762
196.89	-44.078
197.26	-42.761
197.63	-42.298
198.00	-45.700
198.36	-33.093
198.73	-43.149
199.10	-40.570
199.47	-20.897
199.84	-31.258
200.20	-23.021
200.57	-11.825
200.94	-9.887
201.31	-14.620
201.68	-29.476
202.04	-24.544
202.41	-22.250
202.78	-23.838
203.15	-33.153
203.51	-46.919
203.88	-33.490
204.25	-40.851
204.62	-70.905
204.98	-91.891
205.35	-97.445
205.72	-77.749
206.09	-55.505
206.46	-88.009
206.82	-68.151
207.19	-59.059
207.56	-82.360
207.92	-78.480
208.29	-90.773
208.66	-49.481
209.03	-51.016
209.39	-18.932
209.76	-18.616
210.13	-78.675
210.50	-51.987
210.86	-36.467
211.23	-38.062
211.60	-18.932
211.96	-20.070
212.33	-10.435
212.70	-8.651
213.07	9.494
213.43	-24.412
213.80	-17.067
214.17	9.818
214.53	6.534
214.90	3.149
215.27	1.418
215.63	-9.411
216.00	-13.055
216.37	-12.340
216.74	-22.593
217.10	-22.596
217.47	-9.833
217.84	-7.222
218.20	-8.809
218.57	-3.084
218.94	-4.894
219.30	-5.833
219.67	-2.246
220.04	-2.859
220.40	-11.328
220.77	-16.162
221.13	-11.811
221.50	-7.747
221.87	-13.082
222.23	-18.764
222.60	-24.020
222.97	-24.731
223.33	-18.603
223.70	-15.019
224.07	-11.697
224.43	-6.908
224.80	-2.440
225.16	-4.898
225.53	-9.283
225.90	-10.816
226.26	-7.158
226.63	-6.298
226.99	-4.234
227.36	-2.710
227.73	-0.026
228.09	-0.862
228.46	1.012
228.82	1.719
229.19	2.327
229.56	3.142
229.92	5.230
230.29	5.179
230.65	5.134
231.02	3.658
231.38	-0.128
231.75	-4.528
232.12	-5.196
232.48	-8.011
232.85	-10.335
233.21	-9.834
233.58	-9.593
233.94	-8.191
234.31	-9.333
234.68	-8.523
235.04	-8.453
235.41	-6.168
235.77	-3.450
236.14	-2.055
236.50	-0.023
236.87	1.698
237.23	1.260
237.60	0.804
237.96	-0.343
238.33	-0.220
238.69	-1.106
239.06	-0.927
239.42	-0.320
239.79	-0.670
240.15	-0.970
240.52	-0.987
240.88	-1.120
241.25	-1.065
241.61	-0.422
241.98	-0.458
242.34	-0.698
242.71	-0.171
243.07	0.015
243.44	-0.392
243.80	-0.697
244.17	-0.624
244.53	-0.852
244.90	-0.747
245.26	-0.655
245.63	-0.771
245.99	-0.627
246.36	-0.440
246.72	-0.413
247.09	-0.727
247.45	-0.607
247.81	-0.088
248.18	-0.089
248.54	0.080
248.91	-0.304
249.27	-0.361
249.64	0.116
250.00	0.265
250.36	0.214
250.73	-0.010
251.09	0.363
251.46	0.486
251.82	0.237
252.19	0.337
252.55	0.068
252.91	0.843
253.28	0.963
253.64	0.041
254.01	-0.214
254.37	0.185
254.73	0.889
255.10	0.832
255.46	1.193
255.83	1.059
256.19	0.988
256.55	0.993
256.92	0.753
257.28	0.631
257.65	0.886
258.01	0.892
258.37	0.844
258.74	0.491
259.10	0.415
259.46	0.128
259.83	0.143
260.19	0.202
260.55	0.202
260.92	0.297
261.28	0.242
261.64	0.228
262.01	0.418
262.37	0.329
262.73	0.675
263.10	0.880
263.46	0.771
263.82	0.590
264.19	0.329
264.55	0.103
264.91	0.057
265.28	0.114
265.64	0.069
266.00	-0.210
266.37	-0.104
266.73	-0.175
267.09	-0.032
267.46	0.184
267.82	-0.004
268.18	0.178
268.54	0.280
268.91	0.108
269.27	0.282
269.63	0.298
270.00	0.449
270.36	0.336
270.72	0.496
271.08	0.363
271.45	0.261
271.81	0.613
272.17	0.677
272.53	0.774
272.90	1.088
273.26	1.161
273.62	1.016
273.98	0.899
274.35	1.055
274.71	0.949
275.07	0.895
275.43	0.937
275.80	0.733
276.16	0.511
276.52	0.201
276.88	0.032
277.25	-0.309
277.61	-0.370
277.97	-0.325
278.33	-0.444
278.69	-0.906
279.06	-0.810
279.42	-0.572
279.78	-0.323
280.14	-0.280
280.50	-0.048
280.87	-0.097
281.23	0.066
281.59	0.183
281.95	0.158
282.31	0.229
282.68	0.312
283.04	0.280
283.40	0.186
283.76	0.014
284.12	0.205
284.48	0.337
284.85	0.433
285.21	0.475
285.57	0.466
285.93	0.592
286.29	0.428
286.65	0.706
287.02	0.993
287.38	0.980
287.74	0.886
288.10	0.813
288.46	0.634
288.82	0.431
289.18	0.237
289.54	0.314
289.91	0.280
290.27	0.432
290.63	0.463
290.99	0.327
291.35	0.375
291.71	0.574
292.07	0.483
292.43	0.468
292.79	0.630
293.16	0.818
293.52	0.947
293.88	1.139
294.24	1.090
294.60	0.972
294.96	0.824
295.32	0.857
295.68	0.908
296.04	0.885
296.40	0.930
296.76	0.896
297.12	0.734
297.49	0.509
297.85	0.350
298.21	0.356
298.57	0.237
298.93	0.257
299.29	0.140
299.65	0.070
300.01	0.125
300.37	0.200
300.73	0.440
301.09	0.616
301.45	0.689
301.81	0.652
302.17	0.818
302.53	0.759
302.89	0.684
303.25	0.677
303.61	0.660
303.97	0.568
304.33	0.572
304.69	0.410
305.05	0.382
305.41	0.341
305.77	0.438
306.13	0.293
306.49	0.370
306.85	0.559
307.21	0.641
307.57	0.661
307.93	0.791
308.29	0.851
308.65	0.800
309.01	0.728
309.37	0.705
309.73	0.574
310.09	0.626
310.45	0.697
310.81	0.547
311.17	0.474
311.53	0.456
311.89	0.393
312.25	0.307
312.61	0.301
312.96	0.410
313.32	0.586
313.68	0.605
314.04	0.424
314.40	0.393
314.76	0.426
315.12	0.464
315.48	0.400
315.84	0.327
316.20	0.372
316.56	0.287
316.92	0.088
317.27	-0.150
317.63	-0.136
317.99	-0.035
318.35	-0.027
318.71	-0.047
319.07	-0.090
319.43	-0.028
319.79	0.127
320.15	0.107
320.50	0.185
320.86	0.307
321.22	0.416
321.58	0.411
321.94	0.406
322.30	0.423
322.66	0.457
323.01	0.396
323.37	0.359
323.73	0.274
324.09	0.101
324.45	0.185
324.81	0.152
325.17	0.119
325.52	0.104
325.88	0.003
326.24	-0.028
326.60	-0.130
326.96	-0.129
327.31	-0.147
327.67	-0.200
328.03	-0.061
328.39	-0.162
328.75	-0.045
329.11	0.030
329.46	0.189
329.82	0.337
330.18	0.303
330.54	0.360
330.90	0.423
331.25	0.457
331.61	0.632
331.97	0.643
332.33	0.711
332.68	0.645
333.04	0.554
333.40	0.336
333.76	0.264
334.11	0.243
334.47	0.255
334.83	0.193
335.19	0.177
335.54	0.097
335.90	0.007
336.26	-0.080
336.62	-0.118
336.97	-0.140
337.33	-0.154
337.69	-0.093
338.05	-0.084
338.40	-0.133
338.76	-0.159
339.12	-0.140
339.48	-0.192
339.83	-0.102
340.19	-0.101
340.55	-0.083
340.90	-0.078
341.26	-0.022
341.62	-0.131
341.97	-0.113
342.33	-0.026
342.69	0.060
343.04	0.071
343.40	0.027
343.76	-0.074
344.12	-0.025
344.47	-0.014
344.83	0.073
345.19	0.096
345.54	0.112
345.90	0.138
346.26	0.103
346.61	0.056
346.97	-0.028
347.32	0.033
347.68	0.101
348.04	0.021
348.39	-0.005
348.75	-0.017
349.11	-0.079
349.46	-0.091
349.82	-0.090
350.18	-0.090
350.53	-0.067
350.89	-0.067
351.24	-0.106
351.60	-0.149
351.96	-0.040
352.31	-0.069
352.67	-0.040
353.02	-0.029
353.38	-0.018
353.74	-0.005
354.09	-0.068
354.45	-0.084
354.80	-0.067
355.16	-0.031
355.52	-0.043
355.87	-0.172
356.23	-0.141
356.58	-0.211
356.94	-0.180
357.29	-0.151
357.65	-0.219
358.00	-0.172
358.36	-0.147
358.72	-0.122
359.07	-0.177
359.43	-0.162
359.78	-0.079
360.14	-0.105
360.49	-0.146
360.85	-0.161
361.20	-0.177
361.56	-0.158
361.91	-0.160
362.27	-0.190
362.62	-0.174
362.98	-0.095
363.33	-0.114
363.69	-0.143
364.04	-0.102
364.40	-0.054
364.75	-0.073
365.11	-0.078
365.46	-0.128
365.82	-0.118
366.17	-0.092
366.53	-0.117
366.88	-0.158
367.24	-0.121
367.59	-0.129
367.95	-0.129
368.30	-0.168
368.66	-0.120
369.01	-0.137
369.37	-0.066
369.72	-0.026
370.08	0.015
370.43	0.043
370.78	0.040
371.14	-0.010
371.49	0.019
371.85	-0.019
372.20	0.048
372.56	0.051
372.91	0.087
373.26	0.087
373.62	-0.019
373.97	-0.031
374.33	-0.027
374.68	-0.011
375.03	0.001
375.39	-0.043
375.74	-0.040
376.10	-0.085
376.45	-0.088
376.80	-0.083
377.16	-0.120
377.51	-0.054
377.87	-0.064
378.22	-0.116
378.57	-0.127
378.93	-0.087
379.28	-0.047
379.63	-0.037
379.99	0.009
380.34	0.014
380.70	0.010
381.05	0.065
381.40	0.040
381.76	0.042
382.11	0.098
382.46	0.137
382.82	0.179
383.17	0.169
383.52	0.167
383.88	0.104
384.23	0.070
384.58	0.050
384.94	0.026
385.29	0.067
385.64	0.076
385.99	0.085
386.35	0.065
386.70	0.028
387.05	0.001
387.41	0.021
387.76	0.004
388.11	0.012
388.47	0.007
388.82	0.006
389.17	-0.007
389.52	-0.039
389.88	-0.036
390.23	-0.045
390.58	-0.016
390.93	0.022
391.29	0.025
391.64	0.110
391.99	0.147
392.34	0.195
392.70	0.203
393.05	0.192
393.40	0.232
393.75	0.200
394.11	0.194
394.46	0.155
394.81	0.138
395.16	0.071
395.52	0.011
395.87	-0.005
396.22	-0.007
396.57	-0.031
396.92	-0.053
397.28	-0.079
397.63	-0.121
397.98	-0.133
398.33	-0.139
398.68	-0.134
399.04	-0.100
399.39	-0.112
399.74	-0.131
400.09	-0.177
400.44	-0.134
400.80	-0.122
401.15	-0.150
401.50	-0.114
401.85	-0.092
402.20	-0.102
402.55	-0.072
402.90	-0.075
403.26	-0.048
403.61	-0.075
403.96	-0.064
404.31	-0.119
404.66	-0.121
405.01	-0.127
405.36	-0.134
405.72	-0.162
406.07	-0.161
406.42	-0.227
406.77	-0.208
407.12	-0.215
407.47	-0.191
407.82	-0.179
408.17	-0.151
408.53	-0.155
408.88	-0.128
409.23	-0.126
409.58	-0.129
409.93	-0.117
410.28	-0.093
410.63	-0.125
410.98	-0.137
411.33	-0.151
411.68	-0.145
412.03	-0.112
412.38	-0.121
412.73	-0.097
413.09	-0.086
413.44	-0.043
413.79	-0.032
414.14	0.015
414.49	0.071
414.84	0.111
415.19	0.173
415.54	0.212
415.89	0.231
416.24	0.297
416.59	0.323
416.94	0.352
417.29	0.366
417.64	0.377
417.99	0.383
418.34	0.395
418.69	0.410
419.04	0.412
419.39	0.412
419.74	0.413
420.09	0.415
420.44	0.416
420.79	0.433
421.14	0.443
421.49	0.458
421.84	0.453
422.19	0.453
422.54	0.447
422.89	0.438
423.24	0.430
423.59	0.417
423.94	0.394
424.29	0.388
424.64	0.365
424.99	0.343
425.34	0.309
425.68	0.298
426.03	0.268
426.38	0.248
426.73	0.250
427.08	0.238
427.43	0.257
427.78	0.273
428.13	0.258
428.48	0.264
428.83	0.264
429.18	0.286
429.53	0.300
429.87	0.307
430.22	0.309
430.57	0.333
430.92	0.329
431.27	0.324
431.62	0.309
431.97	0.305
432.32	0.288
432.67	0.286
433.01	0.256
433.36	0.245
433.71	0.223
434.06	0.209
434.41	0.168
434.76	0.175
435.11	0.177
435.45	0.193
435.80	0.207
436.15	0.223
436.50	0.236
436.85	0.268
437.20	0.267
437.54	0.285
437.89	0.305
438.24	0.311
438.59	0.313
438.94	0.285
439.29	0.259
439.63	0.266
439.98	0.249
440.33	0.231
440.68	0.231
441.03	0.243
441.37	0.244
441.72	0.249
442.07	0.251
442.42	0.260
442.76	0.293
443.11	0.304
443.46	0.302
443.81	0.324
444.16	0.339
444.50	0.334
444.85	0.325
445.20	0.332
445.55	0.317
445.89	0.318
446.24	0.305
446.59	0.269
446.94	0.257
447.28	0.236
447.63	0.209
447.98	0.191
448.32	0.163
448.67	0.141
449.02	0.101
449.37	0.077
449.71	0.082
450.06	0.073
450.41	0.086
450.75	0.088
451.10	0.097
451.45	0.090
451.79	0.069
452.14	0.070
452.49	0.064
452.84	0.073
453.18	0.070
453.53	0.046
453.88	0.034
454.22	0.025
454.57	0.039
454.92	0.034
455.26	0.044
455.61	0.089
455.95	0.122
456.30	0.142
456.65	0.173
456.99	0.205
457.34	0.218
457.69	0.241
458.03	0.255
458.38	0.259
458.73	0.259
459.07	0.260
459.42	0.231
459.76	0.201
460.11	0.181
460.46	0.146
460.80	0.106
461.15	0.084
461.49	0.048
461.84	0.029
462.19	0.003
462.53	-0.006
462.88	-0.021
463.22	-0.028
463.57	-0.024
463.91	-0.015
464.26	-0.007
464.61	-0.002
464.95	-0.007
465.30	-0.007
465.64	-0.003
465.99	-0.008
466.33	-0.001
466.68	-0.011
467.02	-0.008
467.37	-0.016
467.71	-0.044
468.06	-0.053
468.41	-0.071
468.75	-0.070
469.10	-0.072
469.44	-0.091
469.79	-0.106
470.13	-0.136
470.48	-0.154
470.82	-0.179
471.17	-0.183
471.51	-0.198
471.86	-0.211
472.20	-0.208
472.55	-0.231
472.89	-0.239
473.23	-0.257
473.58	-0.252
473.92	-0.254
474.27	-0.241
474.61	-0.243
474.96	-0.239
475.30	-0.213
475.65	-0.218
475.99	-0.223
476.34	-0.206
476.68	-0.227
477.02	-0.207
477.37	-0.197
477.71	-0.177
478.06	-0.150
478.40	-0.071
478.75	-0.002
479.09	0.072
479.43	0.155
479.78	0.235
480.12	0.295
480.47	0.373
480.81	0.419
481.15	0.467
481.50	0.520
481.84	0.566
482.19	0.599
482.53	0.629
482.87	0.649
483.22	0.646
483.56	0.632
483.90	0.613
484.25	0.583
484.59	0.561
484.94	0.534
485.28	0.499
485.62	0.461
485.97	0.419
486.31	0.385
486.65	0.353
487.00	0.338
487.34	0.328
487.68	0.313
488.03	0.303
488.37	0.292
488.71	0.280
489.06	0.263
489.40	0.258
489.74	0.242
490.09	0.220
490.43	0.196
490.77	0.163
491.11	0.120
491.46	0.089
491.80	0.048
492.14	-0.001
492.49	-0.034
492.83	-0.075
493.17	-0.123
493.51	-0.165
493.86	-0.206
494.20	-0.233
494.54	-0.252
494.88	-0.245
495.23	-0.239
495.57	-0.235
495.91	-0.216
496.25	-0.207
496.60	-0.207
496.94	-0.225
497.28	-0.224
497.62	-0.221
497.97	-0.241
498.31	-0.241
498.65	-0.257
498.99	-0.273
499.33	-0.273
499.68	-0.273
500.02	-0.284
500.36	-0.280
500.70	-0.277
501.04	-0.283
501.39	-0.304
501.73	-0.285
502.07	-0.282
502.41	-0.273
502.75	-0.258
503.09	-0.252
503.44	-0.249
503.78	-0.234
504.12	-0.224
504.46	-0.189
504.80	-0.144
505.14	-0.104
505.49	-0.073
505.83	-0.051
506.17	-0.016
506.51	0.013
506.85	0.056
507.19	0.087
507.53	0.106
507.87	0.145
508.22	0.168
508.56	0.173
508.90	0.187
509.24	0.209
509.58	0.223
509.92	0.234
510.26	0.260
510.60	0.270
510.94	0.282
511.28	0.301
511.63	0.329
511.97	0.358
512.31	0.390
512.65	0.442
512.99	0.484
513.33	0.574
513.67	0.640
514.01	0.727
514.35	0.809
514.69	0.900
515.03	0.984
515.37	1.066
515.71	1.151
516.05	1.239
516.39	1.296
516.73	1.368
517.07	1.397
517.41	1.450
517.75	1.485
518.09	1.521
518.43	1.556
518.77	1.579
519.11	1.608
519.45	1.625
519.79	1.659
520.13	1.707
520.47	1.775
520.81	1.869
521.15	1.966
521.49	2.053
521.83	2.157
522.17	2.255
522.51	2.397
522.85	2.536
523.19	2.703
523.53	2.887
523.87	3.079
524.21	3.240
524.55	3.397
524.89	3.542
525.23	3.679
525.57	3.800
525.91	3.914
526.25	4.010
526.58	4.095
526.92	4.174
527.26	4.232
527.60	4.270
527.94	4.314
528.28	4.343
528.62	4.367
528.96	4.391
529.30	4.415
529.64	4.449
529.97	4.477
530.31	4.494
530.65	4.517
530.99	4.550
531.33	4.599
531.67	4.631
532.01	4.670
532.35	4.706
532.68	4.733
533.02	4.749
533.36	4.761
533.70	4.778
534.04	4.805
534.38	4.820
534.71	4.823
535.05	4.818
535.39	4.839
535.73	4.846
536.07	4.853
536.41	4.890
536.74	4.942
537.08	4.987
537.42	5.055
537.76	5.111
538.10	5.178
538.43	5.255
538.77	5.319
539.11	5.364
539.45	5.418
539.79	5.469
540.12	5.508
540.46	5.529
540.80	5.544
541.14	5.532
541.47	5.523
541.81	5.519
542.15	5.495
542.49	5.467
542.82	5.449
543.16	5.417
543.50	5.392
543.84	5.349
544.17	5.315
544.51	5.301
544.85	5.280
545.18	5.279
545.52	5.251
545.86	5.227
546.20	5.230
546.53	5.211
546.87	5.197
547.21	5.182
547.54	5.164
547.88	5.165
548.22	5.127
548.55	5.122
548.89	5.119
549.23	5.119
549.56	5.115
549.90	5.129
550.24	5.118
550.57	5.127
550.91	5.111
551.25	5.119
551.58	5.108
551.92	5.117
552.26	5.114
552.59	5.094
552.93	5.070
553.27	5.074
553.60	5.030
553.94	4.995
554.27	4.964
554.61	4.954
554.95	4.915
555.28	4.880
555.62	4.840
555.95	4.817
556.29	4.786
556.63	4.751
556.96	4.709
557.30	4.678
557.63	4.659
557.97	4.622
558.31	4.574
558.64	4.556
558.98	4.528
559.31	4.532
559.65	4.498
559.98	4.476
560.32	4.450
560.65	4.416
560.99	4.386
561.33	4.347
561.66	4.320
562.00	4.306
562.33	4.256
562.67	4.226
563.00	4.164
563.34	4.131
563.67	4.080
564.01	4.040
564.34	3.999
564.68	3.966
565.01	3.931
565.35	3.892
565.68	3.842
566.02	3.807
566.35	3.739
566.69	3.682
567.02	3.643
567.36	3.591
567.69	3.544
568.03	3.505
568.36	3.441
568.69	3.405
569.03	3.359
569.36	3.315
569.70	3.270
570.03	3.251
570.37	3.215
570.70	3.168
571.04	3.123
571.37	3.078
571.70	3.025
572.04	2.986
572.37	2.928
572.71	2.870
573.04	2.816
573.37	2.778
573.71	2.735
574.04	2.696
574.38	2.624
574.71	2.572
575.04	2.518
575.38	2.463
575.71	2.401
576.05	2.352
576.38	2.313
576.71	2.253
577.05	2.185
577.38	2.121
577.71	2.053
578.05	1.999
578.38	1.966
578.71	1.907
579.05	1.853
579.38	1.827
579.71	1.790
580.05	1.733
580.38	1.709
580.71	1.661
581.05	1.632
581.38	1.588
581.71	1.557
582.05	1.515
582.38	1.509
582.71	1.472
583.04	1.440
583.38	1.387
583.71	1.394
584.04	1.364
584.38	1.364
584.71	1.347
585.04	1.370
585.37	1.373
585.71	1.381
586.04	1.369
586.37	1.418
586.70	1.431
587.04	1.454
587.37	1.453
587.70	1.455
588.03	1.454
588.37	1.458
588.70	1.437
589.03	1.441
589.36	1.429
589.69	1.408
590.03	1.373
590.36	1.344
590.69	1.327
591.02	1.291
591.35	1.280
591.69	1.271
592.02	1.285
592.35	1.281
592.68	1.290
593.01	1.288
593.35	1.292
593.68	1.288
594.01	1.298
594.34	1.293
594.67	1.305
595.00	1.302
595.34	1.285
595.67	1.220
596.00	1.209
596.33	1.138
596.66	1.076
596.99	1.029
597.32	0.982
597.65	0.936
597.99	0.869
598.32	0.789
598.65	0.727
598.98	0.689
599.31	0.673
599.64	0.672
599.97	0.678
600.30	0.693
600.63	0.700
600.96	0.716
601.30	0.725
601.63	0.763
601.96	0.800
602.29	0.807
602.62	0.796
602.95	0.791
603.28	0.747
603.61	0.717
603.94	0.694
604.27	0.690
604.60	0.646
604.93	0.631
605.26	0.575
605.59	0.536
605.92	0.516
606.25	0.487
606.58	0.463
606.91	0.426
607.24	0.424
607.57	0.394
607.90	0.347
608.23	0.310
608.56	0.258
608.89	0.232
609.22	0.181
609.55	0.101
609.88	0.053
610.21	0.014
610.54	-0.021
610.87	-0.076
611.20	-0.128
611.53	-0.183
611.86	-0.230
612.19	-0.289
612.52	-0.334
612.85	-0.340
613.18	-0.334
613.51	-0.367
613.84	-0.425
614.17	-0.449
614.49	-0.456
614.82	-0.502
615.15	-0.516
615.48	-0.506
615.81	-0.528
616.14	-0.539
616.47	-0.608
616.80	-0.651
617.13	-0.674
617.46	-0.690
617.78	-0.724
618.11	-0.768
618.44	-0.762
618.77	-0.803
619.10	-0.844
619.43	-0.873
619.76	-0.919
620.09	-0.895
620.41	-0.895
620.74	-0.880
621.07	-0.870
621.40	-0.852
621.73	-0.838
622.06	-0.817
622.38	-0.772
622.71	-0.731
623.04	-0.695
623.37	-0.643
623.70	-0.620
624.02	-0.585
624.35	-0.543
624.68	-0.507
625.01	-0.470
625.34	-0.451
625.66	-0.443
625.99	-0.432
626.32	-0.444
626.65	-0.427
626.98	-0.446
627.30	-0.452
627.63	-0.463
627.96	-0.519
628.29	-0.561
628.61	-0.642
628.94	-0.692
629.27	-0.728
629.60	-0.801
629.92	-0.817
630.25	-0.880
630.58	-0.909
630.91	-0.940
631.23	-0.983
631.56	-1.015
631.89	-1.067
632.21	-1.061
632.54	-1.050
632.87	-1.089
633.19	-1.097
633.52	-1.164
633.85	-1.150
634.18	-1.176
634.50	-1.238
634.83	-1.269
635.16	-1.297
635.48	-1.345
635.81	-1.390
636.14	-1.468
636.46	-1.499
636.79	-1.541
637.11	-1.566
637.44	-1.650
637.77	-1.692
638.09	-1.717
638.42	-1.766
638.75	-1.793
639.07	-1.776
639.40	-1.819
639.73	-1.833
640.05	-1.856
640.38	-1.851
640.70	-1.874
641.03	-1.884
641.36	-1.888
641.68	-1.893
642.01	-1.896
642.33	-1.899
642.66	-1.906
642.98	-1.888
643.31	-1.884
643.64	-1.884
643.96	-1.874
644.29	-1.849
644.61	-1.812
644.94	-1.802
645.26	-1.768
645.59	-1.719
645.91	-1.714
646.24	-1.703
646.56	-1.709
646.89	-1.692
647.22	-1.666
647.54	-1.662
647.87	-1.656
648.19	-1.676
648.52	-1.679
648.84	-1.691
649.17	-1.736
649.49	-1.727
649.82	-1.720
650.14	-1.674
650.47	-1.690
650.79	-1.678
651.11	-1.693
651.44	-1.684
651.76	-1.702
652.09	-1.657
652.41	-1.633
652.74	-1.597
653.06	-1.584
653.39	-1.548
653.71	-1.530
654.04	-1.497
654.36	-1.472
654.68	-1.433
655.01	-1.396
655.33	-1.314
655.66	-1.313
655.98	-1.300
656.30	-1.288
656.63	-1.273
656.95	-1.265
657.28	-1.270
657.60	-1.286
657.92	-1.307
658.25	-1.326
658.57	-1.351
658.90	-1.413
659.22	-1.440
659.54	-1.467
659.87	-1.505
660.19	-1.535
660.51	-1.569
660.84	-1.600
661.16	-1.645
661.48	-1.629
661.81	-1.657
662.13	-1.687
662.45	-1.675
662.78	-1.660
663.10	-1.618
663.42	-1.566
663.75	-1.521
664.07	-1.541
664.39	-1.562
664.72	-1.492
665.04	-1.488
665.36	-1.382
665.69	-1.292
666.01	-1.212
666.33	-1.168
666.65	-1.165
666.98	-1.104
667.30	-1.025
667.62	-0.959
667.94	-0.834
668.27	-0.756
668.59	-0.685
668.91	-0.644
669.23	-0.582
669.56	-0.538
669.88	-0.437
670.20	-0.338
670.52	-0.266
670.85	-0.266
671.17	-0.152
671.49	-0.093
671.81	-0.017
672.13	0.087
672.46	0.193
672.78	0.270
673.10	0.398
673.42	0.492
673.74	0.614
674.07	0.732
674.39	0.948
674.71	1.069
675.03	1.229
675.35	1.388
675.67	1.441
676.00	1.506
676.32	1.605
676.64	1.698
676.96	1.852
677.28	1.918
677.60	2.051
677.92	2.128
678.25	2.224
678.57	2.296
678.89	2.358
679.21	2.484
679.53	2.613
679.85	2.759
680.17	2.861
680.49	2.901
680.81	3.040
681.13	3.073
681.46	3.154
681.78	3.236
682.10	3.340
682.42	3.425
682.74	3.528
683.06	3.611
683.38	3.690
683.70	3.790
684.02	3.893
684.34	4.014
684.66	4.160
684.98	4.265
685.30	4.365
685.62	4.430
685.94	4.524
686.26	4.556
686.58	4.603
686.90	4.615
687.22	4.613
687.54	4.575
687.86	4.461
688.18	4.381
688.50	4.338
688.82	4.256
689.14	4.221
689.46	4.187
689.78	4.186
690.10	4.190
690.42	4.161
690.74	4.185
691.06	4.252
691.38	4.303
691.70	4.326
692.02	4.321
692.34	4.368
692.66	4.408
692.98	4.414
693.30	4.452
693.62	4.483
693.94	4.552
694.26	4.545
694.57	4.656
694.89	4.826
695.21	4.908
695.53	5.090
695.85	5.217
696.17	5.348
696.49	5.531
696.81	5.736
697.13	5.902
697.44	6.063
697.76	6.288
698.08	6.467
698.40	6.631
698.72	6.913
699.04	7.070
699.36	7.343
699.67	7.584
699.99	7.842
700.31	8.056
700.63	8.391
700.95	8.756
701.27	9.099
701.58	9.390
701.90	9.740
702.22	10.146
702.54	10.585
702.86	10.979
703.17	11.403
703.49	11.669
703.81	12.039
704.13	12.385
704.45	12.706
704.76	13.132
705.08	13.486
705.40	13.840
705.72	14.144
706.03	14.532
706.35	14.878
706.67	15.260
706.99	15.762
707.30	16.195
707.62	16.608
707.94	17.031
708.26	17.354
708.57	17.843
708.89	18.269
709.21	18.630
709.53	19.017
709.84	19.445
710.16	19.898
710.48	20.362
710.79	20.912
711.11	21.395
711.43	21.812
711.74	22.346
712.06	22.828
712.38	23.399
712.69	23.964
713.01	24.492
713.33	25.067
713.64	25.625
713.96	26.157
714.28	26.678
714.59	27.329
714.91	27.998
715.23	28.585
715.54	29.106
715.86	29.631
716.17	30.273
716.49	30.850
716.81	31.463
717.12	31.994
717.44	32.597
717.76	33.257
718.07	33.606
718.39	34.031
718.70	34.593
719.02	35.149
719.33	35.645
719.65	36.071
719.97	36.531
720.28	37.003
720.60	37.619
720.91	38.165
721.23	38.506
721.54	39.145
721.86	39.830
722.17	40.288
722.49	40.848
722.81	41.302
723.12	41.867
723.44	42.308
723.75	42.764
724.07	43.118
724.38	43.450
724.70	43.931
725.01	44.323
725.33	44.661
725.64	45.120
725.96	45.500
726.27	45.822
726.59	46.230
726.90	46.696
727.22	46.953
727.53	47.402
727.84	47.863
728.16	48.186
728.47	48.479
728.79	48.770
729.10	49.034
729.42	49.182
729.73	49.669
730.05	49.880
730.36	50.030
730.67	50.403
730.99	50.690
731.30	50.914
731.62	51.251
731.93	51.693
732.24	52.108
732.56	52.482
732.87	52.953
733.19	53.224
733.50	53.609
733.81	54.035
734.13	54.337
734.44	54.633
734.76	54.795
735.07	54.979
735.38	55.168
735.70	55.484
736.01	55.727
736.32	56.072
736.64	56.391
736.95	56.507
737.26	56.773
737.58	56.976
737.89	57.096
738.20	57.462
738.52	57.762
738.83	57.928
739.14	57.964
739.45	58.128
739.77	58.436
740.08	58.585
740.39	58.902
740.71	59.187
741.02	59.432
741.33	59.625
741.64	59.943
741.96	60.134
742.27	60.305
742.58	60.608
742.90	60.791
743.21	60.681
743.52	60.895
743.83	61.025
744.14	61.256
744.46	61.556
744.77	61.726
745.08	61.661
745.39	61.742
745.71	61.634
746.02	61.728
746.33	61.618
746.64	61.782
746.95	61.753
747.27	61.924
747.58	61.879
747.89	61.667
748.20	61.621
748.51	61.807
748.82	61.684
749.14	61.761
749.45	61.739
749.76	61.848
750.07	61.845
750.38	61.775
750.69	61.544
751.01	61.549
751.32	61.659
751.63	61.826
751.94	61.603
752.25	61.800
752.56	61.824
752.87	61.721
753.18	61.763
753.49	61.774
753.81	62.007
754.12	62.045
754.43	62.064
754.74	62.044
755.05	62.023
755.36	62.295
755.67	62.251
755.98	62.474
756.29	62.634
756.60	62.748
756.91	62.745
757.22	62.662
757.53	62.839
757.84	62.801
758.15	62.869
758.46	62.887
758.77	62.694
759.09	62.699
759.40	62.669
759.71	62.552
760.02	62.497
760.33	62.386
760.64	62.327
760.95	62.319
761.26	62.351
761.57	62.309
761.88	62.220
762.18	62.177
762.49	62.126
762.80	62.119
763.11	62.188
763.42	62.065
763.73	62.034
764.04	61.919
764.35	61.864
764.66	61.657
764.97	61.570
765.28	61.616
765.59	61.502
765.90	61.374
766.21	61.235
766.52	61.147
766.83	61.287
767.14	61.469
767.44	61.494
767.75	61.297
768.06	61.373
768.37	61.262
768.68	61.143
768.99	61.106
769.30	60.973
769.61	60.712
769.91	60.675
770.22	60.314
770.53	60.040
770.84	59.998
771.15	60.024
771.46	59.926
771.77	59.999
772.07	59.828
772.38	59.863
772.69	60.098
773.00	60.285
773.31	60.363
773.61	60.239
773.92	60.307
774.23	60.066
774.54	60.082
774.85	59.844
775.15	59.499
775.46	59.317
775.77	59.330
776.08	59.465
776.39	59.205
776.69	58.874
777.00	59.046
777.31	58.956
777.62	59.099
777.92	59.145
778.23	59.382
778.54	59.461
778.85	59.628
779.15	59.663
779.46	59.367
779.77	59.612
780.07	59.766
780.38	59.815
780.69	59.638
781.00	59.717
781.30	59.553
781.61	59.285
781.92	59.481
782.22	59.635
782.53	59.601
782.84	59.709
783.14	59.853
783.45	59.872
783.76	60.201
784.06	60.248
784.37	60.284
784.68	60.067
784.98	60.420
785.29	60.348
785.60	60.412
785.90	60.572
786.21	60.421
786.51	60.136
786.82	60.476
787.13	60.534
787.43	60.752
787.74	60.932
788.04	61.188
788.35	61.130
788.66	61.321
788.96	61.319
789.27	61.583
789.57	61.507
789.88	61.883
790.19	61.527
790.49	61.277
790.80	61.173
791.10	60.879
791.41	61.057
791.71	61.106
792.02	61.068
792.32	60.507
792.63	60.171
792.93	59.976
793.24	59.703
793.54	59.730
793.85	59.756
794.15	59.992
794.46	60.089
794.76	59.898
795.07	59.900
795.37	59.995
795.68	60.391
795.98	60.748
796.29	61.371
796.59	61.299
796.90	61.375
797.20	61.579
797.51	61.369
797.81	61.450
798.12	61.613
798.42	61.721
798.72	61.619
799.03	61.829
799.33	61.515
799.64	61.440
799.94	62.000
800.25	61.691
800.55	61.682
800.85	61.819
801.16	61.957
801.46	61.619
801.77	61.564
802.07	62.097
802.37	61.991
802.68	61.712
802.98	61.773
803.28	61.272
803.59	61.681
803.89	61.718
804.20	61.722
804.50	61.163
804.80	61.399
805.11	61.548
805.41	61.092
805.71	61.106
806.02	61.634
806.32	61.708
806.62	62.146
806.93	62.127
807.23	62.311
807.53	62.335
807.83	62.726
808.14	63.062
808.44	62.769
808.74	62.429
809.05	62.229
809.35	62.117
809.65	62.467
809.95	62.285
810.26	61.921
810.56	61.569
810.86	61.618
811.16	62.165
811.47	62.307
811.77	62.956
812.07	63.491
812.37	63.464
812.68	63.222
812.98	62.627
813.28	63.031
813.58	63.938
813.88	63.903
814.19	64.718
814.49	64.547
814.79	64.488
815.09	64.782
815.39	64.585
815.70	65.078
816.00	64.756
816.30	64.496
816.60	63.915
816.90	63.222
817.20	63.166
817.50	62.441
817.81	62.117
818.11	61.775
818.41	61.587
818.71	61.687
819.01	61.760
819.31	62.205
819.61	62.537
819.92	62.922
820.22	63.222
820.52	63.429
820.82	63.808
821.12	64.212
821.42	64.585
821.72	64.883
822.02	65.351
822.32	65.748
822.62	66.098
822.92	66.447
823.22	66.725
823.52	67.068
823.83	67.207
824.13	67.236
824.43	67.181
824.73	67.271
825.03	67.233
825.33	67.162
825.63	67.125
825.93	66.848
826.23	66.548
826.53	66.328
826.83	66.162
827.13	66.552
827.43	66.752
827.73	67.092
828.03	67.367
828.33	67.740
828.63	67.682
828.93	67.492
829.23	67.571
829.53	67.560
829.83	67.431
830.13	67.181
830.42	66.321
830.72	65.829
831.02	65.691
831.32	65.194
831.62	65.055
831.92	65.119
832.22	65.087
832.52	64.747
832.82	65.050
833.12	65.103
833.42	64.995
833.72	65.450
834.01	65.924
834.31	65.837
834.61	66.278
834.91	66.567
835.21	66.547
835.51	66.822
835.81	67.164
836.11	67.618
836.40	67.815
836.70	68.372
837.00	68.417
837.30	67.954
837.60	68.142
837.90	67.809
838.19	67.272
838.49	67.582
838.79	67.685
839.09	68.124
839.39	67.609
839.68	67.573
839.98	67.093
840.28	66.449
840.58	67.085
840.88	67.096
841.17	67.211
841.47	67.665
841.77	68.003
842.07	67.963
842.36	67.491
842.66	66.680
842.96	66.240
843.26	66.265
843.55	66.866
843.85	66.007
844.15	65.850
844.45	65.106
844.74	64.672
845.04	61.984
845.34	62.014
845.63	63.076
845.93	64.171
846.23	64.279
846.53	63.967
846.82	64.157
847.12	64.804
847.42	64.242
847.71	64.324
848.01	63.603
848.31	65.030
848.60	65.197
848.90	64.161
849.19	63.546
849.49	64.616
849.79	64.137
850.08	63.667
850.38	61.479
850.68	61.337
850.97	63.763
851.27	64.389
851.56	63.504
851.86	61.835
852.16	61.868
852.45	60.046
852.75	59.478
853.04	62.211
853.34	63.030
853.64	64.683
853.93	64.271
854.23	60.170
854.52	59.136
854.82	59.827
855.11	60.588
855.41	61.869
855.70	64.735
856.00	63.835
856.30	62.959
856.59	63.567
856.89	64.417
857.18	65.643
857.48	66.664
857.77	66.419
858.07	66.103
858.36	65.220
858.66	64.541
858.95	63.253
859.25	63.199
859.54	61.566
859.84	60.210
860.13	58.936
860.42	58.569
860.72	58.877
861.01	61.339
861.31	63.668
861.60	65.340
861.90	65.578
862.19	66.691
862.49	66.901
862.78	69.540
863.07	71.096
863.37	71.237
863.66	71.108
863.96	73.328
864.25	74.170
864.54	73.122
864.84	72.448
865.13	72.239
865.43	71.387
865.72	88.697
866.01	74.716
866.31	64.595
866.60	64.109
866.89	62.082
>>>>>End Spectral Data<<<<<
