OOIBase32 Version 2.0.0.6 Data File
++++++++++++++++++++++++++++++++++++
Date: 01-23-2012, 23:15:35
User: Valued Ocean Optics Customer
Spectrometer Serial Number: USB2E2917
Spectrometer Channel: Master
Integration Time (msec): 5
Spectra Averaged: 10
Boxcar Smoothing: 5
Correct for Electrical Dark: Enabled
Time Normalized: Disabled
Dual-beam Reference: Disabled
Reference Channel: Master
Temperature: Not acquired
Spectrometer Type: S2000
ADC Type: USB2000
Number of Pixels in File: 2048
Graph Title: 
>>>>>Begin Spectral Data<<<<<
180.30	0.000
180.67	0.000
181.03	25.646
181.40	211.329
181.77	-11202.370
182.14	70.535
182.51	-148.438
182.88	-168.926
183.25	57.730
183.62	57.300
183.99	-98.381
184.36	-24.607
184.73	209.706
185.10	-105.414
185.46	62.052
185.83	102.834
186.20	-1090.881
186.57	223.314
186.94	55.651
187.31	54.043
187.68	97.488
188.05	82.537
188.42	100.209
188.78	268.448
189.15	749.977
189.52	-155.656
189.89	-23.545
190.26	-8.956
190.63	-1.031
191.00	19.485
191.37	35.813
191.73	47.626
192.10	48.391
192.47	53.615
192.84	53.907
193.21	57.444
193.58	48.722
193.94	50.048
194.31	46.325
194.68	44.999
195.05	30.940
195.42	26.696
195.79	-3.531
196.15	-13.468
196.52	-24.924
196.89	-16.065
197.26	-34.466
197.63	-3.468
198.00	-14.168
198.36	-24.997
198.73	-52.343
199.10	-43.915
199.47	-47.149
199.84	-32.173
200.20	-33.523
200.57	-36.545
200.94	-43.278
201.31	-31.496
201.68	-46.329
202.04	-38.519
202.41	-24.364
202.78	-33.289
203.15	-27.744
203.51	-17.749
203.88	-30.191
204.25	-22.342
204.62	-23.280
204.98	-32.533
205.35	-47.089
205.72	-33.660
206.09	-19.980
206.46	-72.869
206.82	-42.752
207.19	-50.963
207.56	-123.498
207.92	-94.132
208.29	-111.805
208.66	-61.306
209.03	-36.562
209.39	-4.567
209.76	-5.608
210.13	-39.317
210.50	-21.964
210.86	-15.206
211.23	-26.349
211.60	-7.232
211.96	-11.763
212.33	-0.895
212.70	-18.331
213.07	-48.981
213.43	-112.800
213.80	-129.887
214.17	-86.406
214.53	-66.722
214.90	-60.919
215.27	-50.186
215.63	-48.690
216.00	-49.358
216.37	-51.270
216.74	-64.361
217.10	-47.982
217.47	-31.534
217.84	-12.357
218.20	-2.663
218.57	1.172
218.94	5.509
219.30	3.161
219.67	-3.441
220.04	-2.362
220.40	-6.032
220.77	-3.780
221.13	2.873
221.50	6.497
221.87	2.111
222.23	-3.216
222.60	-12.574
222.97	-15.150
223.33	-9.752
223.70	-4.588
224.07	-7.861
224.43	-8.334
224.80	-6.624
225.16	-10.639
225.53	-11.533
225.90	-11.930
226.26	-10.699
226.63	-7.394
226.99	-6.224
227.36	-6.421
227.73	-5.369
228.09	-4.301
228.46	-1.686
228.82	-0.013
229.19	1.692
229.56	1.744
229.92	3.464
230.29	5.803
230.65	5.595
231.02	4.055
231.38	4.089
231.75	2.835
232.12	1.606
232.48	-0.844
232.85	-2.590
233.21	-4.298
233.58	-6.355
233.94	-7.671
234.31	-9.810
234.68	-10.421
235.04	-10.046
235.41	-9.745
235.77	-8.142
236.14	-6.309
236.50	-5.027
236.87	-4.025
237.23	-2.889
237.60	-1.315
237.96	-0.713
238.33	-1.189
238.69	-1.325
239.06	-0.832
239.42	-0.699
239.79	-1.167
240.15	-1.341
240.52	-1.107
240.88	-0.683
241.25	-0.677
241.61	-0.721
241.98	-0.869
242.34	-0.793
242.71	-0.349
243.07	-0.175
243.44	-0.366
243.80	-0.115
244.17	-0.038
244.53	-0.351
244.90	-0.412
245.26	-0.638
245.63	-0.885
245.99	-0.987
246.36	-1.144
246.72	-1.198
247.09	-1.593
247.45	-1.562
247.81	-1.417
248.18	-1.411
248.54	-1.169
248.91	-1.494
249.27	-1.255
249.64	-0.759
250.00	-0.279
250.36	-0.135
250.73	-0.572
251.09	-0.373
251.46	-0.359
251.82	-0.761
252.19	-0.776
252.55	-1.201
252.91	-0.756
253.28	-0.686
253.64	-1.347
254.01	-1.962
254.37	-1.770
254.73	-1.221
255.10	-0.930
255.46	-0.174
255.83	-0.054
256.19	0.153
256.55	0.181
256.92	0.139
257.28	0.033
257.65	0.350
258.01	0.509
258.37	0.452
258.74	0.336
259.10	0.258
259.46	-0.134
259.83	-0.179
260.19	-0.231
260.55	-0.219
260.92	-0.329
261.28	-0.351
261.64	-0.429
262.01	-0.527
262.37	-0.461
262.73	-0.145
263.10	0.078
263.46	0.240
263.82	-0.035
264.19	-0.400
264.55	-0.631
264.91	-0.726
265.28	-0.680
265.64	-0.756
266.00	-0.685
266.37	-0.656
266.73	-1.123
267.09	-1.367
267.46	-1.468
267.82	-1.290
268.18	-1.028
268.54	-0.841
268.91	-0.725
269.27	-0.635
269.63	-0.403
270.00	-0.300
270.36	-0.155
270.72	0.208
271.08	0.136
271.45	0.102
271.81	0.078
272.17	-0.071
272.53	-0.130
272.90	0.034
273.26	0.165
273.62	0.023
273.98	-0.250
274.35	-0.619
274.71	-0.880
275.07	-0.554
275.43	-0.467
275.80	-0.235
276.16	-0.170
276.52	-0.130
276.88	-0.194
277.25	-0.459
277.61	-0.643
277.97	-0.669
278.33	-0.404
278.69	-0.447
279.06	-0.581
279.42	-0.605
279.78	-0.650
280.14	-0.555
280.50	-0.303
280.87	-0.356
281.23	-0.305
281.59	-0.119
281.95	0.046
282.31	0.156
282.68	0.170
283.04	0.078
283.40	0.128
283.76	0.151
284.12	0.174
284.48	0.007
284.85	0.139
285.21	0.262
285.57	0.065
285.93	0.073
286.29	-0.168
286.65	0.024
287.02	0.409
287.38	0.388
287.74	0.426
288.10	0.554
288.46	0.628
288.82	0.494
289.18	0.437
289.54	0.514
289.91	0.493
290.27	0.711
290.63	0.812
290.99	0.735
291.35	0.824
291.71	0.784
292.07	0.504
292.43	0.478
292.79	0.406
293.16	0.361
293.52	0.530
293.88	0.599
294.24	0.493
294.60	0.353
294.96	0.236
295.32	0.350
295.68	0.440
296.04	0.588
296.40	0.614
296.76	0.745
297.12	0.649
297.49	0.370
297.85	0.232
298.21	0.212
298.57	0.061
298.93	0.046
299.29	-0.224
299.65	-0.346
300.01	-0.477
300.37	-0.446
300.73	-0.388
301.09	-0.258
301.45	0.078
301.81	0.220
302.17	0.296
302.53	0.209
302.89	0.176
303.25	0.261
303.61	0.153
303.97	0.030
304.33	-0.086
304.69	-0.177
305.05	-0.152
305.41	-0.329
305.77	-0.325
306.13	-0.347
306.49	-0.142
306.85	-0.131
307.21	-0.061
307.57	0.083
307.93	0.287
308.29	0.419
308.65	0.374
309.01	0.256
309.37	0.275
309.73	0.210
310.09	0.350
310.45	0.397
310.81	0.394
311.17	0.278
311.53	0.181
311.89	0.185
312.25	0.127
312.61	0.228
312.96	0.324
313.32	0.404
313.68	0.370
314.04	0.206
314.40	0.317
314.76	0.285
315.12	0.206
315.48	0.161
315.84	0.070
316.20	0.089
316.56	-0.053
316.92	-0.104
317.27	-0.193
317.63	-0.116
317.99	-0.141
318.35	-0.260
318.71	-0.196
319.07	-0.045
319.43	0.030
319.79	0.079
320.15	-0.019
320.50	0.047
320.86	0.059
321.22	0.105
321.58	0.063
321.94	0.045
322.30	-0.063
322.66	-0.107
323.01	-0.167
323.37	-0.197
323.73	-0.212
324.09	-0.227
324.45	-0.172
324.81	-0.123
325.17	-0.070
325.52	-0.106
325.88	-0.064
326.24	0.036
326.60	-0.001
326.96	0.010
327.31	0.074
327.67	-0.044
328.03	-0.028
328.39	-0.076
328.75	-0.087
329.11	-0.033
329.46	0.074
329.82	0.100
330.18	0.025
330.54	0.010
330.90	-0.022
331.25	-0.078
331.61	0.045
331.97	0.080
332.33	0.105
332.68	0.099
333.04	0.068
333.40	0.019
333.76	-0.001
334.11	0.071
334.47	0.152
334.83	0.212
335.19	0.258
335.54	0.238
335.90	0.260
336.26	0.218
336.62	0.115
336.97	0.022
337.33	-0.056
337.69	-0.065
338.05	-0.105
338.40	-0.182
338.76	-0.140
339.12	-0.143
339.48	-0.177
339.83	-0.237
340.19	-0.165
340.55	-0.039
340.90	-0.111
341.26	-0.114
341.62	-0.151
341.97	-0.149
342.33	-0.148
342.69	-0.122
343.04	-0.129
343.40	-0.149
343.76	-0.096
344.12	-0.112
344.47	-0.083
344.83	0.023
345.19	0.101
345.54	0.163
345.90	0.190
346.26	0.251
346.61	0.184
346.97	0.233
347.32	0.281
347.68	0.227
348.04	0.173
348.39	0.109
348.75	0.085
349.11	0.048
349.46	0.003
349.82	-0.030
350.18	-0.111
350.53	-0.081
350.89	-0.113
351.24	-0.156
351.60	-0.101
351.96	-0.072
352.31	-0.100
352.67	-0.050
353.02	-0.018
353.38	0.017
353.74	0.047
354.09	0.090
354.45	0.089
354.80	0.095
355.16	0.145
355.52	0.105
355.87	-0.004
356.23	0.034
356.58	0.006
356.94	0.003
357.29	0.020
357.65	0.011
358.00	0.031
358.36	0.037
358.72	0.050
359.07	0.038
359.43	0.095
359.78	0.185
360.14	0.183
360.49	0.163
360.85	0.188
361.20	0.135
361.56	0.110
361.91	0.100
362.27	0.091
362.62	0.068
362.98	0.071
363.33	0.025
363.69	0.010
364.04	0.048
364.40	0.088
364.75	0.092
365.11	0.119
365.46	0.079
365.82	0.094
366.17	0.054
366.53	0.061
366.88	0.063
367.24	0.107
367.59	0.072
367.95	0.072
368.30	0.052
368.66	-0.007
369.01	0.004
369.37	0.053
369.72	0.062
370.08	0.135
370.43	0.141
370.78	0.186
371.14	0.129
371.49	0.186
371.85	0.159
372.20	0.194
372.56	0.233
372.91	0.250
373.26	0.284
373.62	0.275
373.97	0.282
374.33	0.275
374.68	0.245
375.03	0.314
375.39	0.293
375.74	0.277
376.10	0.244
376.45	0.265
376.80	0.277
377.16	0.263
377.51	0.284
377.87	0.316
378.22	0.289
378.57	0.281
378.93	0.261
379.28	0.302
379.63	0.355
379.99	0.384
380.34	0.407
380.70	0.379
381.05	0.408
381.40	0.422
381.76	0.401
382.11	0.445
382.46	0.479
382.82	0.487
383.17	0.486
383.52	0.464
383.88	0.451
384.23	0.414
384.58	0.437
384.94	0.397
385.29	0.398
385.64	0.407
385.99	0.408
386.35	0.407
386.70	0.426
387.05	0.403
387.41	0.395
387.76	0.387
388.11	0.384
388.47	0.370
388.82	0.373
389.17	0.338
389.52	0.344
389.88	0.381
390.23	0.380
390.58	0.378
390.93	0.411
391.29	0.433
391.64	0.470
391.99	0.513
392.34	0.550
392.70	0.573
393.05	0.588
393.40	0.596
393.75	0.545
394.11	0.532
394.46	0.509
394.81	0.471
395.16	0.428
395.52	0.389
395.87	0.349
396.22	0.344
396.57	0.323
396.92	0.298
397.28	0.252
397.63	0.258
397.98	0.266
398.33	0.279
398.68	0.272
399.04	0.284
399.39	0.273
399.74	0.270
400.09	0.243
400.44	0.255
400.80	0.282
401.15	0.285
401.50	0.297
401.85	0.296
402.20	0.285
402.55	0.338
402.90	0.319
403.26	0.348
403.61	0.346
403.96	0.350
404.31	0.328
404.66	0.323
405.01	0.318
405.36	0.315
405.72	0.304
406.07	0.294
406.42	0.225
406.77	0.237
407.12	0.211
407.47	0.231
407.82	0.231
408.17	0.240
408.53	0.223
408.88	0.202
409.23	0.151
409.58	0.139
409.93	0.136
410.28	0.149
410.63	0.140
410.98	0.146
411.33	0.128
411.68	0.137
412.03	0.142
412.38	0.141
412.73	0.182
413.09	0.234
413.44	0.257
413.79	0.290
414.14	0.323
414.49	0.362
414.84	0.387
415.19	0.411
415.54	0.430
415.89	0.471
416.24	0.523
416.59	0.551
416.94	0.567
417.29	0.594
417.64	0.599
417.99	0.620
418.34	0.633
418.69	0.655
419.04	0.667
419.39	0.680
419.74	0.682
420.09	0.682
420.44	0.686
420.79	0.686
421.14	0.676
421.49	0.694
421.84	0.683
422.19	0.692
422.54	0.677
422.89	0.665
423.24	0.641
423.59	0.634
423.94	0.612
424.29	0.599
424.64	0.604
424.99	0.594
425.34	0.546
425.68	0.540
426.03	0.504
426.38	0.495
426.73	0.497
427.08	0.504
427.43	0.499
427.78	0.519
428.13	0.492
428.48	0.473
428.83	0.480
429.18	0.500
429.53	0.503
429.87	0.503
430.22	0.482
430.57	0.482
430.92	0.474
431.27	0.470
431.62	0.452
431.97	0.470
432.32	0.457
432.67	0.446
433.01	0.429
433.36	0.401
433.71	0.400
434.06	0.392
434.41	0.374
434.76	0.393
435.11	0.389
435.45	0.397
435.80	0.381
436.15	0.403
436.50	0.408
436.85	0.424
437.20	0.441
437.54	0.442
437.89	0.468
438.24	0.492
438.59	0.477
438.94	0.474
439.29	0.462
439.63	0.473
439.98	0.463
440.33	0.469
440.68	0.474
441.03	0.466
441.37	0.473
441.72	0.479
442.07	0.487
442.42	0.504
442.76	0.522
443.11	0.537
443.46	0.548
443.81	0.560
444.16	0.563
444.50	0.559
444.85	0.567
445.20	0.556
445.55	0.560
445.89	0.542
446.24	0.526
446.59	0.490
446.94	0.461
447.28	0.439
447.63	0.421
447.98	0.418
448.32	0.400
448.67	0.379
449.02	0.358
449.37	0.319
449.71	0.300
450.06	0.299
450.41	0.319
450.75	0.331
451.10	0.325
451.45	0.310
451.79	0.273
452.14	0.275
452.49	0.279
452.84	0.287
453.18	0.279
453.53	0.273
453.88	0.258
454.22	0.256
454.57	0.265
454.92	0.271
455.26	0.300
455.61	0.343
455.95	0.363
456.30	0.387
456.65	0.416
456.99	0.447
457.34	0.483
457.69	0.501
458.03	0.514
458.38	0.518
458.73	0.515
459.07	0.503
459.42	0.477
459.76	0.456
460.11	0.413
460.46	0.374
460.80	0.342
461.15	0.304
461.49	0.269
461.84	0.252
462.19	0.225
462.53	0.227
462.88	0.218
463.22	0.203
463.57	0.196
463.91	0.215
464.26	0.238
464.61	0.250
464.95	0.243
465.30	0.247
465.64	0.246
465.99	0.258
466.33	0.257
466.68	0.248
467.02	0.257
467.37	0.258
467.71	0.235
468.06	0.212
468.41	0.180
468.75	0.173
469.10	0.170
469.44	0.142
469.79	0.116
470.13	0.074
470.48	0.054
470.82	0.042
471.17	0.029
471.51	0.030
471.86	0.024
472.20	0.029
472.55	0.019
472.89	0.014
473.23	0.002
473.58	0.013
473.92	0.013
474.27	0.018
474.61	0.001
474.96	0.008
475.30	0.015
475.65	0.002
475.99	-0.003
476.34	0.006
476.68	0.000
477.02	0.018
477.37	0.022
477.71	0.058
478.06	0.097
478.40	0.174
478.75	0.239
479.09	0.320
479.43	0.401
479.78	0.474
480.12	0.540
480.47	0.609
480.81	0.661
481.15	0.705
481.50	0.754
481.84	0.802
482.19	0.838
482.53	0.871
482.87	0.889
483.22	0.890
483.56	0.883
483.90	0.856
484.25	0.825
484.59	0.799
484.94	0.771
485.28	0.736
485.62	0.695
485.97	0.651
486.31	0.612
486.65	0.583
487.00	0.564
487.34	0.547
487.68	0.541
488.03	0.526
488.37	0.516
488.71	0.506
489.06	0.496
489.40	0.487
489.74	0.475
490.09	0.467
490.43	0.443
490.77	0.417
491.11	0.380
491.46	0.348
491.80	0.323
492.14	0.290
492.49	0.261
492.83	0.224
493.17	0.178
493.51	0.150
493.86	0.106
494.20	0.073
494.54	0.062
494.88	0.074
495.23	0.080
495.57	0.083
495.91	0.093
496.25	0.114
496.60	0.122
496.94	0.129
497.28	0.133
497.62	0.146
497.97	0.154
498.31	0.160
498.65	0.162
498.99	0.161
499.33	0.179
499.68	0.196
500.02	0.196
500.36	0.214
500.70	0.231
501.04	0.236
501.39	0.253
501.73	0.271
502.07	0.304
502.41	0.331
502.75	0.379
503.09	0.404
503.44	0.424
503.78	0.445
504.12	0.466
504.46	0.510
504.80	0.568
505.14	0.615
505.49	0.664
505.83	0.701
506.17	0.757
506.51	0.791
506.85	0.844
507.19	0.899
507.53	0.951
507.87	1.009
508.22	1.051
508.56	1.081
508.90	1.104
509.24	1.158
509.58	1.188
509.92	1.229
510.26	1.272
510.60	1.313
510.94	1.357
511.28	1.394
511.63	1.449
511.97	1.500
512.31	1.563
512.65	1.630
512.99	1.703
513.33	1.817
513.67	1.922
514.01	2.040
514.35	2.140
514.69	2.239
515.03	2.359
515.37	2.478
515.71	2.586
516.05	2.686
516.39	2.788
516.73	2.869
517.07	2.934
517.41	2.984
517.75	3.037
518.09	3.097
518.43	3.159
518.77	3.202
519.11	3.236
519.45	3.284
519.79	3.346
520.13	3.406
520.47	3.487
520.81	3.572
521.15	3.685
521.49	3.797
521.83	3.911
522.17	4.017
522.51	4.150
522.85	4.284
523.19	4.451
523.53	4.625
523.87	4.805
524.21	4.981
524.55	5.137
524.89	5.279
525.23	5.408
525.57	5.525
525.91	5.637
526.25	5.738
526.58	5.834
526.92	5.903
527.26	5.962
527.60	5.999
527.94	6.025
528.28	6.047
528.62	6.059
528.96	6.069
529.30	6.077
529.64	6.087
529.97	6.091
530.31	6.089
530.65	6.104
530.99	6.117
531.33	6.146
531.67	6.160
532.01	6.198
532.35	6.224
532.68	6.243
533.02	6.267
533.36	6.272
533.70	6.283
534.04	6.294
534.38	6.301
534.71	6.303
535.05	6.303
535.39	6.314
535.73	6.307
536.07	6.330
536.41	6.356
536.74	6.390
537.08	6.437
537.42	6.490
537.76	6.545
538.10	6.592
538.43	6.643
538.77	6.699
539.11	6.757
539.45	6.807
539.79	6.837
540.12	6.867
540.46	6.870
540.80	6.881
541.14	6.868
541.47	6.845
541.81	6.833
542.15	6.813
542.49	6.783
542.82	6.736
543.16	6.701
543.50	6.658
543.84	6.626
544.17	6.620
544.51	6.610
544.85	6.593
545.18	6.585
545.52	6.568
545.86	6.549
546.20	6.546
546.53	6.526
546.87	6.509
547.21	6.496
547.54	6.463
547.88	6.424
548.22	6.382
548.55	6.379
548.89	6.382
549.23	6.376
549.56	6.368
549.90	6.374
550.24	6.389
550.57	6.392
550.91	6.389
551.25	6.404
551.58	6.411
551.92	6.403
552.26	6.379
552.59	6.344
552.93	6.324
553.27	6.315
553.60	6.278
553.94	6.245
554.27	6.215
554.61	6.206
554.95	6.164
555.28	6.148
555.62	6.122
555.95	6.116
556.29	6.110
556.63	6.079
556.96	6.043
557.30	6.008
557.63	5.974
557.97	5.941
558.31	5.877
558.64	5.844
558.98	5.810
559.31	5.800
559.65	5.750
559.98	5.702
560.32	5.662
560.65	5.603
560.99	5.557
561.33	5.541
561.66	5.506
562.00	5.497
562.33	5.474
562.67	5.416
563.00	5.380
563.34	5.360
563.67	5.324
564.01	5.302
564.34	5.277
564.68	5.258
565.01	5.221
565.35	5.168
565.68	5.109
566.02	5.045
566.35	4.996
566.69	4.910
567.02	4.850
567.36	4.795
567.69	4.731
568.03	4.700
568.36	4.626
568.69	4.556
569.03	4.517
569.36	4.457
569.70	4.420
570.03	4.392
570.37	4.363
570.70	4.324
571.04	4.280
571.37	4.221
571.70	4.149
572.04	4.124
572.37	4.082
572.71	4.020
573.04	3.991
573.37	3.944
573.71	3.891
574.04	3.822
574.38	3.766
574.71	3.723
575.04	3.685
575.38	3.637
575.71	3.560
576.05	3.514
576.38	3.477
576.71	3.404
577.05	3.340
577.38	3.273
577.71	3.228
578.05	3.163
578.38	3.107
578.71	3.059
579.05	3.019
579.38	2.969
579.71	2.923
580.05	2.861
580.38	2.817
580.71	2.769
581.05	2.740
581.38	2.701
581.71	2.678
582.05	2.649
582.38	2.637
582.71	2.593
583.04	2.570
583.38	2.520
583.71	2.512
584.04	2.509
584.38	2.498
584.71	2.490
585.04	2.483
585.37	2.463
585.71	2.448
586.04	2.429
586.37	2.453
586.70	2.466
587.04	2.477
587.37	2.461
587.70	2.444
588.03	2.453
588.37	2.443
588.70	2.454
589.03	2.430
589.36	2.408
589.69	2.376
590.03	2.335
590.36	2.305
590.69	2.259
591.02	2.231
591.35	2.224
591.69	2.193
592.02	2.160
592.35	2.156
592.68	2.161
593.01	2.144
593.35	2.143
593.68	2.151
594.01	2.136
594.34	2.130
594.67	2.130
595.00	2.108
595.34	2.080
595.67	2.052
596.00	2.009
596.33	1.958
596.66	1.929
596.99	1.893
597.32	1.829
597.65	1.786
597.99	1.735
598.32	1.674
598.65	1.630
598.98	1.600
599.31	1.585
599.64	1.586
599.97	1.590
600.30	1.581
600.63	1.588
600.96	1.599
601.30	1.618
601.63	1.650
601.96	1.669
602.29	1.670
602.62	1.668
602.95	1.658
603.28	1.637
603.61	1.593
603.94	1.559
604.27	1.536
604.60	1.486
604.93	1.456
605.26	1.410
605.59	1.374
605.92	1.331
606.25	1.307
606.58	1.278
606.91	1.217
607.24	1.219
607.57	1.208
607.90	1.162
608.23	1.132
608.56	1.084
608.89	1.041
609.22	0.995
609.55	0.965
609.88	0.908
610.21	0.856
610.54	0.806
610.87	0.751
611.20	0.679
611.53	0.617
611.86	0.588
612.19	0.516
612.52	0.481
612.85	0.462
613.18	0.422
613.51	0.361
613.84	0.301
614.17	0.276
614.49	0.270
614.82	0.243
615.15	0.229
615.48	0.201
615.81	0.185
616.14	0.162
616.47	0.106
616.80	0.046
617.13	0.031
617.46	0.008
617.78	-0.026
618.11	-0.098
618.44	-0.131
618.77	-0.184
619.10	-0.206
619.43	-0.221
619.76	-0.273
620.09	-0.272
620.41	-0.266
620.74	-0.263
621.07	-0.235
621.40	-0.215
621.73	-0.189
622.06	-0.171
622.38	-0.136
622.71	-0.127
623.04	-0.110
623.37	-0.057
623.70	-0.045
624.02	0.003
624.35	0.048
624.68	0.070
625.01	0.095
625.34	0.132
625.66	0.153
625.99	0.174
626.32	0.159
626.65	0.163
626.98	0.132
627.30	0.131
627.63	0.104
627.96	0.041
628.29	-0.013
628.61	-0.059
628.94	-0.126
629.27	-0.175
629.60	-0.249
629.92	-0.248
630.25	-0.313
630.58	-0.324
630.91	-0.353
631.23	-0.399
631.56	-0.383
631.89	-0.415
632.21	-0.442
632.54	-0.442
632.87	-0.464
633.19	-0.493
633.52	-0.540
633.85	-0.544
634.18	-0.589
634.50	-0.657
634.83	-0.704
635.16	-0.803
635.48	-0.847
635.81	-0.905
636.14	-1.005
636.46	-1.067
636.79	-1.095
637.11	-1.153
637.44	-1.252
637.77	-1.313
638.09	-1.368
638.42	-1.418
638.75	-1.462
639.07	-1.498
639.40	-1.562
639.73	-1.568
640.05	-1.598
640.38	-1.623
640.70	-1.656
641.03	-1.650
641.36	-1.673
641.68	-1.655
642.01	-1.677
642.33	-1.671
642.66	-1.673
642.98	-1.652
643.31	-1.655
643.64	-1.657
643.96	-1.672
644.29	-1.670
644.61	-1.652
644.94	-1.649
645.26	-1.631
645.59	-1.606
645.91	-1.555
646.24	-1.540
646.56	-1.553
646.89	-1.548
647.22	-1.539
647.54	-1.530
647.87	-1.517
648.19	-1.551
648.52	-1.525
648.84	-1.553
649.17	-1.545
649.49	-1.575
649.82	-1.568
650.14	-1.555
650.47	-1.577
650.79	-1.571
651.11	-1.605
651.44	-1.609
651.76	-1.603
652.09	-1.599
652.41	-1.563
652.74	-1.574
653.06	-1.591
653.39	-1.589
653.71	-1.567
654.04	-1.576
654.36	-1.550
654.68	-1.497
655.01	-1.455
655.33	-1.393
655.66	-1.383
655.98	-1.386
656.30	-1.411
656.63	-1.380
656.95	-1.379
657.28	-1.382
657.60	-1.348
657.92	-1.373
658.25	-1.393
658.57	-1.426
658.90	-1.495
659.22	-1.541
659.54	-1.603
659.87	-1.610
660.19	-1.675
660.51	-1.718
660.84	-1.755
661.16	-1.832
661.48	-1.871
661.81	-1.935
662.13	-2.005
662.45	-2.011
662.78	-2.033
663.10	-1.993
663.42	-1.986
663.75	-1.935
664.07	-1.991
664.39	-2.053
664.72	-2.055
665.04	-2.027
665.36	-1.967
665.69	-1.905
666.01	-1.842
666.33	-1.826
666.65	-1.824
666.98	-1.780
667.30	-1.756
667.62	-1.681
667.94	-1.571
668.27	-1.490
668.59	-1.467
668.91	-1.425
669.23	-1.413
669.56	-1.394
669.88	-1.313
670.20	-1.306
670.52	-1.235
670.85	-1.226
671.17	-1.159
671.49	-1.117
671.81	-1.043
672.13	-1.025
672.46	-0.953
672.78	-0.883
673.10	-0.773
673.42	-0.689
673.74	-0.569
674.07	-0.491
674.39	-0.366
674.71	-0.279
675.03	-0.129
675.35	-0.015
675.67	0.122
676.00	0.197
676.32	0.270
676.64	0.341
676.96	0.466
677.28	0.570
677.60	0.664
677.92	0.760
678.25	0.823
678.57	0.903
678.89	0.912
679.21	0.973
679.53	1.032
679.85	1.127
680.17	1.186
680.49	1.230
680.81	1.303
681.13	1.301
681.46	1.324
681.78	1.495
682.10	1.523
682.42	1.613
682.74	1.743
683.06	1.851
683.38	1.992
683.70	2.114
684.02	2.201
684.34	2.330
684.66	2.506
684.98	2.649
685.30	2.674
685.62	2.786
685.94	2.916
686.26	2.947
686.58	3.011
686.90	3.030
687.22	3.076
687.54	3.088
687.86	3.054
688.18	3.026
688.50	3.046
688.82	3.046
689.14	3.055
689.46	3.119
689.78	3.140
690.10	3.179
690.42	3.247
690.74	3.250
691.06	3.343
691.38	3.453
691.70	3.603
692.02	3.702
692.34	3.837
692.66	3.946
692.98	3.983
693.30	4.210
693.62	4.442
693.94	4.618
694.26	4.822
694.57	5.015
694.89	5.216
695.21	5.433
695.53	5.643
695.85	5.807
696.17	6.023
696.49	6.233
696.81	6.397
697.13	6.500
697.44	6.633
697.76	6.804
698.08	7.036
698.40	7.221
698.72	7.384
699.04	7.539
699.36	7.798
699.67	7.953
699.99	8.239
700.31	8.463
700.63	8.710
700.95	9.035
701.27	9.342
701.58	9.497
701.90	9.679
702.22	9.873
702.54	10.121
702.86	10.298
703.17	10.478
703.49	10.712
703.81	10.986
704.13	11.226
704.45	11.404
704.76	11.616
705.08	11.920
705.40	12.236
705.72	12.510
706.03	12.837
706.35	13.124
706.67	13.448
706.99	13.743
707.30	14.008
707.62	14.286
707.94	14.593
708.26	14.852
708.57	15.058
708.89	15.285
709.21	15.548
709.53	15.722
709.84	16.055
710.16	16.377
710.48	16.598
710.79	16.826
711.11	17.060
711.43	17.322
711.74	17.586
712.06	17.800
712.38	18.081
712.69	18.302
713.01	18.648
713.33	18.875
713.64	19.214
713.96	19.427
714.28	19.749
714.59	20.175
714.91	20.533
715.23	20.848
715.54	21.238
715.86	21.669
716.17	22.012
716.49	22.328
716.81	22.660
717.12	22.928
717.44	23.268
717.76	23.685
718.07	23.871
718.39	24.063
718.70	24.250
719.02	24.500
719.33	24.618
719.65	24.931
719.97	25.005
720.28	25.124
720.60	25.335
720.91	25.645
721.23	25.765
721.54	26.158
721.86	26.318
722.17	26.738
722.49	27.081
722.81	27.275
723.12	27.486
723.44	27.903
723.75	28.254
724.07	28.484
724.38	28.665
724.70	28.957
725.01	29.093
725.33	29.428
725.64	29.533
725.96	29.637
726.27	29.770
726.59	29.994
726.90	30.123
727.22	30.187
727.53	30.338
727.84	30.465
728.16	30.528
728.47	30.653
728.79	30.766
729.10	30.916
729.42	30.993
729.73	31.241
730.05	31.298
730.36	31.408
730.67	31.543
730.99	31.603
731.30	31.628
731.62	31.751
731.93	31.779
732.24	31.816
732.56	31.861
732.87	32.144
733.19	32.143
733.50	32.230
733.81	32.261
734.13	32.288
734.44	32.447
734.76	32.607
735.07	32.661
735.38	32.813
735.70	33.017
736.01	33.181
736.32	33.143
736.64	33.346
736.95	33.509
737.26	33.686
737.58	33.923
737.89	33.990
738.20	34.076
738.52	34.149
738.83	34.133
739.14	34.131
739.45	34.096
739.77	34.176
740.08	34.145
740.39	34.083
740.71	34.139
741.02	34.141
741.33	34.065
741.64	34.068
741.96	34.154
742.27	34.386
742.58	34.490
742.90	34.629
743.21	34.681
743.52	34.913
743.83	35.031
744.14	34.919
744.46	35.063
744.77	35.149
745.08	35.143
745.39	35.094
745.71	35.062
746.02	34.964
746.33	34.975
746.64	34.844
746.95	34.807
747.27	34.923
747.58	34.987
747.89	34.788
748.20	34.880
748.51	35.124
748.82	35.110
749.14	35.098
749.45	35.292
749.76	35.329
750.07	35.438
750.38	35.373
750.69	35.243
751.01	35.338
751.32	35.484
751.63	35.502
751.94	35.244
752.25	35.325
752.56	35.147
752.87	34.988
753.18	34.939
753.49	34.902
753.81	35.093
754.12	35.198
754.43	35.144
754.74	35.047
755.05	35.165
755.36	35.367
755.67	35.512
755.98	35.839
756.29	36.124
756.60	36.355
756.91	36.631
757.22	36.775
757.53	36.972
757.84	37.419
758.15	37.801
758.46	38.063
758.77	38.254
759.09	38.246
759.40	38.261
759.71	38.154
760.02	38.143
760.33	38.172
760.64	38.020
760.95	37.978
761.26	37.872
761.57	37.737
761.88	37.503
762.18	37.488
762.49	37.435
762.80	37.468
763.11	37.529
763.42	37.428
763.73	37.258
764.04	37.170
764.35	36.998
764.66	36.741
764.97	36.572
765.28	36.521
765.59	36.198
765.90	36.044
766.21	35.650
766.52	35.287
766.83	35.045
767.14	34.727
767.44	34.538
767.75	34.373
768.06	34.286
768.37	34.109
768.68	33.936
768.99	33.818
769.30	33.613
769.61	33.414
769.91	33.390
770.22	33.230
770.53	33.455
770.84	33.369
771.15	33.189
771.46	33.104
771.77	33.159
772.07	32.856
772.38	32.700
772.69	32.452
773.00	32.690
773.31	32.774
773.61	32.699
773.92	32.355
774.23	32.032
774.54	32.215
774.85	31.918
775.15	31.735
775.46	31.772
775.77	31.782
776.08	31.987
776.39	31.585
776.69	31.544
777.00	31.551
777.31	31.815
777.62	32.070
777.92	31.737
778.23	31.854
778.54	31.824
778.85	31.869
779.15	31.733
779.46	31.823
779.77	32.170
780.07	32.122
780.38	32.329
780.69	32.145
781.00	32.198
781.30	32.355
781.61	32.292
781.92	32.415
782.22	32.540
782.53	32.598
782.84	32.401
783.14	32.470
783.45	32.300
783.76	32.437
784.06	32.464
784.37	32.260
784.68	32.483
784.98	32.575
785.29	32.663
785.60	32.847
785.90	33.246
786.21	33.566
786.51	33.538
786.82	33.878
787.13	34.137
787.43	34.271
787.74	34.622
788.04	34.785
788.35	34.974
788.66	35.274
788.96	35.019
789.27	34.795
789.57	34.494
789.88	34.448
790.19	34.111
790.49	33.713
790.80	33.691
791.10	33.888
791.41	33.742
791.71	33.775
792.02	33.486
792.32	33.406
792.63	33.490
792.93	33.583
793.24	33.485
793.54	33.721
793.85	34.040
794.15	34.041
794.46	33.809
794.76	33.814
795.07	33.825
795.37	33.577
795.68	33.715
795.98	34.178
796.29	34.525
796.59	34.633
796.90	34.393
797.20	34.153
797.51	34.141
797.81	33.802
798.12	33.736
798.42	33.771
798.72	34.088
799.03	34.441
799.33	33.890
799.64	33.730
799.94	33.756
800.25	33.714
800.55	33.606
800.85	33.587
801.16	34.041
801.46	34.067
801.77	33.648
802.07	33.717
802.37	33.658
802.68	33.316
802.98	33.318
803.28	33.147
803.59	33.592
803.89	33.698
804.20	33.573
804.50	33.427
804.80	33.500
805.11	34.100
805.41	33.959
805.71	33.955
806.02	34.148
806.32	34.095
806.62	34.287
806.93	34.115
807.23	34.208
807.53	34.278
807.83	34.423
808.14	34.688
808.44	34.644
808.74	34.266
809.05	33.912
809.35	33.967
809.65	34.249
809.95	34.368
810.26	34.148
810.56	34.026
810.86	34.246
811.16	34.183
811.47	34.287
811.77	34.613
812.07	35.170
812.37	35.493
812.68	36.088
812.98	36.088
813.28	36.422
813.58	37.395
813.88	37.527
814.19	37.846
814.49	38.196
814.79	38.107
815.09	37.805
815.39	38.039
815.70	38.151
816.00	37.955
816.30	37.989
816.60	37.917
816.90	37.422
817.20	37.823
817.50	37.642
817.81	37.671
818.11	37.773
818.41	37.843
818.71	37.769
819.01	37.895
819.31	38.115
819.61	38.271
819.92	38.491
820.22	38.775
820.52	38.925
820.82	39.155
821.12	39.389
821.42	39.580
821.72	39.802
822.02	40.067
822.32	40.392
822.62	40.695
822.92	40.951
823.22	41.149
823.52	41.308
823.83	41.406
824.13	41.440
824.43	41.392
824.73	41.340
825.03	41.342
825.33	41.343
825.63	41.094
825.93	40.780
826.23	40.621
826.53	40.387
826.83	40.210
827.13	40.248
827.43	40.414
827.73	40.592
828.03	40.875
828.33	40.848
828.63	40.980
828.93	40.878
829.23	40.878
829.53	40.633
829.83	40.713
830.13	40.652
830.42	40.528
830.72	40.150
831.02	39.982
831.32	39.963
831.62	39.898
831.92	39.609
832.22	39.613
832.52	39.399
832.82	39.565
833.12	39.586
833.42	39.394
833.72	39.392
834.01	39.493
834.31	39.551
834.61	39.516
834.91	39.835
835.21	39.940
835.51	39.989
835.81	40.083
836.11	40.060
836.40	39.843
836.70	40.075
837.00	39.860
837.30	39.597
837.60	39.277
837.90	38.615
838.19	37.955
838.49	37.913
838.79	38.319
839.09	38.629
839.39	38.670
839.68	38.721
839.98	38.302
840.28	38.238
840.58	38.320
840.88	38.675
841.17	38.781
841.47	39.038
841.77	39.015
842.07	38.923
842.36	38.010
842.66	36.775
842.96	35.731
843.26	35.224
843.55	35.697
843.85	35.326
844.15	34.286
844.45	33.752
844.74	33.905
845.04	32.183
845.34	31.134
845.63	31.476
845.93	32.466
846.23	33.610
846.53	34.988
846.82	33.881
847.12	34.521
847.42	33.525
847.71	32.589
848.01	31.803
848.31	33.505
848.60	32.943
848.90	33.483
849.19	33.907
849.49	33.882
849.79	33.090
850.08	32.906
850.38	32.412
850.68	33.051
850.97	35.259
851.27	35.196
851.56	34.403
851.86	34.990
852.16	36.226
852.45	36.177
852.75	34.405
853.04	35.851
853.34	35.467
853.64	35.515
853.93	34.306
854.23	33.038
854.52	32.969
854.82	33.925
855.11	34.658
855.41	36.046
855.70	36.451
856.00	35.726
856.30	34.541
856.59	35.663
856.89	36.238
857.18	39.676
857.48	40.118
857.77	39.278
858.07	38.784
858.36	35.778
858.66	33.333
858.95	31.903
859.25	34.180
859.54	33.574
859.84	33.742
860.13	31.145
860.42	30.196
860.72	30.391
861.01	30.863
861.31	32.146
861.60	34.035
861.90	33.745
862.19	34.270
862.49	32.817
862.78	33.544
863.07	31.758
863.37	33.386
863.66	33.531
863.96	34.448
864.25	34.596
864.54	32.648
864.84	33.922
865.13	34.448
865.43	35.621
865.72	36.346
866.01	31.008
866.31	45.261
866.60	36.623
866.89	47.314
>>>>>End Spectral Data<<<<<
