OOIBase32 Version 2.0.0.6 Data File
++++++++++++++++++++++++++++++++++++
Date: 01-23-2012, 23:16:08
User: Valued Ocean Optics Customer
Spectrometer Serial Number: USB2E2917
Spectrometer Channel: Master
Integration Time (msec): 5
Spectra Averaged: 10
Boxcar Smoothing: 5
Correct for Electrical Dark: Enabled
Time Normalized: Disabled
Dual-beam Reference: Disabled
Reference Channel: Master
Temperature: Not acquired
Spectrometer Type: S2000
ADC Type: USB2000
Number of Pixels in File: 2048
Graph Title: 
>>>>>Begin Spectral Data<<<<<
180.30	0.000
180.67	0.000
181.03	183.731
181.40	391.960
181.77	-3963.761
182.14	35.754
182.51	-633.804
182.88	136.815
183.25	125.505
183.62	43.289
183.99	162.351
184.36	192.104
184.73	486.002
185.10	108.252
185.46	155.532
185.83	138.802
186.20	-560.331
186.57	154.280
186.94	100.428
187.31	54.020
187.68	-8.608
188.05	87.417
188.42	108.758
188.78	300.956
189.15	976.887
189.52	-281.069
189.89	-122.067
190.26	-101.282
190.63	-48.931
191.00	-34.062
191.37	-17.477
191.73	-3.996
192.10	2.966
192.47	-0.744
192.84	5.691
193.21	7.714
193.58	9.494
193.94	12.739
194.31	10.955
194.68	7.770
195.05	-1.552
195.42	1.183
195.79	-14.629
196.15	-25.063
196.52	-16.781
196.89	-17.804
197.26	-39.848
197.63	-27.000
198.00	-13.183
198.36	-19.707
198.73	-46.973
199.10	-32.462
199.47	-21.702
199.84	-14.855
200.20	-21.832
200.57	-27.053
200.94	-32.999
201.31	-17.437
201.68	-37.849
202.04	-44.253
202.41	-30.685
202.78	-19.599
203.15	-24.767
203.51	-26.358
203.88	-22.269
204.25	-14.922
204.62	-14.574
204.98	-16.138
205.35	-26.326
205.72	-14.387
206.09	-17.874
206.46	-66.785
206.82	-77.898
207.19	-84.058
207.56	-132.872
207.92	-131.596
208.29	-144.826
208.66	-100.960
209.03	-86.188
209.39	-51.925
209.76	-38.439
210.13	-80.272
210.50	-62.678
210.86	-58.704
211.23	-42.372
211.60	-28.830
211.96	-31.497
212.33	-17.602
212.70	-20.055
213.07	-36.825
213.43	-93.559
213.80	-97.781
214.17	-56.014
214.53	-35.125
214.90	-24.586
215.27	-29.252
215.63	-35.589
216.00	-28.814
216.37	-31.193
216.74	-46.265
217.10	-37.384
217.47	-27.813
217.84	-17.221
218.20	-16.678
218.57	-19.532
218.94	-21.248
219.30	-21.882
219.67	-22.173
220.04	-20.026
220.40	-28.573
220.77	-28.727
221.13	-21.367
221.50	-17.677
221.87	-21.780
222.23	-17.637
222.60	-18.763
222.97	-16.233
223.33	-14.399
223.70	-11.429
224.07	-14.340
224.43	-11.970
224.80	-6.682
225.16	-8.562
225.53	-7.882
225.90	-10.148
226.26	-9.357
226.63	-7.301
226.99	-7.592
227.36	-7.852
227.73	-6.735
228.09	-4.555
228.46	-2.429
228.82	-0.738
229.19	-0.443
229.56	-2.783
229.92	-1.819
230.29	-0.877
230.65	-2.088
231.02	-2.243
231.38	-3.269
231.75	-3.590
232.12	-5.514
232.48	-6.024
232.85	-8.186
233.21	-8.793
233.58	-7.192
233.94	-6.502
234.31	-9.644
234.68	-8.984
235.04	-8.277
235.41	-5.248
235.77	-4.403
236.14	-3.168
236.50	-2.954
236.87	-2.924
237.23	-1.757
237.60	-1.558
237.96	-1.544
238.33	-0.701
238.69	-0.567
239.06	-0.258
239.42	-0.287
239.79	-1.133
240.15	-1.454
240.52	-1.337
240.88	-0.384
241.25	-0.592
241.61	-0.481
241.98	-0.557
242.34	-0.061
242.71	0.316
243.07	0.399
243.44	0.116
243.80	0.496
244.17	0.858
244.53	0.474
244.90	0.311
245.26	0.629
245.63	0.746
245.99	0.848
246.36	0.632
246.72	0.737
247.09	0.506
247.45	0.642
247.81	0.799
248.18	0.512
248.54	0.879
248.91	0.607
249.27	0.328
249.64	0.542
250.00	0.778
250.36	0.762
250.73	0.267
251.09	0.313
251.46	0.278
251.82	0.135
252.19	0.467
252.55	0.472
252.91	0.823
253.28	0.460
253.64	-0.270
254.01	-0.475
254.37	-0.006
254.73	0.449
255.10	0.668
255.46	1.304
255.83	1.579
256.19	1.653
256.55	1.503
256.92	1.430
257.28	1.517
257.65	1.829
258.01	1.874
258.37	1.639
258.74	1.584
259.10	1.400
259.46	0.984
259.83	0.716
260.19	0.553
260.55	0.657
260.92	0.566
261.28	0.615
261.64	0.685
262.01	0.533
262.37	0.669
262.73	0.467
263.10	0.964
263.46	1.157
263.82	1.418
264.19	1.457
264.55	0.907
264.91	0.732
265.28	0.765
265.64	0.511
266.00	0.533
266.37	0.420
266.73	0.347
267.09	0.118
267.46	0.037
267.82	-0.248
268.18	-0.187
268.54	0.149
268.91	0.327
269.27	0.255
269.63	0.458
270.00	0.436
270.36	0.373
270.72	0.785
271.08	0.872
271.45	0.718
271.81	0.684
272.17	0.583
272.53	0.498
272.90	0.429
273.26	0.437
273.62	0.274
273.98	0.319
274.35	0.372
274.71	0.200
275.07	0.110
275.43	0.384
275.80	0.460
276.16	0.333
276.52	0.315
276.88	0.380
277.25	0.159
277.61	-0.079
277.97	-0.154
278.33	0.131
278.69	0.019
279.06	0.115
279.42	0.157
279.78	0.315
280.14	0.548
280.50	0.687
280.87	0.580
281.23	0.777
281.59	0.987
281.95	1.132
282.31	0.970
282.68	0.802
283.04	0.517
283.40	0.550
283.76	0.656
284.12	0.773
284.48	0.849
284.85	1.045
285.21	1.099
285.57	0.962
285.93	0.888
286.29	0.779
286.65	0.897
287.02	1.339
287.38	1.317
287.74	1.136
288.10	1.141
288.46	1.100
288.82	0.925
289.18	0.892
289.54	1.027
289.91	1.097
290.27	1.254
290.63	1.597
290.99	1.458
291.35	1.458
291.71	1.471
292.07	1.356
292.43	1.251
292.79	1.356
293.16	1.276
293.52	1.386
293.88	1.505
294.24	1.562
294.60	1.380
294.96	1.347
295.32	1.401
295.68	1.483
296.04	1.495
296.40	1.575
296.76	1.546
297.12	1.495
297.49	1.331
297.85	1.215
298.21	1.009
298.57	0.820
298.93	0.884
299.29	0.651
299.65	0.694
300.01	0.691
300.37	0.684
300.73	0.715
301.09	0.823
301.45	0.938
301.81	0.958
302.17	1.188
302.53	1.155
302.89	1.041
303.25	1.224
303.61	1.125
303.97	0.937
304.33	0.934
304.69	1.035
305.05	0.972
305.41	0.921
305.77	0.992
306.13	0.956
306.49	0.983
306.85	1.052
307.21	1.087
307.57	1.157
307.93	1.393
308.29	1.520
308.65	1.462
309.01	1.486
309.37	1.524
309.73	1.451
310.09	1.483
310.45	1.542
310.81	1.523
311.17	1.390
311.53	1.323
311.89	1.283
312.25	1.190
312.61	1.139
312.96	1.218
313.32	1.262
313.68	1.278
314.04	1.243
314.40	1.420
314.76	1.367
315.12	1.469
315.48	1.521
315.84	1.427
316.20	1.442
316.56	1.395
316.92	1.276
317.27	1.178
317.63	1.144
317.99	1.061
318.35	0.952
318.71	1.018
319.07	1.086
319.43	1.121
319.79	1.096
320.15	1.056
320.50	1.116
320.86	1.249
321.22	1.222
321.58	1.134
321.94	1.077
322.30	1.003
322.66	0.910
323.01	0.779
323.37	0.751
323.73	0.910
324.09	0.817
324.45	0.887
324.81	0.762
325.17	0.799
325.52	0.806
325.88	0.855
326.24	0.886
326.60	0.959
326.96	1.031
327.31	0.935
327.67	0.747
328.03	0.792
328.39	0.640
328.75	0.727
329.11	0.718
329.46	0.801
329.82	0.860
330.18	0.815
330.54	0.752
330.90	0.684
331.25	0.642
331.61	0.812
331.97	0.794
332.33	0.863
332.68	0.898
333.04	1.027
333.40	0.955
333.76	0.944
334.11	1.006
334.47	1.123
334.83	1.092
335.19	1.147
335.54	1.041
335.90	1.094
336.26	1.052
336.62	0.881
336.97	0.626
337.33	0.637
337.69	0.614
338.05	0.604
338.40	0.496
338.76	0.582
339.12	0.622
339.48	0.621
339.83	0.584
340.19	0.635
340.55	0.762
340.90	0.890
341.26	0.856
341.62	0.849
341.97	0.815
342.33	0.865
342.69	0.932
343.04	0.965
343.40	0.909
343.76	0.876
344.12	0.896
344.47	0.929
344.83	0.945
345.19	1.008
345.54	1.055
345.90	1.103
346.26	1.144
346.61	1.137
346.97	1.102
347.32	1.093
347.68	1.116
348.04	1.078
348.39	0.932
348.75	0.897
349.11	0.900
349.46	0.848
349.82	0.777
350.18	0.723
350.53	0.654
350.89	0.646
351.24	0.682
351.60	0.704
351.96	0.740
352.31	0.806
352.67	0.864
353.02	0.847
353.38	0.878
353.74	0.933
354.09	0.938
354.45	0.964
354.80	0.935
355.16	0.953
355.52	0.956
355.87	0.907
356.23	0.953
356.58	0.935
356.94	0.931
357.29	0.958
357.65	0.966
358.00	0.953
358.36	0.910
358.72	0.927
359.07	0.918
359.43	0.930
359.78	0.979
360.14	0.986
360.49	0.965
360.85	0.979
361.20	0.946
361.56	0.896
361.91	0.893
362.27	0.894
362.62	0.863
362.98	0.902
363.33	0.868
363.69	0.843
364.04	0.840
364.40	0.821
364.75	0.788
365.11	0.755
365.46	0.739
365.82	0.794
366.17	0.793
366.53	0.857
366.88	0.833
367.24	0.860
367.59	0.824
367.95	0.807
368.30	0.835
368.66	0.879
369.01	0.858
369.37	0.911
369.72	0.916
370.08	0.955
370.43	0.963
370.78	0.957
371.14	0.891
371.49	0.931
371.85	0.922
372.20	0.921
372.56	0.900
372.91	0.940
373.26	0.959
373.62	0.873
373.97	0.871
374.33	0.828
374.68	0.836
375.03	0.905
375.39	0.891
375.74	0.901
376.10	0.921
376.45	0.970
376.80	1.022
377.16	1.018
377.51	1.091
377.87	1.096
378.22	1.086
378.57	1.132
378.93	1.167
379.28	1.217
379.63	1.219
379.99	1.246
380.34	1.229
380.70	1.223
381.05	1.233
381.40	1.208
381.76	1.269
382.11	1.317
382.46	1.316
382.82	1.336
383.17	1.291
383.52	1.310
383.88	1.300
384.23	1.293
384.58	1.271
384.94	1.242
385.29	1.263
385.64	1.234
385.99	1.258
386.35	1.274
386.70	1.264
387.05	1.270
387.41	1.242
387.76	1.227
388.11	1.222
388.47	1.226
388.82	1.247
389.17	1.252
389.52	1.242
389.88	1.223
390.23	1.183
390.58	1.184
390.93	1.178
391.29	1.212
391.64	1.235
391.99	1.305
392.34	1.284
392.70	1.271
393.05	1.235
393.40	1.235
393.75	1.215
394.11	1.236
394.46	1.178
394.81	1.193
395.16	1.159
395.52	1.147
395.87	1.095
396.22	1.101
396.57	1.060
396.92	1.057
397.28	1.024
397.63	1.026
397.98	1.003
398.33	1.010
398.68	1.009
399.04	1.027
399.39	0.994
399.74	0.969
400.09	0.969
400.44	0.993
400.80	1.012
401.15	1.025
401.50	1.028
401.85	1.045
402.20	1.044
402.55	1.061
402.90	1.037
403.26	1.053
403.61	1.042
403.96	1.042
404.31	1.060
404.66	1.065
405.01	1.053
405.36	1.039
405.72	1.017
406.07	1.010
406.42	0.979
406.77	0.988
407.12	0.980
407.47	1.002
407.82	0.996
408.17	0.987
408.53	0.948
408.88	0.944
409.23	0.946
409.58	0.937
409.93	0.950
410.28	0.973
410.63	0.947
410.98	0.948
411.33	0.954
411.68	0.976
412.03	1.003
412.38	1.017
412.73	1.036
413.09	1.051
413.44	1.091
413.79	1.105
414.14	1.132
414.49	1.185
414.84	1.211
415.19	1.226
415.54	1.257
415.89	1.258
416.24	1.322
416.59	1.337
416.94	1.359
417.29	1.377
417.64	1.378
417.99	1.380
418.34	1.394
418.69	1.417
419.04	1.420
419.39	1.422
419.74	1.440
420.09	1.424
420.44	1.441
420.79	1.446
421.14	1.431
421.49	1.469
421.84	1.465
422.19	1.468
422.54	1.454
422.89	1.459
423.24	1.454
423.59	1.440
423.94	1.431
424.29	1.419
424.64	1.415
424.99	1.422
425.34	1.377
425.68	1.379
426.03	1.334
426.38	1.311
426.73	1.306
427.08	1.288
427.43	1.285
427.78	1.292
428.13	1.264
428.48	1.268
428.83	1.260
429.18	1.260
429.53	1.251
429.87	1.273
430.22	1.281
430.57	1.299
430.92	1.290
431.27	1.291
431.62	1.276
431.97	1.299
432.32	1.277
432.67	1.271
433.01	1.260
433.36	1.249
433.71	1.229
434.06	1.219
434.41	1.185
434.76	1.203
435.11	1.185
435.45	1.185
435.80	1.168
436.15	1.183
436.50	1.206
436.85	1.233
437.20	1.239
437.54	1.238
437.89	1.243
438.24	1.245
438.59	1.236
438.94	1.257
439.29	1.244
439.63	1.252
439.98	1.241
440.33	1.214
440.68	1.203
441.03	1.219
441.37	1.240
441.72	1.255
442.07	1.270
442.42	1.277
442.76	1.272
443.11	1.296
443.46	1.302
443.81	1.321
444.16	1.337
444.50	1.351
444.85	1.343
445.20	1.333
445.55	1.324
445.89	1.309
446.24	1.297
446.59	1.277
446.94	1.260
447.28	1.253
447.63	1.221
447.98	1.212
448.32	1.182
448.67	1.158
449.02	1.124
449.37	1.097
449.71	1.097
450.06	1.100
450.41	1.108
450.75	1.107
451.10	1.093
451.45	1.084
451.79	1.063
452.14	1.049
452.49	1.055
452.84	1.079
453.18	1.075
453.53	1.063
453.88	1.064
454.22	1.061
454.57	1.075
454.92	1.085
455.26	1.110
455.61	1.148
455.95	1.183
456.30	1.191
456.65	1.209
456.99	1.226
457.34	1.247
457.69	1.251
458.03	1.260
458.38	1.257
458.73	1.249
459.07	1.240
459.42	1.205
459.76	1.172
460.11	1.140
460.46	1.103
460.80	1.086
461.15	1.063
461.49	1.028
461.84	1.004
462.19	0.982
462.53	0.976
462.88	0.956
463.22	0.948
463.57	0.943
463.91	0.959
464.26	0.978
464.61	0.978
464.95	0.949
465.30	0.953
465.64	0.970
465.99	0.985
466.33	0.990
466.68	0.996
467.02	1.000
467.37	0.989
467.71	0.964
468.06	0.949
468.41	0.929
468.75	0.938
469.10	0.931
469.44	0.904
469.79	0.878
470.13	0.838
470.48	0.808
470.82	0.800
471.17	0.806
471.51	0.809
471.86	0.804
472.20	0.791
472.55	0.787
472.89	0.787
473.23	0.782
473.58	0.781
473.92	0.791
474.27	0.807
474.61	0.794
474.96	0.805
475.30	0.808
475.65	0.802
475.99	0.800
476.34	0.805
476.68	0.801
477.02	0.809
477.37	0.819
477.71	0.855
478.06	0.890
478.40	0.960
478.75	1.022
479.09	1.109
479.43	1.194
479.78	1.286
480.12	1.357
480.47	1.429
480.81	1.495
481.15	1.558
481.50	1.619
481.84	1.686
482.19	1.738
482.53	1.780
482.87	1.809
483.22	1.810
483.56	1.791
483.90	1.759
484.25	1.717
484.59	1.672
484.94	1.624
485.28	1.571
485.62	1.514
485.97	1.455
486.31	1.406
486.65	1.362
487.00	1.339
487.34	1.326
487.68	1.320
488.03	1.313
488.37	1.303
488.71	1.299
489.06	1.293
489.40	1.281
489.74	1.271
490.09	1.255
490.43	1.232
490.77	1.192
491.11	1.151
491.46	1.119
491.80	1.088
492.14	1.057
492.49	1.026
492.83	0.980
493.17	0.928
493.51	0.885
493.86	0.845
494.20	0.816
494.54	0.801
494.88	0.814
495.23	0.820
495.57	0.837
495.91	0.858
496.25	0.873
496.60	0.878
496.94	0.889
497.28	0.895
497.62	0.898
497.97	0.895
498.31	0.913
498.65	0.907
498.99	0.896
499.33	0.898
499.68	0.901
500.02	0.892
500.36	0.903
500.70	0.909
501.04	0.904
501.39	0.917
501.73	0.951
502.07	0.976
502.41	0.999
502.75	1.034
503.09	1.039
503.44	1.056
503.78	1.081
504.12	1.105
504.46	1.148
504.80	1.194
505.14	1.240
505.49	1.264
505.83	1.286
506.17	1.329
506.51	1.357
506.85	1.409
507.19	1.453
507.53	1.489
507.87	1.538
508.22	1.562
508.56	1.592
508.90	1.599
509.24	1.651
509.58	1.692
509.92	1.732
510.26	1.765
510.60	1.792
510.94	1.826
511.28	1.863
511.63	1.915
511.97	1.969
512.31	2.023
512.65	2.097
512.99	2.147
513.33	2.244
513.67	2.325
514.01	2.459
514.35	2.564
514.69	2.672
515.03	2.772
515.37	2.864
515.71	2.965
516.05	3.058
516.39	3.141
516.73	3.214
517.07	3.273
517.41	3.326
517.75	3.355
518.09	3.410
518.43	3.447
518.77	3.486
519.11	3.523
519.45	3.546
519.79	3.607
520.13	3.667
520.47	3.741
520.81	3.815
521.15	3.923
521.49	4.016
521.83	4.120
522.17	4.218
522.51	4.348
522.85	4.473
523.19	4.655
523.53	4.827
523.87	5.013
524.21	5.194
524.55	5.353
524.89	5.493
525.23	5.634
525.57	5.751
525.91	5.871
526.25	5.970
526.58	6.064
526.92	6.138
527.26	6.192
527.60	6.226
527.94	6.257
528.28	6.282
528.62	6.294
528.96	6.306
529.30	6.322
529.64	6.342
529.97	6.353
530.31	6.363
530.65	6.371
530.99	6.396
531.33	6.425
531.67	6.448
532.01	6.470
532.35	6.496
532.68	6.519
533.02	6.530
533.36	6.524
533.70	6.525
534.04	6.534
534.38	6.537
534.71	6.522
535.05	6.519
535.39	6.522
535.73	6.534
536.07	6.551
536.41	6.590
536.74	6.622
537.08	6.673
537.42	6.743
537.76	6.804
538.10	6.861
538.43	6.936
538.77	6.998
539.11	7.050
539.45	7.103
539.79	7.150
540.12	7.173
540.46	7.198
540.80	7.197
541.14	7.190
541.47	7.164
541.81	7.153
542.15	7.119
542.49	7.093
542.82	7.061
543.16	7.031
543.50	6.987
543.84	6.952
544.17	6.922
544.51	6.927
544.85	6.910
545.18	6.905
545.52	6.877
545.86	6.869
546.20	6.857
546.53	6.847
546.87	6.808
547.21	6.791
547.54	6.756
547.88	6.746
548.22	6.707
548.55	6.690
548.89	6.690
549.23	6.702
549.56	6.685
549.90	6.700
550.24	6.693
550.57	6.701
550.91	6.701
551.25	6.736
551.58	6.739
551.92	6.723
552.26	6.722
552.59	6.710
552.93	6.681
553.27	6.678
553.60	6.644
553.94	6.600
554.27	6.582
554.61	6.576
554.95	6.547
555.28	6.515
555.62	6.504
555.95	6.489
556.29	6.473
556.63	6.463
556.96	6.437
557.30	6.403
557.63	6.394
557.97	6.363
558.31	6.309
558.64	6.270
558.98	6.239
559.31	6.228
559.65	6.194
559.98	6.153
560.32	6.101
560.65	6.075
560.99	6.039
561.33	6.022
561.66	5.997
562.00	5.970
562.33	5.944
562.67	5.906
563.00	5.862
563.34	5.820
563.67	5.778
564.01	5.749
564.34	5.707
564.68	5.665
565.01	5.609
565.35	5.548
565.68	5.503
566.02	5.436
566.35	5.385
566.69	5.316
567.02	5.264
567.36	5.214
567.69	5.180
568.03	5.135
568.36	5.086
568.69	5.052
569.03	5.024
569.36	4.986
569.70	4.950
570.03	4.915
570.37	4.888
570.70	4.852
571.04	4.797
571.37	4.731
571.70	4.674
572.04	4.625
572.37	4.578
572.71	4.525
573.04	4.469
573.37	4.429
573.71	4.375
574.04	4.324
574.38	4.242
574.71	4.197
575.04	4.152
575.38	4.101
575.71	4.040
576.05	3.965
576.38	3.906
576.71	3.844
577.05	3.767
577.38	3.714
577.71	3.632
578.05	3.599
578.38	3.544
578.71	3.479
579.05	3.420
579.38	3.370
579.71	3.329
580.05	3.281
580.38	3.249
580.71	3.201
581.05	3.180
581.38	3.148
581.71	3.124
582.05	3.111
582.38	3.100
582.71	3.076
583.04	3.069
583.38	3.039
583.71	3.035
584.04	3.017
584.38	3.007
584.71	3.000
585.04	2.996
585.37	2.967
585.71	2.931
586.04	2.934
586.37	2.961
586.70	2.968
587.04	2.981
587.37	2.979
587.70	2.968
588.03	3.006
588.37	2.979
588.70	2.990
589.03	3.004
589.36	3.015
589.69	2.966
590.03	2.936
590.36	2.888
590.69	2.853
591.02	2.806
591.35	2.795
591.69	2.762
592.02	2.758
592.35	2.743
592.68	2.732
593.01	2.720
593.35	2.743
593.68	2.733
594.01	2.758
594.34	2.744
594.67	2.755
595.00	2.739
595.34	2.676
595.67	2.635
596.00	2.605
596.33	2.547
596.66	2.514
596.99	2.464
597.32	2.408
597.65	2.339
597.99	2.305
598.32	2.229
598.65	2.174
598.98	2.161
599.31	2.140
599.64	2.135
599.97	2.132
600.30	2.129
600.63	2.135
600.96	2.156
601.30	2.158
601.63	2.184
601.96	2.209
602.29	2.221
602.62	2.217
602.95	2.214
603.28	2.205
603.61	2.185
603.94	2.136
604.27	2.102
604.60	2.065
604.93	2.053
605.26	2.004
605.59	1.968
605.92	1.938
606.25	1.925
606.58	1.904
606.91	1.853
607.24	1.833
607.57	1.820
607.90	1.808
608.23	1.755
608.56	1.702
608.89	1.660
609.22	1.617
609.55	1.554
609.88	1.474
610.21	1.419
610.54	1.361
610.87	1.302
611.20	1.242
611.53	1.173
611.86	1.138
612.19	1.092
612.52	1.031
612.85	1.002
613.18	0.999
613.51	0.977
613.84	0.908
614.17	0.885
614.49	0.875
614.82	0.845
615.15	0.812
615.48	0.807
615.81	0.790
616.14	0.781
616.47	0.741
616.80	0.694
617.13	0.673
617.46	0.650
617.78	0.612
618.11	0.580
618.44	0.568
618.77	0.534
619.10	0.502
619.43	0.491
619.76	0.444
620.09	0.449
620.41	0.433
620.74	0.451
621.07	0.482
621.40	0.501
621.73	0.521
622.06	0.544
622.38	0.566
622.71	0.600
623.04	0.615
623.37	0.698
623.70	0.730
624.02	0.779
624.35	0.808
624.68	0.836
625.01	0.871
625.34	0.886
625.66	0.893
625.99	0.912
626.32	0.897
626.65	0.884
626.98	0.868
627.30	0.845
627.63	0.803
627.96	0.717
628.29	0.689
628.61	0.641
628.94	0.599
629.27	0.582
629.60	0.511
629.92	0.500
630.25	0.476
630.58	0.434
630.91	0.394
631.23	0.371
631.56	0.390
631.89	0.353
632.21	0.349
632.54	0.330
632.87	0.279
633.19	0.257
633.52	0.204
633.85	0.196
634.18	0.157
634.50	0.115
634.83	0.084
635.16	0.029
635.48	-0.031
635.81	-0.100
636.14	-0.187
636.46	-0.231
636.79	-0.253
637.11	-0.308
637.44	-0.391
637.77	-0.482
638.09	-0.550
638.42	-0.620
638.75	-0.655
639.07	-0.674
639.40	-0.724
639.73	-0.750
640.05	-0.777
640.38	-0.792
640.70	-0.818
641.03	-0.829
641.36	-0.810
641.68	-0.796
642.01	-0.767
642.33	-0.761
642.66	-0.784
642.98	-0.786
643.31	-0.766
643.64	-0.769
643.96	-0.783
644.29	-0.760
644.61	-0.734
644.94	-0.720
645.26	-0.686
645.59	-0.648
645.91	-0.659
646.24	-0.639
646.56	-0.638
646.89	-0.638
647.22	-0.635
647.54	-0.611
647.87	-0.587
648.19	-0.632
648.52	-0.617
648.84	-0.632
649.17	-0.696
649.49	-0.670
649.82	-0.658
650.14	-0.653
650.47	-0.666
650.79	-0.640
651.11	-0.652
651.44	-0.651
651.76	-0.623
652.09	-0.606
652.41	-0.566
652.74	-0.543
653.06	-0.538
653.39	-0.506
653.71	-0.451
654.04	-0.433
654.36	-0.395
654.68	-0.353
655.01	-0.337
655.33	-0.286
655.66	-0.299
655.98	-0.290
656.30	-0.260
656.63	-0.233
656.95	-0.226
657.28	-0.206
657.60	-0.187
657.92	-0.227
658.25	-0.266
658.57	-0.268
658.90	-0.267
659.22	-0.275
659.54	-0.296
659.87	-0.317
660.19	-0.378
660.51	-0.441
660.84	-0.504
661.16	-0.533
661.48	-0.550
661.81	-0.552
662.13	-0.589
662.45	-0.641
662.78	-0.636
663.10	-0.626
663.42	-0.594
663.75	-0.531
664.07	-0.519
664.39	-0.513
664.72	-0.471
665.04	-0.429
665.36	-0.365
665.69	-0.305
666.01	-0.221
666.33	-0.160
666.65	-0.133
666.98	-0.060
667.30	0.005
667.62	0.070
667.94	0.181
668.27	0.251
668.59	0.338
668.91	0.425
669.23	0.500
669.56	0.539
669.88	0.674
670.20	0.758
670.52	0.852
670.85	0.903
671.17	1.024
671.49	1.096
671.81	1.214
672.13	1.298
672.46	1.388
672.78	1.496
673.10	1.657
673.42	1.698
673.74	1.829
674.07	1.945
674.39	2.138
674.71	2.217
675.03	2.411
675.35	2.542
675.67	2.695
676.00	2.806
676.32	2.914
676.64	3.032
676.96	3.228
677.28	3.363
677.60	3.482
677.92	3.569
678.25	3.707
678.57	3.766
678.89	3.878
679.21	3.974
679.53	4.105
679.85	4.204
680.17	4.284
680.49	4.317
680.81	4.391
681.13	4.460
681.46	4.560
681.78	4.726
682.10	4.840
682.42	4.951
682.74	5.105
683.06	5.161
683.38	5.302
683.70	5.405
684.02	5.544
684.34	5.674
684.66	5.796
684.98	5.873
685.30	5.925
685.62	6.023
685.94	6.095
686.26	6.099
686.58	6.179
686.90	6.231
687.22	6.271
687.54	6.329
687.86	6.325
688.18	6.300
688.50	6.384
688.82	6.405
689.14	6.410
689.46	6.446
689.78	6.514
690.10	6.541
690.42	6.543
690.74	6.683
691.06	6.724
691.38	6.867
691.70	7.066
692.02	7.156
692.34	7.263
692.66	7.370
692.98	7.511
693.30	7.707
693.62	7.939
693.94	8.145
694.26	8.287
694.57	8.467
694.89	8.692
695.21	8.838
695.53	8.971
695.85	9.125
696.17	9.342
696.49	9.566
696.81	9.765
697.13	9.949
697.44	10.195
697.76	10.460
698.08	10.739
698.40	10.931
698.72	11.210
699.04	11.538
699.36	11.987
699.67	12.313
699.99	12.605
700.31	12.905
700.63	13.284
700.95	13.684
701.27	14.038
701.58	14.361
701.90	14.815
702.22	15.138
702.54	15.531
702.86	15.800
703.17	16.144
703.49	16.568
703.81	17.058
704.13	17.384
704.45	17.716
704.76	18.004
705.08	18.337
705.40	18.583
705.72	18.948
706.03	19.250
706.35	19.566
706.67	19.958
706.99	20.269
707.30	20.499
707.62	20.882
707.94	21.141
708.26	21.422
708.57	21.737
708.89	22.101
709.21	22.352
709.53	22.685
709.84	23.072
710.16	23.350
710.48	23.653
710.79	23.969
711.11	24.275
711.43	24.697
711.74	25.152
712.06	25.556
712.38	25.884
712.69	26.348
713.01	26.762
713.33	27.154
713.64	27.651
713.96	28.092
714.28	28.560
714.59	29.047
714.91	29.486
715.23	29.980
715.54	30.417
715.86	30.928
716.17	31.427
716.49	31.916
716.81	32.306
717.12	32.668
717.44	33.098
717.76	33.668
718.07	33.937
718.39	34.287
718.70	34.624
719.02	35.010
719.33	35.414
719.65	35.711
719.97	36.013
720.28	36.468
720.60	36.938
720.91	37.321
721.23	37.512
721.54	38.011
721.86	38.406
722.17	38.736
722.49	39.131
722.81	39.439
723.12	39.913
723.44	40.292
723.75	40.617
724.07	40.974
724.38	41.320
724.70	41.800
725.01	42.228
725.33	42.549
725.64	42.776
725.96	43.016
726.27	43.298
726.59	43.449
726.90	43.705
727.22	43.867
727.53	44.057
727.84	44.348
728.16	44.534
728.47	44.714
728.79	44.993
729.10	45.390
729.42	45.789
729.73	46.137
730.05	46.530
730.36	46.746
730.67	47.135
730.99	47.498
731.30	47.761
731.62	48.036
731.93	48.347
732.24	48.635
732.56	48.786
732.87	48.990
733.19	49.292
733.50	49.552
733.81	49.845
734.13	50.123
734.44	50.316
734.76	50.562
735.07	50.964
735.38	51.142
735.70	51.492
736.01	51.849
736.32	52.105
736.64	52.322
736.95	52.536
737.26	52.849
737.58	53.013
737.89	53.248
738.20	53.524
738.52	53.685
738.83	53.950
739.14	54.033
739.45	54.283
739.77	54.496
740.08	54.669
740.39	54.873
740.71	55.133
741.02	55.426
741.33	55.653
741.64	55.872
741.96	55.914
742.27	56.065
742.58	56.308
742.90	56.376
743.21	56.483
743.52	56.636
743.83	56.765
744.14	56.841
744.46	56.967
744.77	57.009
745.08	56.743
745.39	56.796
745.71	56.785
746.02	56.928
746.33	57.022
746.64	56.951
746.95	56.962
747.27	57.189
747.58	57.387
747.89	57.323
748.20	57.450
748.51	57.817
748.82	57.731
749.14	57.918
749.45	57.928
749.76	57.993
750.07	58.346
750.38	58.340
750.69	58.114
751.01	57.819
751.32	57.753
751.63	57.764
751.94	57.583
752.25	57.707
752.56	57.685
752.87	57.680
753.18	57.532
753.49	57.392
753.81	57.410
754.12	57.371
754.43	57.464
754.74	57.443
755.05	57.468
755.36	57.642
755.67	57.777
755.98	57.917
756.29	57.824
756.60	57.880
756.91	57.885
757.22	57.949
757.53	58.198
757.84	58.262
758.15	58.429
758.46	58.392
758.77	58.191
759.09	58.101
759.40	57.939
759.71	57.944
760.02	57.889
760.33	57.814
760.64	57.727
760.95	57.610
761.26	57.437
761.57	57.336
761.88	57.255
762.18	57.335
762.49	57.241
762.80	57.254
763.11	57.149
763.42	57.101
763.73	56.930
764.04	56.939
764.35	56.849
764.66	56.802
764.97	56.727
765.28	56.644
765.59	56.435
765.90	56.376
766.21	56.120
766.52	55.967
766.83	55.969
767.14	56.144
767.44	55.920
767.75	55.716
768.06	55.855
768.37	55.645
768.68	55.557
768.99	55.561
769.30	55.593
769.61	55.424
769.91	55.514
770.22	55.200
770.53	55.068
770.84	54.937
771.15	54.804
771.46	54.418
771.77	54.655
772.07	54.660
772.38	54.701
772.69	54.757
773.00	54.907
773.31	54.938
773.61	55.089
773.92	54.819
774.23	55.002
774.54	55.266
774.85	55.408
775.15	55.268
775.46	54.981
775.77	54.886
776.08	54.506
776.39	54.460
776.69	54.335
777.00	54.409
777.31	54.628
777.62	54.443
777.92	54.113
778.23	54.046
778.54	54.045
778.85	54.207
779.15	54.187
779.46	54.259
779.77	54.407
780.07	54.617
780.38	54.684
780.69	54.642
781.00	54.885
781.30	54.988
781.61	54.977
781.92	55.081
782.22	55.117
782.53	54.837
782.84	55.298
783.14	55.395
783.45	55.313
783.76	55.386
784.06	55.457
784.37	55.081
784.68	55.407
784.98	55.574
785.29	55.604
785.60	55.319
785.90	55.533
786.21	55.219
786.51	54.993
786.82	55.268
787.13	55.358
787.43	55.466
787.74	55.806
788.04	55.721
788.35	55.896
788.66	55.879
788.96	56.318
789.27	56.398
789.57	56.354
789.88	56.518
790.19	56.259
790.49	55.915
790.80	55.606
791.10	55.503
791.41	55.546
791.71	55.357
792.02	55.241
792.32	54.966
792.63	55.044
792.93	55.031
793.24	54.800
793.54	54.670
793.85	54.469
794.15	54.745
794.46	54.846
794.76	54.731
795.07	54.617
795.37	54.517
795.68	54.764
795.98	54.739
796.29	54.821
796.59	54.908
796.90	54.884
797.20	55.170
797.51	54.811
797.81	54.496
798.12	54.750
798.42	55.191
798.72	55.644
799.03	55.511
799.33	55.619
799.64	55.511
799.94	55.727
800.25	55.739
800.55	55.912
800.85	56.500
801.16	56.969
801.46	56.449
801.77	56.139
802.07	56.013
802.37	56.098
802.68	56.233
802.98	56.610
803.28	56.493
803.59	56.478
803.89	56.541
804.20	56.137
804.50	56.165
804.80	56.682
805.11	56.663
805.41	56.610
805.71	56.733
806.02	56.626
806.32	56.228
806.62	56.373
806.93	56.677
807.23	56.546
807.53	57.021
807.83	56.884
808.14	57.002
808.44	56.947
808.74	56.948
809.05	56.577
809.35	56.398
809.65	56.894
809.95	56.995
810.26	56.859
810.56	56.988
810.86	57.098
811.16	57.172
811.47	57.089
811.77	57.493
812.07	57.532
812.37	57.896
812.68	57.965
812.98	58.122
813.28	58.424
813.58	58.898
813.88	58.643
814.19	58.555
814.49	58.925
814.79	59.058
815.09	59.273
815.39	59.286
815.70	59.605
816.00	59.966
816.30	59.522
816.60	59.145
816.90	58.873
817.20	59.332
817.50	59.282
817.81	58.653
818.11	58.260
818.41	58.073
818.71	57.781
819.01	57.731
819.31	57.875
819.61	58.168
819.92	58.327
820.22	58.569
820.52	58.638
820.82	58.760
821.12	59.114
821.42	59.431
821.72	59.704
822.02	60.200
822.32	60.548
822.62	60.822
822.92	61.060
823.22	61.379
823.52	61.586
823.83	61.847
824.13	61.987
824.43	61.910
824.73	62.067
825.03	61.991
825.33	61.858
825.63	61.706
825.93	61.545
826.23	61.359
826.53	61.265
826.83	61.145
827.13	61.234
827.43	61.434
827.73	61.740
828.03	61.891
828.33	62.174
828.63	62.320
828.93	62.462
829.23	62.757
829.53	62.680
829.83	62.622
830.13	62.581
830.42	62.028
830.72	61.698
831.02	61.465
831.32	60.963
831.62	60.964
831.92	60.566
832.22	60.427
832.52	60.128
832.82	60.422
833.12	60.115
833.42	60.119
833.72	60.450
834.01	60.719
834.31	60.791
834.61	61.155
834.91	61.449
835.21	61.768
835.51	62.185
835.81	62.061
836.11	61.886
836.40	62.270
836.70	62.530
837.00	62.439
837.30	61.870
837.60	62.331
837.90	62.124
838.19	61.766
838.49	61.683
838.79	61.418
839.09	62.065
839.39	62.318
839.68	62.342
839.98	61.798
840.28	61.361
840.58	62.256
840.88	61.995
841.17	61.337
841.47	61.327
841.77	60.903
842.07	60.659
842.36	60.616
842.66	59.889
842.96	59.674
843.26	58.952
843.55	58.243
843.85	56.712
844.15	56.499
844.45	55.917
844.74	56.278
845.04	56.561
845.34	55.516
845.63	53.740
845.93	55.327
846.23	56.024
846.53	56.462
846.82	56.560
847.12	57.066
847.42	56.774
847.71	57.065
848.01	55.075
848.31	54.847
848.60	54.661
848.90	54.352
849.19	52.116
849.49	52.217
849.79	53.117
850.08	53.667
850.38	52.963
850.68	52.734
850.97	53.696
851.27	54.217
851.56	53.490
851.86	54.612
852.16	56.376
852.45	56.405
852.75	54.606
853.04	56.066
853.34	57.092
853.64	58.605
853.93	58.738
854.23	58.169
854.52	59.281
854.82	60.707
855.11	59.564
855.41	60.236
855.70	62.742
856.00	63.218
856.30	61.901
856.59	62.051
856.89	61.529
857.18	61.370
857.48	60.860
857.77	58.917
858.07	58.958
858.36	59.312
858.66	58.631
858.95	58.157
859.25	57.874
859.54	57.591
859.84	58.209
860.13	58.876
860.42	59.165
860.72	58.514
861.01	59.321
861.31	59.003
861.60	60.499
861.90	61.078
862.19	62.264
862.49	62.604
862.78	62.564
863.07	62.348
863.37	62.211
863.66	60.671
863.96	64.294
864.25	65.535
864.54	66.231
864.84	66.052
865.13	64.449
865.43	63.347
865.72	70.793
866.01	64.183
866.31	64.357
866.60	49.156
866.89	66.369
>>>>>End Spectral Data<<<<<
