OOIBase32 Version 2.0.0.6 Data File
++++++++++++++++++++++++++++++++++++
Date: 01-23-2012, 23:17:55
User: Valued Ocean Optics Customer
Spectrometer Serial Number: USB2E2917
Spectrometer Channel: Master
Integration Time (msec): 5
Spectra Averaged: 10
Boxcar Smoothing: 5
Correct for Electrical Dark: Enabled
Time Normalized: Disabled
Dual-beam Reference: Disabled
Reference Channel: Master
Temperature: Not acquired
Spectrometer Type: S2000
ADC Type: USB2000
Number of Pixels in File: 2048
Graph Title: 
>>>>>Begin Spectral Data<<<<<
180.30	0.000
180.67	0.000
181.03	158.419
181.40	335.702
181.77	-2758.333
182.14	56.384
182.51	-591.862
182.88	-215.515
183.25	23.601
183.62	26.117
183.99	76.580
184.36	197.175
184.73	506.438
185.10	-11.413
185.46	-118.259
185.83	-351.471
186.20	750.059
186.57	134.316
186.94	13.586
187.31	43.266
187.68	65.294
188.05	96.779
188.42	177.149
188.78	344.409
189.15	774.898
189.52	-207.719
189.89	-49.955
190.26	-20.263
190.63	-17.652
191.00	-0.702
191.37	19.928
191.73	32.750
192.10	28.915
192.47	32.266
192.84	34.444
193.21	32.524
193.58	25.959
193.94	27.549
194.31	15.087
194.68	22.954
195.05	9.709
195.42	7.738
195.79	-5.029
196.15	13.430
196.52	11.859
196.89	17.340
197.26	17.217
197.63	47.589
198.00	54.966
198.36	64.469
198.73	59.072
199.10	45.053
199.47	36.839
199.84	28.820
200.20	3.993
200.57	18.747
200.94	13.864
201.31	6.367
201.68	-9.350
202.04	-23.434
202.41	-16.363
202.78	-15.619
203.15	-18.313
203.51	-27.849
203.88	-17.947
204.25	-16.312
204.62	-31.823
204.98	-40.073
205.35	-30.164
205.72	-49.547
206.09	-41.723
206.46	-115.385
206.82	-96.270
207.19	-82.297
207.56	-121.598
207.92	-105.715
208.29	-94.306
208.66	-65.405
209.03	-64.634
209.39	-36.327
209.76	-22.682
210.13	-62.724
210.50	-32.633
210.86	-23.997
211.23	-52.247
211.60	-23.891
211.96	-24.958
212.33	-33.624
212.70	-44.604
213.07	-54.093
213.43	-107.985
213.80	-100.334
214.17	-49.982
214.53	-37.839
214.90	-33.500
215.27	-15.242
215.63	-16.540
216.00	-17.301
216.37	-18.935
216.74	-21.757
217.10	-9.010
217.47	-3.822
217.84	0.031
218.20	-2.991
218.57	-0.385
218.94	-0.754
219.30	-4.006
219.67	-14.750
220.04	-11.088
220.40	-13.041
220.77	-20.799
221.13	-18.969
221.50	-16.878
221.87	-20.497
222.23	-27.002
222.60	-31.830
222.97	-32.266
223.33	-30.310
223.70	-21.704
224.07	-21.798
224.43	-18.074
224.80	-10.245
225.16	-13.013
225.53	-13.630
225.90	-13.821
226.26	-10.900
226.63	-9.522
226.99	-6.392
227.36	-5.332
227.73	-3.758
228.09	-4.611
228.46	-3.183
228.82	-1.750
229.19	-0.559
229.56	0.257
229.92	2.298
230.29	3.514
230.65	2.768
231.02	0.562
231.38	-0.283
231.75	-1.113
232.12	-0.293
232.48	-2.268
232.85	-4.832
233.21	-4.988
233.58	-7.337
233.94	-8.041
234.31	-8.203
234.68	-6.545
235.04	-6.710
235.41	-5.309
235.77	-4.954
236.14	-3.949
236.50	-1.190
236.87	-0.341
237.23	0.391
237.60	0.182
237.96	-0.157
238.33	-1.079
238.69	-1.860
239.06	-1.772
239.42	-1.652
239.79	-1.739
240.15	-1.709
240.52	-1.456
240.88	-1.138
241.25	-1.664
241.61	-0.934
241.98	-1.046
242.34	-0.762
242.71	-0.366
243.07	-0.213
243.44	-0.522
243.80	-0.596
244.17	-0.667
244.53	-1.210
244.90	-1.368
245.26	-1.255
245.63	-1.352
245.99	-1.331
246.36	-1.343
246.72	-1.165
247.09	-1.244
247.45	-1.002
247.81	-0.593
248.18	-0.569
248.54	-0.334
248.91	-0.408
249.27	0.060
249.64	0.574
250.00	0.890
250.36	0.929
250.73	0.570
251.09	0.673
251.46	0.452
251.82	-0.071
252.19	-0.123
252.55	-0.659
252.91	-0.802
253.28	-1.204
253.64	-1.788
254.01	-1.826
254.37	-1.715
254.73	-0.825
255.10	-0.230
255.46	0.268
255.83	0.414
256.19	0.746
256.55	0.888
256.92	0.963
257.28	0.826
257.65	0.978
258.01	0.824
258.37	0.687
258.74	0.278
259.10	-0.019
259.46	-0.284
259.83	-0.406
260.19	-0.533
260.55	-0.421
260.92	-0.568
261.28	-0.555
261.64	-0.577
262.01	-0.407
262.37	-0.060
262.73	0.207
263.10	0.695
263.46	0.697
263.82	0.599
264.19	0.447
264.55	0.080
264.91	0.017
265.28	0.061
265.64	0.031
266.00	0.045
266.37	-0.127
266.73	-0.279
267.09	-0.660
267.46	-0.542
267.82	-0.562
268.18	-0.604
268.54	-0.645
268.91	-0.722
269.27	-0.769
269.63	-0.727
270.00	-0.857
270.36	-0.787
270.72	-0.580
271.08	-0.563
271.45	-0.470
271.81	-0.388
272.17	-0.368
272.53	-0.185
272.90	0.095
273.26	0.274
273.62	0.171
273.98	0.274
274.35	0.052
274.71	-0.139
275.07	-0.230
275.43	-0.374
275.80	-0.296
276.16	-0.387
276.52	-0.345
276.88	-0.408
277.25	-0.812
277.61	-0.904
277.97	-0.863
278.33	-0.510
278.69	-0.685
279.06	-0.579
279.42	-0.382
279.78	-0.397
280.14	-0.154
280.50	-0.010
280.87	-0.072
281.23	0.041
281.59	0.070
281.95	-0.037
282.31	-0.129
282.68	0.019
283.04	0.054
283.40	0.078
283.76	0.153
284.12	0.251
284.48	0.142
284.85	0.248
285.21	0.330
285.57	0.388
285.93	0.505
286.29	0.374
286.65	0.501
287.02	0.864
287.38	0.746
287.74	0.625
288.10	0.391
288.46	0.315
288.82	0.213
289.18	0.206
289.54	0.191
289.91	0.129
290.27	0.232
290.63	0.309
290.99	0.143
291.35	0.257
291.71	0.351
292.07	0.385
292.43	0.444
292.79	0.589
293.16	0.610
293.52	0.798
293.88	0.951
294.24	1.062
294.60	0.928
294.96	0.737
295.32	0.613
295.68	0.750
296.04	0.714
296.40	0.774
296.76	0.790
297.12	0.599
297.49	0.342
297.85	0.226
298.21	0.184
298.57	-0.054
298.93	0.079
299.29	0.088
299.65	-0.047
300.01	0.122
300.37	0.171
300.73	0.267
301.09	0.467
301.45	0.582
301.81	0.655
302.17	0.689
302.53	0.778
302.89	0.704
303.25	0.742
303.61	0.680
303.97	0.332
304.33	0.108
304.69	-0.045
305.05	-0.105
305.41	-0.201
305.77	-0.191
306.13	-0.374
306.49	-0.323
306.85	-0.225
307.21	-0.166
307.57	-0.012
307.93	0.257
308.29	0.518
308.65	0.530
309.01	0.456
309.37	0.507
309.73	0.457
310.09	0.680
310.45	0.761
310.81	0.717
311.17	0.633
311.53	0.495
311.89	0.515
312.25	0.371
312.61	0.334
312.96	0.376
313.32	0.475
313.68	0.403
314.04	0.181
314.40	0.156
314.76	0.092
315.12	0.175
315.48	0.241
315.84	0.084
316.20	0.007
316.56	-0.045
316.92	-0.051
317.27	-0.166
317.63	-0.018
317.99	0.051
318.35	-0.006
318.71	0.101
319.07	0.088
319.43	0.124
319.79	0.185
320.15	0.195
320.50	0.217
320.86	0.310
321.22	0.318
321.58	0.239
321.94	0.207
322.30	0.188
322.66	0.196
323.01	0.144
323.37	0.121
323.73	0.114
324.09	0.168
324.45	0.273
324.81	0.165
325.17	0.223
325.52	0.228
325.88	0.270
326.24	0.307
326.60	0.239
326.96	0.224
327.31	0.172
327.67	0.043
328.03	-0.005
328.39	-0.090
328.75	-0.042
329.11	-0.010
329.46	0.085
329.82	0.069
330.18	0.032
330.54	-0.041
330.90	-0.026
331.25	-0.030
331.61	0.210
331.97	0.320
332.33	0.387
332.68	0.533
333.04	0.552
333.40	0.416
333.76	0.393
334.11	0.414
334.47	0.486
334.83	0.479
335.19	0.438
335.54	0.314
335.90	0.289
336.26	0.270
336.62	0.111
336.97	-0.064
337.33	-0.064
337.69	-0.082
338.05	-0.154
338.40	-0.194
338.76	-0.152
339.12	-0.004
339.48	-0.022
339.83	-0.030
340.19	-0.078
340.55	0.022
340.90	0.106
341.26	0.072
341.62	0.034
341.97	0.108
342.33	0.188
342.69	0.195
343.04	0.089
343.40	0.061
343.76	0.012
344.12	0.028
344.47	-0.043
344.83	-0.047
345.19	-0.027
345.54	0.036
345.90	0.027
346.26	-0.027
346.61	-0.027
346.97	0.031
347.32	0.080
347.68	0.065
348.04	0.038
348.39	0.038
348.75	0.101
349.11	0.146
349.46	0.067
349.82	0.030
350.18	-0.011
350.53	0.008
350.89	-0.018
351.24	-0.043
351.60	-0.029
351.96	0.000
352.31	0.032
352.67	0.053
353.02	-0.021
353.38	0.090
353.74	0.170
354.09	0.182
354.45	0.193
354.80	0.171
355.16	0.237
355.52	0.273
355.87	0.234
356.23	0.231
356.58	0.145
356.94	0.188
357.29	0.161
357.65	0.097
358.00	0.093
358.36	0.035
358.72	0.020
359.07	0.014
359.43	0.019
359.78	0.110
360.14	0.085
360.49	0.066
360.85	0.084
361.20	0.065
361.56	0.085
361.91	0.123
362.27	0.120
362.62	0.145
362.98	0.135
363.33	0.122
363.69	0.073
364.04	0.116
364.40	0.151
364.75	0.123
365.11	0.120
365.46	0.080
365.82	0.062
366.17	0.087
366.53	0.106
366.88	0.111
367.24	0.103
367.59	0.105
367.95	0.072
368.30	0.091
368.66	0.154
369.01	0.127
369.37	0.177
369.72	0.209
370.08	0.225
370.43	0.220
370.78	0.198
371.14	0.156
371.49	0.153
371.85	0.164
372.20	0.165
372.56	0.138
372.91	0.186
373.26	0.176
373.62	0.096
373.97	0.100
374.33	0.063
374.68	0.098
375.03	0.163
375.39	0.139
375.74	0.145
376.10	0.121
376.45	0.130
376.80	0.137
377.16	0.116
377.51	0.202
377.87	0.210
378.22	0.213
378.57	0.196
378.93	0.196
379.28	0.253
379.63	0.238
379.99	0.307
380.34	0.298
380.70	0.299
381.05	0.362
381.40	0.355
381.76	0.359
382.11	0.375
382.46	0.407
382.82	0.425
383.17	0.392
383.52	0.403
383.88	0.358
384.23	0.357
384.58	0.346
384.94	0.323
385.29	0.303
385.64	0.314
385.99	0.338
386.35	0.337
386.70	0.309
387.05	0.294
387.41	0.321
387.76	0.313
388.11	0.313
388.47	0.311
388.82	0.314
389.17	0.306
389.52	0.275
389.88	0.278
390.23	0.268
390.58	0.298
390.93	0.328
391.29	0.316
391.64	0.330
391.99	0.370
392.34	0.393
392.70	0.392
393.05	0.389
393.40	0.397
393.75	0.378
394.11	0.388
394.46	0.357
394.81	0.364
395.16	0.315
395.52	0.311
395.87	0.302
396.22	0.306
396.57	0.294
396.92	0.256
397.28	0.244
397.63	0.236
397.98	0.226
398.33	0.211
398.68	0.209
399.04	0.249
399.39	0.241
399.74	0.181
400.09	0.164
400.44	0.181
400.80	0.208
401.15	0.209
401.50	0.224
401.85	0.227
402.20	0.219
402.55	0.239
402.90	0.211
403.26	0.197
403.61	0.198
403.96	0.180
404.31	0.165
404.66	0.198
405.01	0.191
405.36	0.184
405.72	0.159
406.07	0.181
406.42	0.142
406.77	0.177
407.12	0.201
407.47	0.232
407.82	0.260
408.17	0.259
408.53	0.234
408.88	0.237
409.23	0.225
409.58	0.218
409.93	0.226
410.28	0.230
410.63	0.194
410.98	0.188
411.33	0.182
411.68	0.188
412.03	0.220
412.38	0.206
412.73	0.237
413.09	0.249
413.44	0.283
413.79	0.294
414.14	0.316
414.49	0.354
414.84	0.366
415.19	0.386
415.54	0.412
415.89	0.412
416.24	0.476
416.59	0.495
416.94	0.534
417.29	0.562
417.64	0.562
417.99	0.571
418.34	0.590
418.69	0.605
419.04	0.607
419.39	0.613
419.74	0.619
420.09	0.614
420.44	0.616
420.79	0.611
421.14	0.611
421.49	0.626
421.84	0.630
422.19	0.634
422.54	0.642
422.89	0.657
423.24	0.645
423.59	0.643
423.94	0.620
424.29	0.606
424.64	0.598
424.99	0.578
425.34	0.561
425.68	0.551
426.03	0.512
426.38	0.483
426.73	0.465
427.08	0.472
427.43	0.470
427.78	0.495
428.13	0.494
428.48	0.492
428.83	0.503
429.18	0.514
429.53	0.506
429.87	0.520
430.22	0.515
430.57	0.536
430.92	0.523
431.27	0.529
431.62	0.511
431.97	0.511
432.32	0.498
432.67	0.478
433.01	0.460
433.36	0.450
433.71	0.432
434.06	0.429
434.41	0.399
434.76	0.405
435.11	0.386
435.45	0.384
435.80	0.386
436.15	0.397
436.50	0.416
436.85	0.426
437.20	0.426
437.54	0.438
437.89	0.442
438.24	0.455
438.59	0.456
438.94	0.451
439.29	0.438
439.63	0.441
439.98	0.438
440.33	0.412
440.68	0.420
441.03	0.443
441.37	0.451
441.72	0.467
442.07	0.471
442.42	0.473
442.76	0.505
443.11	0.522
443.46	0.534
443.81	0.546
444.16	0.566
444.50	0.558
444.85	0.548
445.20	0.533
445.55	0.516
445.89	0.502
446.24	0.485
446.59	0.455
446.94	0.437
447.28	0.395
447.63	0.382
447.98	0.362
448.32	0.349
448.67	0.334
449.02	0.324
449.37	0.294
449.71	0.282
450.06	0.279
450.41	0.284
450.75	0.296
451.10	0.310
451.45	0.275
451.79	0.255
452.14	0.254
452.49	0.250
452.84	0.255
453.18	0.266
453.53	0.254
453.88	0.259
454.22	0.257
454.57	0.259
454.92	0.271
455.26	0.307
455.61	0.354
455.95	0.378
456.30	0.394
456.65	0.421
456.99	0.447
457.34	0.474
457.69	0.489
458.03	0.486
458.38	0.488
458.73	0.485
459.07	0.466
459.42	0.433
459.76	0.400
460.11	0.374
460.46	0.330
460.80	0.296
461.15	0.265
461.49	0.213
461.84	0.209
462.19	0.176
462.53	0.165
462.88	0.177
463.22	0.168
463.57	0.170
463.91	0.184
464.26	0.203
464.61	0.209
464.95	0.192
465.30	0.206
465.64	0.223
465.99	0.246
466.33	0.242
466.68	0.222
467.02	0.224
467.37	0.209
467.71	0.188
468.06	0.181
468.41	0.163
468.75	0.168
469.10	0.164
469.44	0.137
469.79	0.106
470.13	0.072
470.48	0.058
470.82	0.058
471.17	0.066
471.51	0.057
471.86	0.036
472.20	0.030
472.55	0.033
472.89	0.014
473.23	-0.006
473.58	0.001
473.92	0.004
474.27	0.010
474.61	-0.020
474.96	-0.018
475.30	-0.013
475.65	-0.019
475.99	-0.015
476.34	-0.025
476.68	-0.017
477.02	0.001
477.37	-0.004
477.71	0.033
478.06	0.067
478.40	0.135
478.75	0.200
479.09	0.286
479.43	0.370
479.78	0.442
480.12	0.509
480.47	0.574
480.81	0.625
481.15	0.678
481.50	0.729
481.84	0.774
482.19	0.820
482.53	0.849
482.87	0.865
483.22	0.866
483.56	0.857
483.90	0.833
484.25	0.801
484.59	0.777
484.94	0.754
485.28	0.722
485.62	0.688
485.97	0.646
486.31	0.613
486.65	0.581
487.00	0.560
487.34	0.551
487.68	0.543
488.03	0.542
488.37	0.530
488.71	0.519
489.06	0.506
489.40	0.502
489.74	0.488
490.09	0.477
490.43	0.461
490.77	0.441
491.11	0.407
491.46	0.391
491.80	0.366
492.14	0.335
492.49	0.313
492.83	0.283
493.17	0.242
493.51	0.220
493.86	0.195
494.20	0.188
494.54	0.180
494.88	0.205
495.23	0.220
495.57	0.237
495.91	0.276
496.25	0.295
496.60	0.319
496.94	0.337
497.28	0.348
497.62	0.371
497.97	0.375
498.31	0.401
498.65	0.404
498.99	0.420
499.33	0.457
499.68	0.482
500.02	0.518
500.36	0.536
500.70	0.579
501.04	0.616
501.39	0.651
501.73	0.709
502.07	0.772
502.41	0.843
502.75	0.913
503.09	0.967
503.44	1.040
503.78	1.113
504.12	1.196
504.46	1.281
504.80	1.386
505.14	1.488
505.49	1.579
505.83	1.663
506.17	1.753
506.51	1.854
506.85	1.959
507.19	2.056
507.53	2.155
507.87	2.278
508.22	2.386
508.56	2.484
508.90	2.590
509.24	2.713
509.58	2.832
509.92	2.960
510.26	3.079
510.60	3.216
510.94	3.346
511.28	3.487
511.63	3.634
511.97	3.809
512.31	3.994
512.65	4.174
512.99	4.374
513.33	4.609
513.67	4.839
514.01	5.098
514.35	5.339
514.69	5.582
515.03	5.808
515.37	6.042
515.71	6.258
516.05	6.470
516.39	6.685
516.73	6.874
517.07	7.050
517.41	7.222
517.75	7.385
518.09	7.553
518.43	7.728
518.77	7.918
519.11	8.094
519.45	8.264
519.79	8.466
520.13	8.690
520.47	8.931
520.81	9.169
521.15	9.451
521.49	9.714
521.83	9.984
522.17	10.241
522.51	10.504
522.85	10.791
523.19	11.121
523.53	11.458
523.87	11.810
524.21	12.154
524.55	12.477
524.89	12.764
525.23	13.044
525.57	13.285
525.91	13.520
526.25	13.737
526.58	13.942
526.92	14.122
527.26	14.248
527.60	14.345
527.94	14.447
528.28	14.543
528.62	14.624
528.96	14.699
529.30	14.785
529.64	14.862
529.97	14.943
530.31	15.014
530.65	15.087
530.99	15.222
531.33	15.346
531.67	15.437
532.01	15.531
532.35	15.621
532.68	15.711
533.02	15.769
533.36	15.834
533.70	15.887
534.04	15.942
534.38	15.996
534.71	16.025
535.05	16.072
535.39	16.126
535.73	16.170
536.07	16.237
536.41	16.287
536.74	16.388
537.08	16.450
537.42	16.550
537.76	16.666
538.10	16.756
538.43	16.867
538.77	16.974
539.11	17.072
539.45	17.149
539.79	17.211
540.12	17.278
540.46	17.318
540.80	17.360
541.14	17.364
541.47	17.340
541.81	17.344
542.15	17.323
542.49	17.297
542.82	17.272
543.16	17.260
543.50	17.258
543.84	17.230
544.17	17.194
544.51	17.213
544.85	17.226
545.18	17.260
545.52	17.276
545.86	17.277
546.20	17.282
546.53	17.305
546.87	17.316
547.21	17.295
547.54	17.298
547.88	17.310
548.22	17.296
548.55	17.284
548.89	17.296
549.23	17.295
549.56	17.313
549.90	17.341
550.24	17.317
550.57	17.317
550.91	17.305
551.25	17.332
551.58	17.344
551.92	17.336
552.26	17.341
552.59	17.324
552.93	17.327
553.27	17.304
553.60	17.264
553.94	17.231
554.27	17.179
554.61	17.159
554.95	17.100
555.28	17.043
555.62	16.966
555.95	16.917
556.29	16.846
556.63	16.751
556.96	16.696
557.30	16.629
557.63	16.544
557.97	16.486
558.31	16.397
558.64	16.308
558.98	16.249
559.31	16.197
559.65	16.104
559.98	15.998
560.32	15.910
560.65	15.815
560.99	15.705
561.33	15.635
561.66	15.536
562.00	15.434
562.33	15.322
562.67	15.208
563.00	15.096
563.34	14.987
563.67	14.896
564.01	14.776
564.34	14.665
564.68	14.560
565.01	14.440
565.35	14.320
565.68	14.210
566.02	14.068
566.35	13.934
566.69	13.782
567.02	13.648
567.36	13.506
567.69	13.393
568.03	13.258
568.36	13.096
568.69	12.941
569.03	12.821
569.36	12.687
569.70	12.543
570.03	12.434
570.37	12.344
570.70	12.218
571.04	12.101
571.37	11.938
571.70	11.810
572.04	11.698
572.37	11.596
572.71	11.463
573.04	11.333
573.37	11.258
573.71	11.134
574.04	10.990
574.38	10.855
574.71	10.743
575.04	10.652
575.38	10.548
575.71	10.447
576.05	10.330
576.38	10.230
576.71	10.111
577.05	9.992
577.38	9.855
577.71	9.736
578.05	9.640
578.38	9.516
578.71	9.413
579.05	9.287
579.38	9.184
579.71	9.094
580.05	8.981
580.38	8.906
580.71	8.803
581.05	8.736
581.38	8.680
581.71	8.603
582.05	8.540
582.38	8.475
582.71	8.407
583.04	8.351
583.38	8.287
583.71	8.252
584.04	8.206
584.38	8.170
584.71	8.118
585.04	8.074
585.37	8.045
585.71	8.010
586.04	7.987
586.37	7.986
586.70	7.957
587.04	7.922
587.37	7.860
587.70	7.822
588.03	7.782
588.37	7.766
588.70	7.749
589.03	7.712
589.36	7.679
589.69	7.623
590.03	7.564
590.36	7.501
590.69	7.427
591.02	7.394
591.35	7.335
591.69	7.321
592.02	7.273
592.35	7.213
592.68	7.196
593.01	7.142
593.35	7.134
593.68	7.133
594.01	7.110
594.34	7.093
594.67	7.085
595.00	7.074
595.34	7.009
595.67	6.947
596.00	6.907
596.33	6.839
596.66	6.811
596.99	6.734
597.32	6.666
597.65	6.614
597.99	6.565
598.32	6.475
598.65	6.394
598.98	6.352
599.31	6.335
599.64	6.319
599.97	6.277
600.30	6.230
600.63	6.198
600.96	6.170
601.30	6.143
601.63	6.137
601.96	6.136
602.29	6.135
602.62	6.120
602.95	6.075
603.28	6.012
603.61	5.963
603.94	5.909
604.27	5.886
604.60	5.812
604.93	5.748
605.26	5.669
605.59	5.604
605.92	5.534
606.25	5.458
606.58	5.407
606.91	5.316
607.24	5.272
607.57	5.211
607.90	5.137
608.23	5.071
608.56	4.990
608.89	4.924
609.22	4.837
609.55	4.729
609.88	4.644
610.21	4.523
610.54	4.433
610.87	4.305
611.20	4.197
611.53	4.093
611.86	3.998
612.19	3.900
612.52	3.794
612.85	3.718
613.18	3.668
613.51	3.559
613.84	3.484
614.17	3.433
614.49	3.412
614.82	3.342
615.15	3.282
615.48	3.248
615.81	3.190
616.14	3.150
616.47	3.070
616.80	2.993
617.13	2.947
617.46	2.892
617.78	2.824
618.11	2.770
618.44	2.711
618.77	2.632
619.10	2.535
619.43	2.502
619.76	2.453
620.09	2.454
620.41	2.416
620.74	2.402
621.07	2.413
621.40	2.404
621.73	2.384
622.06	2.390
622.38	2.396
622.71	2.444
623.04	2.485
623.37	2.487
623.70	2.507
624.02	2.560
624.35	2.596
624.68	2.576
625.01	2.590
625.34	2.601
625.66	2.613
625.99	2.636
626.32	2.628
626.65	2.628
626.98	2.617
627.30	2.580
627.63	2.520
627.96	2.446
628.29	2.429
628.61	2.394
628.94	2.349
629.27	2.334
629.60	2.255
629.92	2.222
630.25	2.147
630.58	2.111
630.91	2.086
631.23	2.056
631.56	2.067
631.89	2.012
632.21	1.990
632.54	1.958
632.87	1.905
633.19	1.900
633.52	1.830
633.85	1.789
634.18	1.737
634.50	1.643
634.83	1.578
635.16	1.478
635.48	1.380
635.81	1.285
636.14	1.159
636.46	1.061
636.79	0.972
637.11	0.895
637.44	0.763
637.77	0.679
638.09	0.586
638.42	0.500
638.75	0.404
639.07	0.377
639.40	0.305
639.73	0.268
640.05	0.199
640.38	0.138
640.70	0.051
641.03	0.019
641.36	-0.037
641.68	-0.069
642.01	-0.126
642.33	-0.164
642.66	-0.215
642.98	-0.255
643.31	-0.308
643.64	-0.341
643.96	-0.378
644.29	-0.372
644.61	-0.402
644.94	-0.427
645.26	-0.436
645.59	-0.427
645.91	-0.440
646.24	-0.449
646.56	-0.474
646.89	-0.455
647.22	-0.483
647.54	-0.518
647.87	-0.560
648.19	-0.593
648.52	-0.594
648.84	-0.631
649.17	-0.684
649.49	-0.712
649.82	-0.752
650.14	-0.756
650.47	-0.828
650.79	-0.803
651.11	-0.808
651.44	-0.818
651.76	-0.825
652.09	-0.835
652.41	-0.827
652.74	-0.826
653.06	-0.816
653.39	-0.802
653.71	-0.778
654.04	-0.785
654.36	-0.829
654.68	-0.831
655.01	-0.810
655.33	-0.790
655.66	-0.791
655.98	-0.796
656.30	-0.800
656.63	-0.809
656.95	-0.826
657.28	-0.869
657.60	-0.861
657.92	-0.882
658.25	-0.920
658.57	-0.940
658.90	-0.994
659.22	-1.049
659.54	-1.103
659.87	-1.167
660.19	-1.246
660.51	-1.336
660.84	-1.392
661.16	-1.478
661.48	-1.506
661.81	-1.566
662.13	-1.651
662.45	-1.698
662.78	-1.767
663.10	-1.770
663.42	-1.738
663.75	-1.688
664.07	-1.648
664.39	-1.658
664.72	-1.650
665.04	-1.628
665.36	-1.577
665.69	-1.523
666.01	-1.447
666.33	-1.368
666.65	-1.354
666.98	-1.314
667.30	-1.254
667.62	-1.184
667.94	-1.141
668.27	-1.054
668.59	-1.012
668.91	-0.931
669.23	-0.868
669.56	-0.791
669.88	-0.686
670.20	-0.621
670.52	-0.539
670.85	-0.535
671.17	-0.469
671.49	-0.339
671.81	-0.227
672.13	-0.131
672.46	-0.063
672.78	0.061
673.10	0.151
673.42	0.232
673.74	0.356
674.07	0.457
674.39	0.638
674.71	0.710
675.03	0.831
675.35	0.990
675.67	1.117
676.00	1.227
676.32	1.287
676.64	1.367
676.96	1.477
677.28	1.602
677.60	1.752
677.92	1.819
678.25	1.983
678.57	2.071
678.89	2.100
679.21	2.165
679.53	2.273
679.85	2.387
680.17	2.498
680.49	2.555
680.81	2.650
681.13	2.674
681.46	2.788
681.78	2.860
682.10	2.958
682.42	3.089
682.74	3.269
683.06	3.390
683.38	3.527
683.70	3.685
684.02	3.840
684.34	4.031
684.66	4.226
684.98	4.390
685.30	4.530
685.62	4.698
685.94	4.820
686.26	4.916
686.58	5.014
686.90	5.161
687.22	5.265
687.54	5.421
687.86	5.466
688.18	5.577
688.50	5.747
688.82	5.886
689.14	6.068
689.46	6.351
689.78	6.520
690.10	6.825
690.42	7.082
690.74	7.494
691.06	7.817
691.38	8.212
691.70	8.600
692.02	8.882
692.34	9.250
692.66	9.614
692.98	9.947
693.30	10.478
693.62	10.935
693.94	11.436
694.26	11.796
694.57	12.291
694.89	12.769
695.21	13.228
695.53	13.748
695.85	14.182
696.17	14.684
696.49	15.140
696.81	15.528
697.13	15.905
697.44	16.277
697.76	16.629
698.08	17.027
698.40	17.438
698.72	17.859
699.04	18.342
699.36	18.927
699.67	19.422
699.99	20.020
700.31	20.672
700.63	21.385
700.95	22.119
701.27	22.948
701.58	23.683
701.90	24.393
702.22	25.152
702.54	25.760
702.86	26.447
703.17	27.055
703.49	27.521
703.81	28.061
704.13	28.609
704.45	29.063
704.76	29.640
705.08	30.106
705.40	30.592
705.72	31.052
706.03	31.610
706.35	32.055
706.67	32.536
706.99	33.181
707.30	33.763
707.62	34.276
707.94	34.824
708.26	35.300
708.57	35.826
708.89	36.366
709.21	36.941
709.53	37.531
709.84	38.063
710.16	38.594
710.48	39.115
710.79	39.664
711.11	40.152
711.43	40.616
711.74	41.094
712.06	41.626
712.38	42.100
712.69	42.627
713.01	43.057
713.33	43.606
713.64	44.313
713.96	44.789
714.28	45.228
714.59	45.904
714.91	46.572
715.23	47.224
715.54	47.748
715.86	48.337
716.17	48.821
716.49	49.462
716.81	50.045
717.12	50.423
717.44	51.093
717.76	51.794
718.07	52.259
718.39	52.805
718.70	53.263
719.02	53.773
719.33	54.361
719.65	54.917
719.97	55.384
720.28	55.872
720.60	56.401
720.91	56.843
721.23	57.224
721.54	57.738
721.86	58.047
722.17	58.427
722.49	58.949
722.81	59.226
723.12	59.619
723.44	59.941
723.75	60.283
724.07	60.712
724.38	60.915
724.70	61.298
725.01	61.460
725.33	61.827
725.64	62.230
725.96	62.499
726.27	62.767
726.59	63.068
726.90	63.466
727.22	63.678
727.53	63.836
727.84	64.175
728.16	64.222
728.47	64.490
728.79	64.688
729.10	64.738
729.42	64.930
729.73	65.198
730.05	65.390
730.36	65.532
730.67	65.735
730.99	66.063
731.30	66.298
731.62	66.712
731.93	66.964
732.24	67.188
732.56	67.527
732.87	67.843
733.19	68.153
733.50	68.315
733.81	68.510
734.13	68.689
734.44	68.815
734.76	69.047
735.07	69.280
735.38	69.443
735.70	69.799
736.01	69.884
736.32	69.952
736.64	70.183
736.95	70.377
737.26	70.382
737.58	70.556
737.89	70.679
738.20	70.836
738.52	70.864
738.83	70.988
739.14	71.042
739.45	71.343
739.77	71.484
740.08	71.596
740.39	71.783
740.71	72.079
741.02	72.137
741.33	72.319
741.64	72.410
741.96	72.591
742.27	72.784
742.58	73.008
742.90	73.081
743.21	73.290
743.52	73.404
743.83	73.418
744.14	73.431
744.46	73.782
744.77	74.046
745.08	74.049
745.39	74.106
745.71	74.152
746.02	74.126
746.33	74.156
746.64	74.187
746.95	74.030
747.27	74.128
747.58	74.267
747.89	74.092
748.20	73.818
748.51	73.973
748.82	73.859
749.14	73.652
749.45	73.583
749.76	73.574
750.07	73.596
750.38	73.726
750.69	73.728
751.01	73.504
751.32	73.630
751.63	73.919
751.94	73.656
752.25	73.680
752.56	73.664
752.87	73.604
753.18	73.516
753.49	73.526
753.81	73.460
754.12	73.409
754.43	73.848
754.74	73.935
755.05	73.831
755.36	74.017
755.67	74.051
755.98	74.299
756.29	74.293
756.60	74.375
756.91	74.293
757.22	74.290
757.53	74.317
757.84	74.178
758.15	74.258
758.46	74.335
758.77	74.036
759.09	73.959
759.40	73.881
759.71	73.756
760.02	73.597
760.33	73.387
760.64	73.267
760.95	73.345
761.26	73.094
761.57	72.790
761.88	72.636
762.18	72.792
762.49	72.709
762.80	72.750
763.11	72.786
763.42	72.708
763.73	72.908
764.04	72.924
764.35	72.989
764.66	72.970
764.97	73.063
765.28	73.044
765.59	72.863
765.90	72.878
766.21	72.544
766.52	72.525
766.83	72.741
767.14	72.533
767.44	72.365
767.75	72.019
768.06	72.122
768.37	71.974
768.68	71.834
768.99	71.711
769.30	71.717
769.61	71.910
769.91	71.845
770.22	71.597
770.53	71.482
770.84	71.546
771.15	71.536
771.46	71.388
771.77	71.376
772.07	71.258
772.38	71.392
772.69	71.406
773.00	71.213
773.31	71.365
773.61	71.399
773.92	71.539
774.23	71.844
774.54	71.713
774.85	71.532
775.15	71.708
775.46	71.656
775.77	71.651
776.08	71.767
776.39	72.013
776.69	71.952
777.00	71.907
777.31	71.711
777.62	71.322
777.92	71.237
778.23	71.532
778.54	71.359
778.85	71.416
779.15	71.300
779.46	70.845
779.77	70.453
780.07	70.568
780.38	70.585
780.69	70.580
781.00	70.723
781.30	70.764
781.61	70.634
781.92	70.851
782.22	71.051
782.53	71.342
782.84	71.573
783.14	71.954
783.45	71.588
783.76	71.682
784.06	71.587
784.37	71.477
784.68	71.373
784.98	71.580
785.29	71.425
785.60	71.445
785.90	71.419
786.21	71.525
786.51	71.417
786.82	71.664
787.13	71.787
787.43	71.978
787.74	72.029
788.04	72.080
788.35	71.884
788.66	71.860
788.96	71.811
789.27	71.986
789.57	71.779
789.88	71.687
790.19	71.746
790.49	71.452
790.80	71.122
791.10	71.146
791.41	71.231
791.71	71.455
792.02	71.665
792.32	71.746
792.63	71.497
792.93	71.574
793.24	71.928
793.54	71.860
793.85	72.026
794.15	72.215
794.46	72.118
794.76	72.149
795.07	71.919
795.37	71.686
795.68	71.394
795.98	71.667
796.29	72.105
796.59	71.670
796.90	71.660
797.20	71.826
797.51	71.784
797.81	72.000
798.12	71.992
798.42	72.226
798.72	72.210
799.03	72.512
799.33	72.452
799.64	72.173
799.94	72.491
800.25	71.977
800.55	71.944
800.85	72.322
801.16	72.604
801.46	72.446
801.77	72.710
802.07	73.042
802.37	72.914
802.68	72.512
802.98	72.450
803.28	72.630
803.59	73.054
803.89	73.061
804.20	73.053
804.50	72.837
804.80	72.557
805.11	72.182
805.41	71.902
805.71	72.016
806.02	71.717
806.32	71.970
806.62	71.794
806.93	72.139
807.23	72.212
807.53	72.235
807.83	72.245
808.14	72.673
808.44	72.727
808.74	72.975
809.05	73.079
809.35	73.352
809.65	73.173
809.95	73.013
810.26	72.761
810.56	72.416
810.86	72.673
811.16	72.480
811.47	73.038
811.77	73.353
812.07	73.199
812.37	72.942
812.68	73.090
812.98	73.086
813.28	73.262
813.58	74.019
813.88	74.269
814.19	74.354
814.49	75.093
814.79	75.105
815.09	74.902
815.39	74.894
815.70	75.162
816.00	75.151
816.30	75.036
816.60	74.764
816.90	74.102
817.20	73.982
817.50	73.627
817.81	72.883
818.11	72.461
818.41	72.136
818.71	71.939
819.01	71.886
819.31	72.054
819.61	72.323
819.92	72.606
820.22	72.802
820.52	72.971
820.82	73.265
821.12	73.732
821.42	74.093
821.72	74.491
822.02	74.972
822.32	75.455
822.62	75.935
822.92	76.287
823.22	76.751
823.52	77.111
823.83	77.345
824.13	77.526
824.43	77.488
824.73	77.581
825.03	77.585
825.33	77.648
825.63	77.501
825.93	77.286
826.23	77.051
826.53	76.711
826.83	76.607
827.13	76.857
827.43	76.892
827.73	77.416
828.03	77.819
828.33	78.268
828.63	78.352
828.93	78.484
829.23	78.358
829.53	78.633
829.83	78.404
830.13	78.243
830.42	77.774
830.72	77.180
831.02	76.343
831.32	75.924
831.62	75.378
831.92	75.289
832.22	75.146
832.52	75.127
832.82	75.082
833.12	75.020
833.42	75.107
833.72	75.263
834.01	75.827
834.31	76.096
834.61	76.195
834.91	77.239
835.21	77.330
835.51	77.723
835.81	77.948
836.11	78.145
836.40	78.239
836.70	78.638
837.00	78.669
837.30	77.709
837.60	77.825
837.90	77.863
838.19	76.436
838.49	76.384
838.79	76.572
839.09	76.751
839.39	76.223
839.68	77.505
839.98	76.616
840.28	76.431
840.58	77.648
840.88	77.300
841.17	76.997
841.47	77.785
841.77	77.795
842.07	77.823
842.36	77.517
842.66	78.133
842.96	76.832
843.26	77.051
843.55	77.864
843.85	78.572
844.15	78.844
844.45	77.790
844.74	78.211
845.04	77.480
845.34	77.036
845.63	76.623
845.93	76.767
846.23	77.088
846.53	77.014
846.82	75.944
847.12	74.064
847.42	72.684
847.71	73.320
848.01	71.950
848.31	72.817
848.60	73.000
848.90	73.065
849.19	72.174
849.49	72.743
849.79	73.791
850.08	74.752
850.38	75.176
850.68	75.716
850.97	76.927
851.27	77.688
851.56	77.570
851.86	76.428
852.16	77.506
852.45	76.898
852.75	76.993
853.04	78.605
853.34	77.996
853.64	78.119
853.93	76.927
854.23	76.116
854.52	75.502
854.82	76.444
855.11	76.124
855.41	76.209
855.70	78.561
856.00	77.269
856.30	76.524
856.59	77.654
856.89	78.590
857.18	80.870
857.48	80.103
857.77	76.971
858.07	75.916
858.36	75.271
858.66	75.820
858.95	73.287
859.25	74.012
859.54	71.923
859.84	72.181
860.13	70.147
860.42	69.833
860.72	70.821
861.01	74.569
861.31	74.991
861.60	77.526
861.90	76.873
862.19	79.570
862.49	78.845
862.78	79.228
863.07	78.571
863.37	79.894
863.66	79.028
863.96	81.450
864.25	81.461
864.54	82.645
864.84	82.498
865.13	82.150
865.43	81.266
865.72	89.829
866.01	92.371
866.31	91.741
866.60	71.885
866.89	77.759
>>>>>End Spectral Data<<<<<
