OOIBase32 Version 2.0.0.6 Data File
++++++++++++++++++++++++++++++++++++
Date: 01-23-2012, 23:18:30
User: Valued Ocean Optics Customer
Spectrometer Serial Number: USB2E2917
Spectrometer Channel: Master
Integration Time (msec): 5
Spectra Averaged: 10
Boxcar Smoothing: 5
Correct for Electrical Dark: Enabled
Time Normalized: Disabled
Dual-beam Reference: Disabled
Reference Channel: Master
Temperature: Not acquired
Spectrometer Type: S2000
ADC Type: USB2000
Number of Pixels in File: 2048
Graph Title: 
>>>>>Begin Spectral Data<<<<<
180.30	0.000
180.67	0.000
181.03	-61.498
181.40	374.083
181.77	-8383.639
182.14	44.424
182.51	177.140
182.88	165.359
183.25	46.327
183.62	145.111
183.99	129.917
184.36	72.374
184.73	111.946
185.10	23.645
185.46	335.009
185.83	48.590
186.20	1040.373
186.57	50.538
186.94	49.349
187.31	56.148
187.68	14.720
188.05	104.422
188.42	150.269
188.78	280.695
189.15	835.550
189.52	-192.768
189.89	-86.262
190.26	-63.462
190.63	-25.002
191.00	3.511
191.37	3.701
191.73	24.376
192.10	18.447
192.47	15.585
192.84	14.171
193.21	23.055
193.58	11.916
193.94	7.199
194.31	7.043
194.68	11.092
195.05	-4.989
195.42	-8.822
195.79	-21.397
196.15	-5.657
196.52	-6.159
196.89	-9.950
197.26	-22.697
197.63	3.842
198.00	24.507
198.36	18.605
198.73	-0.315
199.10	8.844
199.47	33.469
199.84	45.795
200.20	26.268
200.57	19.080
200.94	19.644
201.31	37.176
201.68	28.030
202.04	26.243
202.41	18.583
202.78	10.892
203.15	16.106
203.51	6.709
203.88	-14.243
204.25	-31.397
204.62	-42.052
204.98	-44.119
205.35	-68.011
205.72	-66.439
206.09	-53.052
206.46	-93.304
206.82	-80.377
207.19	-79.615
207.56	-123.600
207.92	-73.463
208.29	-51.823
208.66	-12.580
209.03	-14.387
209.39	1.314
209.76	4.340
210.13	-41.243
210.50	-16.084
210.86	5.503
211.23	15.663
211.60	10.197
211.96	1.582
212.33	-3.543
212.70	-17.558
213.07	-20.893
213.43	-53.725
213.80	-71.692
214.17	-33.522
214.53	-19.269
214.90	-18.890
215.27	-19.264
215.63	-15.568
216.00	-22.691
216.37	-13.357
216.74	-12.101
217.10	-4.912
217.47	-3.156
217.84	5.164
218.20	4.545
218.57	-2.162
218.94	-5.374
219.30	-11.790
219.67	-18.819
220.04	-11.586
220.40	-21.123
220.77	-28.348
221.13	-24.681
221.50	-15.946
221.87	-17.480
222.23	-24.650
222.60	-29.411
222.97	-29.213
223.33	-24.431
223.70	-20.517
224.07	-21.472
224.43	-18.563
224.80	-14.026
225.16	-15.634
225.53	-16.135
225.90	-17.573
226.26	-12.925
226.63	-8.733
226.99	-6.165
227.36	-4.469
227.73	-0.630
228.09	-0.679
228.46	0.756
228.82	1.817
229.19	2.229
229.56	1.069
229.92	3.432
230.29	4.343
230.65	3.514
231.02	1.459
231.38	-0.930
231.75	-4.912
232.12	-4.305
232.48	-6.022
232.85	-6.029
233.21	-5.325
233.58	-4.783
233.94	-4.832
234.31	-5.296
234.68	-5.129
235.04	-3.835
235.41	-1.462
235.77	1.068
236.14	1.757
236.50	3.405
236.87	2.476
237.23	2.143
237.60	2.598
237.96	2.088
238.33	0.973
238.69	0.431
239.06	0.445
239.42	0.288
239.79	-1.242
240.15	-1.799
240.52	-1.855
240.88	-1.343
241.25	-1.614
241.61	-1.420
241.98	-1.290
242.34	-1.098
242.71	-0.511
243.07	-0.291
243.44	-0.548
243.80	-0.327
244.17	-0.303
244.53	-0.639
244.90	-0.712
245.26	-0.538
245.63	-0.636
245.99	-0.790
246.36	-0.668
246.72	-0.474
247.09	-1.009
247.45	-0.873
247.81	-0.534
248.18	-0.613
248.54	-0.234
248.91	-0.289
249.27	-0.102
249.64	0.337
250.00	0.672
250.36	0.628
250.73	0.018
251.09	0.635
251.46	0.610
251.82	0.232
252.19	0.492
252.55	0.165
252.91	0.461
253.28	0.432
253.64	-0.296
254.01	-0.142
254.37	0.215
254.73	0.884
255.10	0.816
255.46	1.113
255.83	1.063
256.19	1.031
256.55	1.010
256.92	0.968
257.28	0.857
257.65	1.048
258.01	0.998
258.37	0.913
258.74	0.543
259.10	0.593
259.46	0.343
259.83	0.297
260.19	0.303
260.55	0.222
260.92	0.021
261.28	-0.020
261.64	-0.072
262.01	-0.037
262.37	-0.294
262.73	-0.008
263.10	0.045
263.46	0.347
263.82	0.174
264.19	-0.215
264.55	-0.553
264.91	-0.655
265.28	-0.772
265.64	-0.984
266.00	-1.164
266.37	-1.103
266.73	-1.292
267.09	-1.428
267.46	-1.754
267.82	-1.644
268.18	-1.279
268.54	-0.782
268.91	-0.675
269.27	-0.541
269.63	-0.173
270.00	-0.030
270.36	0.103
270.72	0.366
271.08	0.469
271.45	0.385
271.81	0.512
272.17	0.513
272.53	0.416
272.90	0.534
273.26	0.628
273.62	0.309
273.98	0.134
274.35	0.132
274.71	-0.067
275.07	-0.097
275.43	0.242
275.80	0.200
276.16	0.075
276.52	-0.020
276.88	-0.054
277.25	-0.375
277.61	-0.392
277.97	-0.525
278.33	-0.526
278.69	-0.620
279.06	-0.606
279.42	-0.691
279.78	-0.548
280.14	-0.415
280.50	-0.433
280.87	-0.486
281.23	-0.367
281.59	-0.182
281.95	-0.117
282.31	0.014
282.68	-0.129
283.04	-0.287
283.40	-0.261
283.76	-0.300
284.12	-0.260
284.48	-0.095
284.85	-0.084
285.21	-0.045
285.57	-0.216
285.93	-0.112
286.29	-0.475
286.65	-0.371
287.02	-0.102
287.38	0.004
287.74	-0.045
288.10	-0.100
288.46	-0.282
288.82	-0.358
289.18	-0.279
289.54	-0.177
289.91	-0.194
290.27	0.106
290.63	0.400
290.99	0.250
291.35	0.121
291.71	0.250
292.07	0.241
292.43	0.355
292.79	0.369
293.16	0.278
293.52	0.349
293.88	0.429
294.24	0.403
294.60	0.373
294.96	0.351
295.32	0.362
295.68	0.307
296.04	0.331
296.40	0.360
296.76	0.431
297.12	0.378
297.49	0.248
297.85	0.103
298.21	-0.050
298.57	-0.281
298.93	-0.177
299.29	-0.320
299.65	-0.357
300.01	-0.461
300.37	-0.449
300.73	-0.397
301.09	-0.382
301.45	-0.352
301.81	-0.256
302.17	-0.143
302.53	-0.362
302.89	-0.574
303.25	-0.421
303.61	-0.426
303.97	-0.497
304.33	-0.562
304.69	-0.668
305.05	-0.523
305.41	-0.489
305.77	-0.458
306.13	-0.480
306.49	-0.283
306.85	-0.086
307.21	-0.061
307.57	0.093
307.93	0.186
308.29	0.332
308.65	0.385
309.01	0.260
309.37	0.292
309.73	0.259
310.09	0.418
310.45	0.571
310.81	0.532
311.17	0.403
311.53	0.222
311.89	0.314
312.25	0.175
312.61	0.182
312.96	0.267
313.32	0.300
313.68	0.306
314.04	0.171
314.40	0.037
314.76	-0.023
315.12	0.128
315.48	0.301
315.84	0.173
316.20	0.280
316.56	0.250
316.92	0.235
317.27	0.140
317.63	0.201
317.99	0.081
318.35	0.073
318.71	0.150
319.07	0.209
319.43	0.110
319.79	0.218
320.15	0.157
320.50	0.093
320.86	-0.013
321.22	0.020
321.58	-0.147
321.94	-0.101
322.30	-0.115
322.66	-0.115
323.01	-0.317
323.37	-0.336
323.73	-0.343
324.09	-0.380
324.45	-0.247
324.81	-0.189
325.17	-0.128
325.52	-0.093
325.88	-0.054
326.24	0.008
326.60	-0.091
326.96	0.045
327.31	0.031
327.67	-0.105
328.03	-0.092
328.39	-0.201
328.75	-0.157
329.11	-0.077
329.46	0.031
329.82	0.071
330.18	0.067
330.54	0.133
330.90	0.030
331.25	0.095
331.61	0.260
331.97	0.236
332.33	0.250
332.68	0.221
333.04	0.122
333.40	-0.027
333.76	-0.142
334.11	-0.175
334.47	-0.144
334.83	-0.159
335.19	-0.260
335.54	-0.381
335.90	-0.430
336.26	-0.360
336.62	-0.385
336.97	-0.496
337.33	-0.433
337.69	-0.340
338.05	-0.333
338.40	-0.437
338.76	-0.347
339.12	-0.225
339.48	-0.200
339.83	-0.147
340.19	-0.126
340.55	-0.024
340.90	0.012
341.26	0.027
341.62	-0.030
341.97	-0.043
342.33	-0.005
342.69	-0.006
343.04	-0.106
343.40	-0.142
343.76	-0.172
344.12	-0.217
344.47	-0.257
344.83	-0.167
345.19	-0.134
345.54	-0.123
345.90	-0.125
346.26	-0.087
346.61	-0.082
346.97	-0.056
347.32	-0.031
347.68	-0.074
348.04	-0.144
348.39	-0.201
348.75	-0.252
349.11	-0.255
349.46	-0.234
349.82	-0.172
350.18	-0.221
350.53	-0.225
350.89	-0.252
351.24	-0.284
351.60	-0.235
351.96	-0.098
352.31	-0.089
352.67	-0.051
353.02	-0.084
353.38	-0.091
353.74	-0.079
354.09	-0.089
354.45	-0.097
354.80	-0.064
355.16	0.022
355.52	0.072
355.87	-0.064
356.23	-0.033
356.58	-0.075
356.94	-0.074
357.29	-0.045
357.65	-0.102
358.00	-0.067
358.36	-0.076
358.72	-0.118
359.07	-0.139
359.43	-0.158
359.78	-0.063
360.14	-0.118
360.49	-0.120
360.85	-0.089
361.20	-0.126
361.56	-0.127
361.91	-0.109
362.27	-0.092
362.62	-0.050
362.98	-0.028
363.33	-0.082
363.69	-0.134
364.04	-0.087
364.40	-0.111
364.75	-0.157
365.11	-0.173
365.46	-0.193
365.82	-0.182
366.17	-0.199
366.53	-0.208
366.88	-0.215
367.24	-0.198
367.59	-0.193
367.95	-0.195
368.30	-0.214
368.66	-0.178
369.01	-0.180
369.37	-0.131
369.72	-0.133
370.08	-0.111
370.43	-0.111
370.78	-0.114
371.14	-0.128
371.49	-0.111
371.85	-0.071
372.20	-0.050
372.56	-0.063
372.91	-0.040
373.26	-0.078
373.62	-0.134
373.97	-0.121
374.33	-0.106
374.68	-0.118
375.03	-0.032
375.39	-0.110
375.74	-0.156
376.10	-0.093
376.45	-0.079
376.80	-0.053
377.16	-0.050
377.51	-0.003
377.87	0.027
378.22	-0.011
378.57	-0.039
378.93	-0.066
379.28	0.017
379.63	0.024
379.99	0.007
380.34	0.007
380.70	-0.000
381.05	0.023
381.40	0.003
381.76	-0.022
382.11	0.029
382.46	0.057
382.82	0.050
383.17	0.036
383.52	0.044
383.88	0.026
384.23	0.027
384.58	0.040
384.94	0.033
385.29	0.061
385.64	0.061
385.99	0.099
386.35	0.122
386.70	0.138
387.05	0.099
387.41	0.108
387.76	0.090
388.11	0.092
388.47	0.083
388.82	0.106
389.17	0.100
389.52	0.102
389.88	0.080
390.23	0.076
390.58	0.091
390.93	0.150
391.29	0.161
391.64	0.212
391.99	0.277
392.34	0.299
392.70	0.288
393.05	0.272
393.40	0.279
393.75	0.284
394.11	0.306
394.46	0.296
394.81	0.282
395.16	0.253
395.52	0.257
395.87	0.201
396.22	0.203
396.57	0.174
396.92	0.185
397.28	0.172
397.63	0.140
397.98	0.093
398.33	0.087
398.68	0.089
399.04	0.105
399.39	0.076
399.74	0.071
400.09	0.079
400.44	0.107
400.80	0.112
401.15	0.118
401.50	0.151
401.85	0.196
402.20	0.215
402.55	0.245
402.90	0.227
403.26	0.241
403.61	0.243
403.96	0.242
404.31	0.268
404.66	0.295
405.01	0.289
405.36	0.276
405.72	0.273
406.07	0.269
406.42	0.226
406.77	0.241
407.12	0.251
407.47	0.261
407.82	0.254
408.17	0.241
408.53	0.225
408.88	0.216
409.23	0.209
409.58	0.149
409.93	0.141
410.28	0.158
410.63	0.141
410.98	0.144
411.33	0.147
411.68	0.160
412.03	0.191
412.38	0.179
412.73	0.208
413.09	0.235
413.44	0.303
413.79	0.331
414.14	0.370
414.49	0.426
414.84	0.443
415.19	0.476
415.54	0.511
415.89	0.507
416.24	0.565
416.59	0.596
416.94	0.628
417.29	0.663
417.64	0.666
417.99	0.688
418.34	0.703
418.69	0.718
419.04	0.720
419.39	0.720
419.74	0.726
420.09	0.723
420.44	0.735
420.79	0.737
421.14	0.716
421.49	0.741
421.84	0.733
422.19	0.731
422.54	0.724
422.89	0.728
423.24	0.722
423.59	0.718
423.94	0.713
424.29	0.691
424.64	0.680
424.99	0.674
425.34	0.632
425.68	0.613
426.03	0.575
426.38	0.571
426.73	0.546
427.08	0.527
427.43	0.540
427.78	0.523
428.13	0.511
428.48	0.509
428.83	0.512
429.18	0.523
429.53	0.531
429.87	0.538
430.22	0.527
430.57	0.547
430.92	0.550
431.27	0.551
431.62	0.553
431.97	0.559
432.32	0.546
432.67	0.540
433.01	0.533
433.36	0.520
433.71	0.510
434.06	0.512
434.41	0.490
434.76	0.502
435.11	0.502
435.45	0.503
435.80	0.496
436.15	0.515
436.50	0.532
436.85	0.550
437.20	0.549
437.54	0.557
437.89	0.558
438.24	0.574
438.59	0.566
438.94	0.559
439.29	0.552
439.63	0.556
439.98	0.539
440.33	0.525
440.68	0.528
441.03	0.540
441.37	0.562
441.72	0.568
442.07	0.576
442.42	0.583
442.76	0.608
443.11	0.616
443.46	0.637
443.81	0.650
444.16	0.671
444.50	0.670
444.85	0.669
445.20	0.663
445.55	0.663
445.89	0.652
446.24	0.643
446.59	0.609
446.94	0.601
447.28	0.574
447.63	0.549
447.98	0.518
448.32	0.487
448.67	0.463
449.02	0.436
449.37	0.415
449.71	0.406
450.06	0.397
450.41	0.410
450.75	0.402
451.10	0.414
451.45	0.409
451.79	0.396
452.14	0.395
452.49	0.398
452.84	0.397
453.18	0.384
453.53	0.364
453.88	0.358
454.22	0.355
454.57	0.382
454.92	0.389
455.26	0.416
455.61	0.456
455.95	0.486
456.30	0.499
456.65	0.527
456.99	0.555
457.34	0.586
457.69	0.611
458.03	0.622
458.38	0.623
458.73	0.617
459.07	0.603
459.42	0.574
459.76	0.542
460.11	0.517
460.46	0.481
460.80	0.453
461.15	0.414
461.49	0.376
461.84	0.348
462.19	0.322
462.53	0.302
462.88	0.304
463.22	0.301
463.57	0.310
463.91	0.310
464.26	0.325
464.61	0.338
464.95	0.334
465.30	0.330
465.64	0.348
465.99	0.354
466.33	0.372
466.68	0.362
467.02	0.370
467.37	0.363
467.71	0.357
468.06	0.345
468.41	0.320
468.75	0.311
469.10	0.320
469.44	0.279
469.79	0.247
470.13	0.192
470.48	0.185
470.82	0.158
471.17	0.158
471.51	0.151
471.86	0.139
472.20	0.151
472.55	0.158
472.89	0.137
473.23	0.135
473.58	0.135
473.92	0.156
474.27	0.152
474.61	0.145
474.96	0.141
475.30	0.146
475.65	0.133
475.99	0.117
476.34	0.110
476.68	0.116
477.02	0.128
477.37	0.127
477.71	0.158
478.06	0.178
478.40	0.256
478.75	0.326
479.09	0.407
479.43	0.506
479.78	0.584
480.12	0.660
480.47	0.727
480.81	0.789
481.15	0.851
481.50	0.905
481.84	0.963
482.19	1.008
482.53	1.045
482.87	1.069
483.22	1.067
483.56	1.059
483.90	1.031
484.25	1.003
484.59	0.968
484.94	0.939
485.28	0.905
485.62	0.862
485.97	0.806
486.31	0.767
486.65	0.734
487.00	0.714
487.34	0.698
487.68	0.690
488.03	0.675
488.37	0.668
488.71	0.656
489.06	0.637
489.40	0.632
489.74	0.626
490.09	0.613
490.43	0.597
490.77	0.567
491.11	0.531
491.46	0.503
491.80	0.480
492.14	0.443
492.49	0.409
492.83	0.366
493.17	0.314
493.51	0.274
493.86	0.232
494.20	0.196
494.54	0.178
494.88	0.188
495.23	0.205
495.57	0.221
495.91	0.245
496.25	0.269
496.60	0.282
496.94	0.295
497.28	0.301
497.62	0.303
497.97	0.306
498.31	0.315
498.65	0.324
498.99	0.317
499.33	0.322
499.68	0.312
500.02	0.314
500.36	0.317
500.70	0.342
501.04	0.344
501.39	0.358
501.73	0.380
502.07	0.422
502.41	0.431
502.75	0.469
503.09	0.489
503.44	0.531
503.78	0.561
504.12	0.602
504.46	0.634
504.80	0.699
505.14	0.757
505.49	0.804
505.83	0.827
506.17	0.883
506.51	0.919
506.85	0.974
507.19	1.017
507.53	1.060
507.87	1.113
508.22	1.153
508.56	1.187
508.90	1.217
509.24	1.258
509.58	1.313
509.92	1.351
510.26	1.401
510.60	1.444
510.94	1.480
511.28	1.521
511.63	1.575
511.97	1.636
512.31	1.691
512.65	1.762
512.99	1.839
513.33	1.940
513.67	2.035
514.01	2.142
514.35	2.244
514.69	2.373
515.03	2.496
515.37	2.613
515.71	2.727
516.05	2.841
516.39	2.941
516.73	3.042
517.07	3.117
517.41	3.186
517.75	3.267
518.09	3.336
518.43	3.395
518.77	3.443
519.11	3.498
519.45	3.554
519.79	3.637
520.13	3.721
520.47	3.818
520.81	3.927
521.15	4.059
521.49	4.175
521.83	4.315
522.17	4.454
522.51	4.626
522.85	4.806
523.19	5.008
523.53	5.209
523.87	5.430
524.21	5.629
524.55	5.822
524.89	6.002
525.23	6.162
525.57	6.305
525.91	6.444
526.25	6.563
526.58	6.676
526.92	6.764
527.26	6.846
527.60	6.897
527.94	6.952
528.28	6.997
528.62	7.033
528.96	7.067
529.30	7.094
529.64	7.117
529.97	7.149
530.31	7.166
530.65	7.204
530.99	7.224
531.33	7.277
531.67	7.311
532.01	7.340
532.35	7.367
532.68	7.395
533.02	7.418
533.36	7.443
533.70	7.446
534.04	7.454
534.38	7.456
534.71	7.475
535.05	7.473
535.39	7.483
535.73	7.498
536.07	7.525
536.41	7.563
536.74	7.606
537.08	7.647
537.42	7.722
537.76	7.782
538.10	7.843
538.43	7.907
538.77	7.962
539.11	8.020
539.45	8.069
539.79	8.113
540.12	8.153
540.46	8.174
540.80	8.191
541.14	8.177
541.47	8.165
541.81	8.157
542.15	8.130
542.49	8.110
542.82	8.075
543.16	8.052
543.50	8.018
543.84	7.976
544.17	7.949
544.51	7.932
544.85	7.918
545.18	7.937
545.52	7.916
545.86	7.909
546.20	7.898
546.53	7.887
546.87	7.851
547.21	7.830
547.54	7.809
547.88	7.785
548.22	7.754
548.55	7.747
548.89	7.712
549.23	7.712
549.56	7.711
549.90	7.716
550.24	7.712
550.57	7.712
550.91	7.698
551.25	7.692
551.58	7.697
551.92	7.684
552.26	7.664
552.59	7.642
552.93	7.613
553.27	7.587
553.60	7.545
553.94	7.503
554.27	7.484
554.61	7.462
554.95	7.424
555.28	7.383
555.62	7.345
555.95	7.323
556.29	7.290
556.63	7.253
556.96	7.203
557.30	7.172
557.63	7.139
557.97	7.089
558.31	7.040
558.64	6.993
558.98	6.956
559.31	6.942
559.65	6.878
559.98	6.823
560.32	6.775
560.65	6.723
560.99	6.666
561.33	6.624
561.66	6.571
562.00	6.530
562.33	6.479
562.67	6.428
563.00	6.358
563.34	6.310
563.67	6.257
564.01	6.203
564.34	6.156
564.68	6.109
565.01	6.049
565.35	6.012
565.68	5.931
566.02	5.853
566.35	5.776
566.69	5.683
567.02	5.629
567.36	5.550
567.69	5.481
568.03	5.407
568.36	5.317
568.69	5.232
569.03	5.157
569.36	5.101
569.70	5.045
570.03	5.002
570.37	4.969
570.70	4.908
571.04	4.860
571.37	4.800
571.70	4.733
572.04	4.677
572.37	4.623
572.71	4.546
573.04	4.490
573.37	4.424
573.71	4.347
574.04	4.276
574.38	4.189
574.71	4.111
575.04	4.051
575.38	3.986
575.71	3.909
576.05	3.840
576.38	3.789
576.71	3.711
577.05	3.662
577.38	3.590
577.71	3.496
578.05	3.438
578.38	3.375
578.71	3.299
579.05	3.255
579.38	3.214
579.71	3.158
580.05	3.086
580.38	3.033
580.71	2.977
581.05	2.949
581.38	2.908
581.71	2.878
582.05	2.856
582.38	2.827
582.71	2.776
583.04	2.751
583.38	2.718
583.71	2.702
584.04	2.684
584.38	2.662
584.71	2.637
585.04	2.670
585.37	2.662
585.71	2.648
586.04	2.634
586.37	2.660
586.70	2.672
587.04	2.679
587.37	2.688
587.70	2.680
588.03	2.677
588.37	2.677
588.70	2.644
589.03	2.611
589.36	2.594
589.69	2.562
590.03	2.511
590.36	2.453
590.69	2.409
591.02	2.360
591.35	2.333
591.69	2.325
592.02	2.295
592.35	2.290
592.68	2.286
593.01	2.264
593.35	2.272
593.68	2.293
594.01	2.308
594.34	2.293
594.67	2.296
595.00	2.284
595.34	2.252
595.67	2.217
596.00	2.180
596.33	2.141
596.66	2.112
596.99	2.053
597.32	1.988
597.65	1.932
597.99	1.887
598.32	1.826
598.65	1.788
598.98	1.736
599.31	1.709
599.64	1.708
599.97	1.719
600.30	1.732
600.63	1.752
600.96	1.755
601.30	1.767
601.63	1.800
601.96	1.800
602.29	1.796
602.62	1.790
602.95	1.788
603.28	1.773
603.61	1.727
603.94	1.679
604.27	1.638
604.60	1.586
604.93	1.558
605.26	1.502
605.59	1.485
605.92	1.459
606.25	1.438
606.58	1.408
606.91	1.350
607.24	1.321
607.57	1.305
607.90	1.275
608.23	1.243
608.56	1.186
608.89	1.134
609.22	1.089
609.55	1.019
609.88	0.948
610.21	0.881
610.54	0.824
610.87	0.767
611.20	0.682
611.53	0.622
611.86	0.577
612.19	0.507
612.52	0.450
612.85	0.388
613.18	0.370
613.51	0.318
613.84	0.261
614.17	0.198
614.49	0.177
614.82	0.126
615.15	0.095
615.48	0.068
615.81	0.054
616.14	0.057
616.47	0.028
616.80	-0.035
617.13	-0.039
617.46	-0.036
617.78	-0.044
618.11	-0.081
618.44	-0.082
618.77	-0.113
619.10	-0.147
619.43	-0.183
619.76	-0.223
620.09	-0.226
620.41	-0.220
620.74	-0.222
621.07	-0.204
621.40	-0.188
621.73	-0.185
622.06	-0.194
622.38	-0.190
622.71	-0.173
623.04	-0.150
623.37	-0.114
623.70	-0.108
624.02	-0.073
624.35	-0.034
624.68	-0.019
625.01	-0.000
625.34	0.032
625.66	0.073
625.99	0.116
626.32	0.124
626.65	0.132
626.98	0.127
627.30	0.139
627.63	0.110
627.96	0.046
628.29	-0.018
628.61	-0.065
628.94	-0.118
629.27	-0.157
629.60	-0.250
629.92	-0.266
630.25	-0.327
630.58	-0.370
630.91	-0.412
631.23	-0.451
631.56	-0.451
631.89	-0.486
632.21	-0.496
632.54	-0.503
632.87	-0.534
633.19	-0.539
633.52	-0.596
633.85	-0.576
634.18	-0.631
634.50	-0.700
634.83	-0.715
635.16	-0.765
635.48	-0.787
635.81	-0.855
636.14	-0.946
636.46	-1.016
636.79	-1.048
637.11	-1.081
637.44	-1.170
637.77	-1.190
638.09	-1.234
638.42	-1.310
638.75	-1.327
639.07	-1.331
639.40	-1.335
639.73	-1.335
640.05	-1.356
640.38	-1.356
640.70	-1.416
641.03	-1.410
641.36	-1.416
641.68	-1.404
642.01	-1.401
642.33	-1.446
642.66	-1.479
642.98	-1.518
643.31	-1.532
643.64	-1.520
643.96	-1.540
644.29	-1.523
644.61	-1.508
644.94	-1.525
645.26	-1.496
645.59	-1.477
645.91	-1.420
646.24	-1.383
646.56	-1.351
646.89	-1.314
647.22	-1.291
647.54	-1.285
647.87	-1.237
648.19	-1.272
648.52	-1.250
648.84	-1.251
649.17	-1.252
649.49	-1.289
649.82	-1.319
650.14	-1.315
650.47	-1.349
650.79	-1.348
651.11	-1.341
651.44	-1.363
651.76	-1.382
652.09	-1.348
652.41	-1.337
652.74	-1.316
653.06	-1.302
653.39	-1.272
653.71	-1.240
654.04	-1.234
654.36	-1.217
654.68	-1.182
655.01	-1.130
655.33	-1.052
655.66	-1.066
655.98	-1.037
656.30	-1.046
656.63	-1.011
656.95	-0.972
657.28	-0.962
657.60	-0.951
657.92	-0.972
658.25	-0.992
658.57	-0.973
658.90	-1.012
659.22	-1.032
659.54	-1.050
659.87	-1.042
660.19	-1.094
660.51	-1.184
660.84	-1.249
661.16	-1.274
661.48	-1.272
661.81	-1.285
662.13	-1.362
662.45	-1.342
662.78	-1.317
663.10	-1.276
663.42	-1.270
663.75	-1.229
664.07	-1.204
664.39	-1.187
664.72	-1.159
665.04	-1.129
665.36	-1.072
665.69	-1.030
666.01	-0.948
666.33	-0.891
666.65	-0.901
666.98	-0.828
667.30	-0.723
667.62	-0.603
667.94	-0.518
668.27	-0.403
668.59	-0.327
668.91	-0.217
669.23	-0.100
669.56	-0.046
669.88	0.077
670.20	0.181
670.52	0.247
670.85	0.289
671.17	0.402
671.49	0.518
671.81	0.648
672.13	0.756
672.46	0.864
672.78	0.961
673.10	1.088
673.42	1.213
673.74	1.359
674.07	1.485
674.39	1.651
674.71	1.786
675.03	1.969
675.35	2.087
675.67	2.211
676.00	2.325
676.32	2.444
676.64	2.561
676.96	2.671
677.28	2.796
677.60	2.948
677.92	3.066
678.25	3.166
678.57	3.265
678.89	3.344
679.21	3.458
679.53	3.540
679.85	3.688
680.17	3.799
680.49	3.861
680.81	3.978
681.13	4.088
681.46	4.178
681.78	4.305
682.10	4.455
682.42	4.600
682.74	4.726
683.06	4.855
683.38	4.959
683.70	5.110
684.02	5.239
684.34	5.362
684.66	5.463
684.98	5.564
685.30	5.616
685.62	5.631
685.94	5.674
686.26	5.686
686.58	5.696
686.90	5.707
687.22	5.693
687.54	5.695
687.86	5.667
688.18	5.608
688.50	5.628
688.82	5.564
689.14	5.554
689.46	5.557
689.78	5.618
690.10	5.661
690.42	5.631
690.74	5.673
691.06	5.680
691.38	5.693
691.70	5.819
692.02	5.847
692.34	6.038
692.66	6.139
692.98	6.221
693.30	6.384
693.62	6.524
693.94	6.717
694.26	6.838
694.57	7.015
694.89	7.233
695.21	7.387
695.53	7.573
695.85	7.680
696.17	7.863
696.49	8.066
696.81	8.213
697.13	8.372
697.44	8.542
697.76	8.767
698.08	9.032
698.40	9.258
698.72	9.529
699.04	9.786
699.36	10.135
699.67	10.441
699.99	10.742
700.31	11.097
700.63	11.467
700.95	11.971
701.27	12.299
701.58	12.648
701.90	13.033
702.22	13.420
702.54	13.805
702.86	14.143
703.17	14.524
703.49	14.889
703.81	15.281
704.13	15.668
704.45	15.922
704.76	16.468
705.08	16.897
705.40	17.248
705.72	17.628
706.03	18.076
706.35	18.508
706.67	18.898
706.99	19.376
707.30	19.753
707.62	20.189
707.94	20.693
708.26	20.973
708.57	21.378
708.89	21.826
709.21	22.224
709.53	22.550
709.84	22.990
710.16	23.502
710.48	24.031
710.79	24.559
711.11	25.016
711.43	25.304
711.74	25.837
712.06	26.276
712.38	26.803
712.69	27.299
713.01	27.831
713.33	28.326
713.64	28.854
713.96	29.202
714.28	29.692
714.59	30.304
714.91	30.971
715.23	31.490
715.54	32.054
715.86	32.514
716.17	33.109
716.49	33.706
716.81	34.216
717.12	34.711
717.44	35.289
717.76	35.863
718.07	36.191
718.39	36.704
718.70	37.168
719.02	37.713
719.33	38.341
719.65	38.769
719.97	39.338
720.28	39.899
720.60	40.438
720.91	41.052
721.23	41.518
721.54	42.210
721.86	42.697
722.17	43.282
722.49	43.737
722.81	44.123
723.12	44.661
723.44	45.005
723.75	45.438
724.07	45.814
724.38	46.217
724.70	46.594
725.01	46.891
725.33	47.310
725.64	47.728
725.96	48.057
726.27	48.415
726.59	48.759
726.90	49.129
727.22	49.399
727.53	49.832
727.84	50.101
728.16	50.497
728.47	50.855
728.79	51.252
729.10	51.501
729.42	51.817
729.73	52.121
730.05	52.512
730.36	52.811
730.67	53.101
730.99	53.477
731.30	53.893
731.62	54.214
731.93	54.589
732.24	54.897
732.56	55.205
732.87	55.709
733.19	56.183
733.50	56.403
733.81	56.750
734.13	57.249
734.44	57.432
734.76	57.716
735.07	58.115
735.38	58.494
735.70	58.886
736.01	59.193
736.32	59.390
736.64	59.623
736.95	59.837
737.26	60.154
737.58	60.428
737.89	60.790
738.20	61.007
738.52	61.247
738.83	61.458
739.14	61.580
739.45	61.895
739.77	61.991
740.08	62.219
740.39	62.643
740.71	62.983
741.02	63.122
741.33	63.165
741.64	63.566
741.96	63.865
742.27	64.036
742.58	64.412
742.90	64.580
743.21	64.975
743.52	65.215
743.83	65.269
744.14	65.171
744.46	65.663
744.77	65.896
745.08	65.703
745.39	65.612
745.71	65.658
746.02	65.479
746.33	65.698
746.64	65.720
746.95	65.642
747.27	65.916
747.58	66.147
747.89	65.773
748.20	65.769
748.51	66.015
748.82	65.977
749.14	66.056
749.45	66.241
749.76	66.311
750.07	66.494
750.38	66.620
750.69	66.365
751.01	66.323
751.32	66.478
751.63	66.616
751.94	66.575
752.25	66.706
752.56	66.622
752.87	66.636
753.18	66.377
753.49	66.178
753.81	66.196
754.12	66.370
754.43	66.588
754.74	66.492
755.05	66.407
755.36	66.395
755.67	66.362
755.98	66.438
756.29	66.450
756.60	66.629
756.91	66.579
757.22	66.678
757.53	66.699
757.84	66.692
758.15	66.838
758.46	66.836
758.77	66.611
759.09	66.481
759.40	66.424
759.71	66.212
760.02	66.031
760.33	65.907
760.64	65.647
760.95	65.558
761.26	65.248
761.57	65.169
761.88	65.085
762.18	65.147
762.49	65.111
762.80	65.179
763.11	65.336
763.42	65.186
763.73	65.324
764.04	65.364
764.35	65.422
764.66	65.466
764.97	65.502
765.28	65.518
765.59	65.568
765.90	65.612
766.21	65.514
766.52	65.394
766.83	65.736
767.14	65.727
767.44	65.730
767.75	65.524
768.06	65.601
768.37	65.238
768.68	65.323
768.99	65.280
769.30	65.477
769.61	65.019
769.91	64.995
770.22	64.674
770.53	64.542
770.84	64.360
771.15	64.396
771.46	64.429
771.77	64.848
772.07	64.629
772.38	64.343
772.69	63.997
773.00	64.031
773.31	63.693
773.61	63.614
773.92	63.406
774.23	63.268
774.54	62.996
774.85	62.868
775.15	62.481
775.46	62.390
775.77	62.798
776.08	62.999
776.39	63.106
776.69	63.366
777.00	63.471
777.31	63.345
777.62	63.705
777.92	63.712
778.23	63.786
778.54	63.910
778.85	63.940
779.15	63.609
779.46	63.276
779.77	63.361
780.07	63.238
780.38	63.447
780.69	63.711
781.00	63.705
781.30	63.593
781.61	63.174
781.92	63.156
782.22	63.061
782.53	63.033
782.84	63.138
783.14	63.299
783.45	63.189
783.76	62.987
784.06	62.951
784.37	62.847
784.68	62.965
784.98	63.420
785.29	63.322
785.60	63.346
785.90	63.248
786.21	63.150
786.51	62.872
786.82	63.088
787.13	63.174
787.43	63.431
787.74	63.525
788.04	63.838
788.35	63.875
788.66	63.952
788.96	64.015
789.27	64.254
789.57	64.221
789.88	64.695
790.19	64.823
790.49	64.839
790.80	64.729
791.10	64.273
791.41	64.087
791.71	63.991
792.02	63.938
792.32	63.871
792.63	63.990
792.93	64.251
793.24	64.016
793.54	63.939
793.85	63.825
794.15	63.491
794.46	63.799
794.76	63.700
795.07	63.384
795.37	63.482
795.68	63.622
795.98	63.801
796.29	63.902
796.59	63.842
796.90	63.903
797.20	64.020
797.51	64.015
797.81	63.898
798.12	63.942
798.42	64.235
798.72	64.228
799.03	64.361
799.33	64.252
799.64	64.222
799.94	64.476
800.25	64.120
800.55	64.443
800.85	64.890
801.16	65.198
801.46	64.605
801.77	64.473
802.07	64.604
802.37	64.501
802.68	64.135
802.98	63.948
803.28	63.612
803.59	64.018
803.89	63.858
804.20	63.744
804.50	63.228
804.80	64.019
805.11	64.148
805.41	64.081
805.71	64.234
806.02	64.404
806.32	64.620
806.62	64.750
806.93	64.738
807.23	64.845
807.53	65.110
807.83	65.608
808.14	65.520
808.44	65.477
808.74	65.692
809.05	65.443
809.35	65.074
809.65	64.972
809.95	65.179
810.26	64.926
810.56	64.851
810.86	64.984
811.16	65.385
811.47	66.117
811.77	66.377
812.07	66.048
812.37	66.118
812.68	66.878
812.98	67.317
813.28	67.182
813.58	67.702
813.88	67.706
814.19	67.874
814.49	67.759
814.79	67.172
815.09	67.347
815.39	67.241
815.70	67.615
816.00	67.055
816.30	66.390
816.60	66.180
816.90	65.546
817.20	65.336
817.50	64.759
817.81	64.075
818.11	64.065
818.41	63.799
818.71	63.781
819.01	63.701
819.31	64.076
819.61	64.346
819.92	64.701
820.22	64.931
820.52	65.103
820.82	65.397
821.12	65.840
821.42	66.141
821.72	66.469
822.02	66.928
822.32	67.406
822.62	67.770
822.92	68.145
823.22	68.416
823.52	68.828
823.83	69.113
824.13	69.381
824.43	69.275
824.73	69.378
825.03	69.455
825.33	69.568
825.63	69.406
825.93	69.111
826.23	69.007
826.53	68.864
826.83	68.723
827.13	68.890
827.43	68.875
827.73	69.466
828.03	69.699
828.33	69.952
828.63	69.859
828.93	69.870
829.23	69.920
829.53	69.811
829.83	69.660
830.13	69.122
830.42	68.650
830.72	68.130
831.02	67.736
831.32	67.318
831.62	67.315
831.92	66.940
832.22	66.697
832.52	66.765
832.82	66.696
833.12	66.517
833.42	66.830
833.72	66.912
834.01	67.077
834.31	67.012
834.61	67.363
834.91	67.653
835.21	68.144
835.51	68.811
835.81	68.966
836.11	69.233
836.40	69.848
836.70	69.673
837.00	69.710
837.30	69.552
837.60	70.132
837.90	69.961
838.19	69.172
838.49	68.651
838.79	68.175
839.09	68.144
839.39	67.877
839.68	67.727
839.98	67.810
840.28	67.686
840.58	68.410
840.88	68.409
841.17	68.439
841.47	69.174
841.77	69.148
842.07	69.602
842.36	69.821
842.66	70.468
842.96	70.242
843.26	69.859
843.55	70.738
843.85	70.159
844.15	69.409
844.45	68.516
844.74	68.106
845.04	68.398
845.34	67.680
845.63	67.632
845.93	66.949
846.23	67.589
846.53	66.635
846.82	65.471
847.12	65.460
847.42	64.866
847.71	64.989
848.01	64.388
848.31	64.366
848.60	65.251
848.90	63.972
849.19	64.151
849.49	63.447
849.79	65.799
850.08	66.482
850.38	65.462
850.68	65.663
850.97	66.149
851.27	66.954
851.56	66.923
851.86	65.659
852.16	67.562
852.45	66.290
852.75	67.066
853.04	66.811
853.34	66.411
853.64	66.867
853.93	67.963
854.23	67.481
854.52	67.091
854.82	67.386
855.11	67.038
855.41	68.486
855.70	69.634
856.00	69.242
856.30	68.581
856.59	69.074
856.89	69.003
857.18	68.385
857.48	69.212
857.77	67.569
858.07	65.045
858.36	64.678
858.66	62.323
858.95	62.341
859.25	62.105
859.54	62.487
859.84	63.102
860.13	64.653
860.42	65.232
860.72	63.596
861.01	63.561
861.31	66.449
861.60	67.973
861.90	67.578
862.19	67.638
862.49	66.999
862.78	66.041
863.07	65.480
863.37	64.793
863.66	63.403
863.96	64.522
864.25	66.238
864.54	66.542
864.84	65.428
865.13	66.389
865.43	66.292
865.72	73.879
866.01	81.206
866.31	59.579
866.60	70.709
866.89	65.911
>>>>>End Spectral Data<<<<<
