OOIBase32 Version 2.0.0.6 Data File
++++++++++++++++++++++++++++++++++++
Date: 01-24-2012, 17:43:43
User: Valued Ocean Optics Customer
Spectrometer Serial Number: USB2E2917
Spectrometer Channel: Master
Integration Time (msec): 7
Spectra Averaged: 10
Boxcar Smoothing: 5
Correct for Electrical Dark: Enabled
Time Normalized: Disabled
Dual-beam Reference: Disabled
Reference Channel: Master
Temperature: Not acquired
Spectrometer Type: S2000
ADC Type: USB2000
Number of Pixels in File: 2048
Graph Title: 
>>>>>Begin Spectral Data<<<<<
180.30	0.000
180.67	0.000
181.03	47.746
181.40	-143476.190
181.77	-1484.928
182.14	80.009
182.51	-260.829
182.88	117.793
183.25	126.299
183.62	246.472
183.99	51.924
184.36	4.471
184.73	64.277
185.10	21.834
185.46	-17.529
185.83	-229.492
186.20	186.952
186.57	105.700
186.94	-137.216
187.31	68.234
187.68	-82.638
188.05	724.035
188.42	343.063
188.78	184.938
189.15	82.027
189.52	94.773
189.89	77.355
190.26	65.149
190.63	52.906
191.00	56.843
191.37	23.120
191.73	12.645
192.10	-6.775
192.47	15.777
192.84	23.320
193.21	31.093
193.58	19.030
193.94	18.129
194.31	11.104
194.68	9.901
195.05	-19.593
195.42	0.176
195.79	1.349
196.15	11.427
196.52	21.261
196.89	27.391
197.26	29.660
197.63	23.429
198.00	21.513
198.36	31.621
198.73	38.648
199.10	42.710
199.47	64.319
199.84	95.907
200.20	88.712
200.57	77.769
200.94	80.391
201.31	64.168
201.68	57.743
202.04	64.640
202.41	65.458
202.78	59.046
203.15	57.102
203.51	53.090
203.88	39.420
204.25	34.686
204.62	34.940
204.98	29.967
205.35	26.875
205.72	29.960
206.09	37.711
206.46	30.890
206.82	32.328
207.19	42.029
207.56	20.657
207.92	13.159
208.29	-3.626
208.66	-18.110
209.03	-12.948
209.39	-28.265
209.76	-28.735
210.13	-56.291
210.50	-41.111
210.86	-21.022
211.23	-15.780
211.60	-12.185
211.96	-17.630
212.33	-8.114
212.70	5.897
213.07	10.104
213.43	9.875
213.80	10.593
214.17	24.094
214.53	17.347
214.90	6.648
215.27	-7.194
215.63	-4.756
216.00	-21.096
216.37	-16.140
216.74	-14.257
217.10	-21.112
217.47	0.217
217.84	-9.905
218.20	-21.717
218.57	-21.457
218.94	-6.280
219.30	2.105
219.67	-3.191
220.04	13.663
220.40	11.027
220.77	3.978
221.13	-3.651
221.50	-13.144
221.87	-2.446
222.23	-10.098
222.60	-2.753
222.97	-6.879
223.33	2.767
223.70	6.501
224.07	3.003
224.43	-0.019
224.80	-1.522
225.16	4.118
225.53	4.728
225.90	-0.376
226.26	3.703
226.63	-0.608
226.99	0.295
227.36	-3.151
227.73	-3.553
228.09	-5.359
228.46	-4.002
228.82	-3.368
229.19	-4.608
229.56	-5.187
229.92	-3.307
230.29	-3.847
230.65	-0.819
231.02	-0.258
231.38	2.049
231.75	3.043
232.12	5.083
232.48	4.733
232.85	6.751
233.21	6.866
233.58	7.765
233.94	5.827
234.31	3.035
234.68	2.972
235.04	5.110
235.41	5.724
235.77	5.182
236.14	6.081
236.50	7.881
236.87	7.067
237.23	6.685
237.60	3.813
237.96	3.857
238.33	4.213
238.69	2.776
239.06	1.463
239.42	0.831
239.79	0.504
240.15	-0.320
240.52	-1.468
240.88	-1.373
241.25	-2.143
241.61	-1.261
241.98	-0.952
242.34	0.008
242.71	0.636
243.07	0.067
243.44	0.166
243.80	0.214
244.17	0.193
244.53	0.645
244.90	-0.066
245.26	0.599
245.63	0.335
245.99	0.199
246.36	-0.156
246.72	-0.268
247.09	-0.160
247.45	-0.466
247.81	-0.745
248.18	-0.482
248.54	-0.984
248.91	-0.879
249.27	-1.462
249.64	-1.082
250.00	-1.772
250.36	-1.592
250.73	-1.646
251.09	-1.645
251.46	-1.173
251.82	-0.350
252.19	-0.673
252.55	-0.300
252.91	-0.072
253.28	1.060
253.64	1.760
254.01	2.643
254.37	2.391
254.73	2.045
255.10	2.406
255.46	2.239
255.83	1.946
256.19	1.683
256.55	1.443
256.92	1.559
257.28	1.366
257.65	1.257
258.01	1.310
258.37	1.071
258.74	1.340
259.10	1.222
259.46	1.195
259.83	1.186
260.19	1.358
260.55	1.676
260.92	1.754
261.28	1.796
261.64	1.923
262.01	1.898
262.37	2.531
262.73	2.340
263.10	1.837
263.46	1.687
263.82	1.738
264.19	1.856
264.55	1.594
264.91	1.881
265.28	1.625
265.64	1.298
266.00	1.075
266.37	0.896
266.73	0.735
267.09	1.166
267.46	1.337
267.82	1.274
268.18	1.352
268.54	1.074
268.91	0.536
269.27	0.799
269.63	0.984
270.00	1.430
270.36	1.218
270.72	0.806
271.08	0.720
271.45	0.725
271.81	0.470
272.17	0.241
272.53	0.593
272.90	0.733
273.26	0.135
273.62	0.034
273.98	-0.313
274.35	-0.060
274.71	0.435
275.07	0.379
275.43	0.425
275.80	0.756
276.16	0.555
276.52	0.462
276.88	0.487
277.25	0.841
277.61	0.876
277.97	0.851
278.33	0.678
278.69	0.640
279.06	0.341
279.42	-0.040
279.78	-0.433
280.14	-0.361
280.50	-0.752
280.87	-0.420
281.23	-0.295
281.59	-0.431
281.95	-0.410
282.31	-0.522
282.68	-0.638
283.04	-0.362
283.40	-0.066
283.76	0.203
284.12	0.374
284.48	0.506
284.85	0.091
285.21	-0.141
285.57	-0.369
285.93	-0.253
286.29	-0.196
286.65	0.106
287.02	0.249
287.38	0.149
287.74	0.115
288.10	0.152
288.46	0.215
288.82	0.503
289.18	0.549
289.54	0.713
289.91	0.619
290.27	0.666
290.63	0.300
290.99	0.213
291.35	0.046
291.71	0.108
292.07	0.104
292.43	-0.032
292.79	0.044
293.16	0.101
293.52	0.021
293.88	0.023
294.24	-0.041
294.60	0.206
294.96	-0.010
295.32	0.195
295.68	0.044
296.04	-0.060
296.40	0.070
296.76	0.011
297.12	-0.125
297.49	-0.115
297.85	-0.219
298.21	-0.053
298.57	-0.291
298.93	-0.159
299.29	-0.339
299.65	-0.477
300.01	-0.366
300.37	-0.166
300.73	-0.248
301.09	-0.145
301.45	-0.089
301.81	-0.172
302.17	-0.444
302.53	-0.437
302.89	-0.580
303.25	-0.574
303.61	-0.499
303.97	-0.681
304.33	-0.973
304.69	-0.897
305.05	-0.866
305.41	-0.881
305.77	-0.656
306.13	-0.412
306.49	-0.510
306.85	-0.267
307.21	-0.180
307.57	-0.164
307.93	-0.154
308.29	-0.200
308.65	-0.423
309.01	-0.463
309.37	-0.443
309.73	-0.568
310.09	-0.846
310.45	-0.704
310.81	-0.980
311.17	-0.998
311.53	-1.084
311.89	-1.239
312.25	-1.275
312.61	-1.278
312.96	-1.427
313.32	-1.499
313.68	-1.599
314.04	-1.440
314.40	-1.727
314.76	-1.606
315.12	-1.812
315.48	-1.764
315.84	-1.787
316.20	-1.801
316.56	-1.850
316.92	-1.770
317.27	-2.010
317.63	-2.025
317.99	-2.255
318.35	-2.116
318.71	-2.325
319.07	-2.293
319.43	-2.494
319.79	-2.509
320.15	-2.829
320.50	-2.921
320.86	-3.170
321.22	-3.159
321.58	-3.316
321.94	-3.232
322.30	-3.208
322.66	-3.175
323.01	-3.313
323.37	-3.156
323.73	-3.409
324.09	-3.302
324.45	-3.585
324.81	-3.599
325.17	-3.621
325.52	-3.663
325.88	-3.879
326.24	-4.087
326.60	-4.251
326.96	-4.330
327.31	-4.636
327.67	-4.515
328.03	-4.655
328.39	-4.613
328.75	-4.715
329.11	-4.651
329.46	-4.840
329.82	-4.608
330.18	-4.612
330.54	-4.617
330.90	-4.629
331.25	-4.447
331.61	-4.328
331.97	-4.342
332.33	-4.255
332.68	-4.075
333.04	-4.221
333.40	-4.041
333.76	-4.116
334.11	-4.197
334.47	-4.145
334.83	-4.154
335.19	-4.248
335.54	-4.317
335.90	-4.159
336.26	-4.096
336.62	-4.159
336.97	-4.229
337.33	-4.335
337.69	-4.443
338.05	-4.279
338.40	-4.273
338.76	-4.317
339.12	-4.278
339.48	-4.288
339.83	-4.278
340.19	-4.250
340.55	-4.320
340.90	-4.236
341.26	-4.105
341.62	-4.063
341.97	-4.191
342.33	-4.161
342.69	-4.067
343.04	-4.115
343.40	-4.128
343.76	-4.183
344.12	-4.226
344.47	-4.194
344.83	-4.164
345.19	-4.303
345.54	-4.338
345.90	-4.425
346.26	-4.405
346.61	-4.436
346.97	-4.513
347.32	-4.639
347.68	-4.761
348.04	-4.909
348.39	-4.884
348.75	-5.033
349.11	-5.054
349.46	-5.176
349.82	-5.095
350.18	-5.152
350.53	-5.254
350.89	-5.316
351.24	-5.227
351.60	-5.259
351.96	-5.172
352.31	-5.259
352.67	-5.152
353.02	-5.097
353.38	-4.961
353.74	-4.890
354.09	-4.806
354.45	-4.718
354.80	-4.589
355.16	-4.590
355.52	-4.413
355.87	-4.365
356.23	-4.325
356.58	-4.380
356.94	-4.396
357.29	-4.384
357.65	-4.351
358.00	-4.472
358.36	-4.454
358.72	-4.516
359.07	-4.593
359.43	-4.619
359.78	-4.589
360.14	-4.672
360.49	-4.738
360.85	-4.745
361.20	-4.873
361.56	-5.075
361.91	-5.169
362.27	-5.250
362.62	-5.297
362.98	-5.399
363.33	-5.522
363.69	-5.695
364.04	-5.742
364.40	-5.846
364.75	-5.923
365.11	-5.986
365.46	-5.994
365.82	-6.062
366.17	-6.169
366.53	-6.229
366.88	-6.203
367.24	-6.237
367.59	-6.193
367.95	-6.120
368.30	-6.057
368.66	-6.071
369.01	-5.976
369.37	-5.840
369.72	-5.719
370.08	-5.558
370.43	-5.483
370.78	-5.435
371.14	-5.334
371.49	-5.289
371.85	-5.295
372.20	-5.259
372.56	-5.275
372.91	-5.384
373.26	-5.544
373.62	-5.660
373.97	-5.777
374.33	-5.825
374.68	-5.844
375.03	-5.954
375.39	-6.035
375.74	-6.152
376.10	-6.174
376.45	-6.062
376.80	-5.991
377.16	-5.828
377.51	-5.670
377.87	-5.567
378.22	-5.441
378.57	-5.349
378.93	-5.264
379.28	-5.135
379.63	-4.865
379.99	-4.710
380.34	-4.618
380.70	-4.480
381.05	-4.401
381.40	-4.377
381.76	-4.375
382.11	-4.420
382.46	-4.396
382.82	-4.432
383.17	-4.472
383.52	-4.581
383.88	-4.645
384.23	-4.787
384.58	-4.883
384.94	-5.064
385.29	-5.140
385.64	-5.179
385.99	-5.229
386.35	-5.305
386.70	-5.303
387.05	-5.353
387.41	-5.394
387.76	-5.419
388.11	-5.381
388.47	-5.332
388.82	-5.236
389.17	-5.181
389.52	-5.130
389.88	-5.039
390.23	-4.951
390.58	-4.780
390.93	-4.643
391.29	-4.544
391.64	-4.472
391.99	-4.432
392.34	-4.411
392.70	-4.452
393.05	-4.460
393.40	-4.523
393.75	-4.611
394.11	-4.732
394.46	-4.975
394.81	-5.221
395.16	-5.414
395.52	-5.637
395.87	-5.923
396.22	-6.232
396.57	-6.500
396.92	-6.850
397.28	-7.114
397.63	-7.375
397.98	-7.625
398.33	-7.867
398.68	-7.986
399.04	-8.103
399.39	-8.230
399.74	-8.171
400.09	-8.160
400.44	-8.080
400.80	-7.955
401.15	-7.890
401.50	-7.771
401.85	-7.623
402.20	-7.465
402.55	-7.396
402.90	-7.364
403.26	-7.289
403.61	-7.340
403.96	-7.311
404.31	-7.339
404.66	-7.401
405.01	-7.404
405.36	-7.491
405.72	-7.606
406.07	-7.694
406.42	-7.786
406.77	-7.834
407.12	-7.867
407.47	-7.863
407.82	-7.921
408.17	-7.989
408.53	-7.994
408.88	-8.063
409.23	-8.062
409.58	-8.097
409.93	-8.127
410.28	-8.142
410.63	-8.187
410.98	-8.222
411.33	-8.217
411.68	-8.137
412.03	-8.040
412.38	-7.915
412.73	-7.686
413.09	-7.500
413.44	-7.230
413.79	-6.963
414.14	-6.600
414.49	-6.281
414.84	-5.957
415.19	-5.635
415.54	-5.326
415.89	-5.005
416.24	-4.706
416.59	-4.469
416.94	-4.217
417.29	-4.026
417.64	-3.824
417.99	-3.694
418.34	-3.538
418.69	-3.417
419.04	-3.306
419.39	-3.229
419.74	-3.134
420.09	-3.087
420.44	-3.046
420.79	-3.045
421.14	-3.030
421.49	-3.036
421.84	-3.063
422.19	-3.114
422.54	-3.168
422.89	-3.263
423.24	-3.372
423.59	-3.521
423.94	-3.700
424.29	-3.872
424.64	-4.025
424.99	-4.213
425.34	-4.402
425.68	-4.576
426.03	-4.717
426.38	-4.875
426.73	-4.999
427.08	-5.050
427.43	-5.071
427.78	-5.001
428.13	-4.952
428.48	-4.882
428.83	-4.811
429.18	-4.731
429.53	-4.671
429.87	-4.649
430.22	-4.606
430.57	-4.581
430.92	-4.588
431.27	-4.619
431.62	-4.666
431.97	-4.765
432.32	-4.882
432.67	-4.975
433.01	-5.084
433.36	-5.201
433.71	-5.316
434.06	-5.391
434.41	-5.425
434.76	-5.438
435.11	-5.389
435.45	-5.309
435.80	-5.160
436.15	-5.028
436.50	-4.897
436.85	-4.756
437.20	-4.629
437.54	-4.525
437.89	-4.466
438.24	-4.426
438.59	-4.414
438.94	-4.474
439.29	-4.569
439.63	-4.689
439.98	-4.778
440.33	-4.841
440.68	-4.911
441.03	-4.918
441.37	-4.876
441.72	-4.790
442.07	-4.662
442.42	-4.504
442.76	-4.317
443.11	-4.130
443.46	-3.967
443.81	-3.827
444.16	-3.728
444.50	-3.686
444.85	-3.674
445.20	-3.727
445.55	-3.837
445.89	-4.000
446.24	-4.204
446.59	-4.440
446.94	-4.682
447.28	-4.944
447.63	-5.201
447.98	-5.471
448.32	-5.687
448.67	-5.894
449.02	-5.994
449.37	-6.077
449.71	-6.082
450.06	-6.051
450.41	-5.998
450.75	-5.975
451.10	-5.928
451.45	-5.924
451.79	-5.911
452.14	-5.910
452.49	-5.937
452.84	-5.976
453.18	-5.981
453.53	-5.988
453.88	-5.990
454.22	-5.930
454.57	-5.777
454.92	-5.583
455.26	-5.348
455.61	-5.123
455.95	-4.887
456.30	-4.663
456.65	-4.441
456.99	-4.254
457.34	-4.096
457.69	-3.982
458.03	-3.926
458.38	-3.934
458.73	-4.010
459.07	-4.151
459.42	-4.322
459.76	-4.524
460.11	-4.755
460.46	-5.006
460.80	-5.310
461.15	-5.605
461.49	-5.847
461.84	-6.071
462.19	-6.263
462.53	-6.355
462.88	-6.382
463.22	-6.352
463.57	-6.304
463.91	-6.254
464.26	-6.199
464.61	-6.072
464.95	-6.005
465.30	-5.954
465.64	-5.924
465.99	-5.953
466.33	-5.984
466.68	-6.064
467.02	-6.141
467.37	-6.246
467.71	-6.321
468.06	-6.438
468.41	-6.565
468.75	-6.684
469.10	-6.841
469.44	-7.022
469.79	-7.111
470.13	-7.222
470.48	-7.323
470.82	-7.432
471.17	-7.506
471.51	-7.601
471.86	-7.670
472.20	-7.781
472.55	-7.860
472.89	-7.898
473.23	-7.903
473.58	-7.948
473.92	-7.956
474.27	-7.930
474.61	-7.935
474.96	-7.929
475.30	-7.935
475.65	-7.920
475.99	-7.858
476.34	-7.819
476.68	-7.763
477.02	-7.684
477.37	-7.559
477.71	-7.398
478.06	-7.099
478.40	-6.583
478.75	-5.919
479.09	-5.244
479.43	-4.617
479.78	-4.077
480.12	-3.589
480.47	-3.178
480.81	-2.815
481.15	-2.485
481.50	-2.203
481.84	-1.982
482.19	-1.823
482.53	-1.731
482.87	-1.669
483.22	-1.657
483.56	-1.650
483.90	-1.699
484.25	-1.756
484.59	-1.848
484.94	-1.962
485.28	-2.089
485.62	-2.230
485.97	-2.382
486.31	-2.525
486.65	-2.683
487.00	-2.829
487.34	-3.003
487.68	-3.136
488.03	-3.263
488.37	-3.370
488.71	-3.466
489.06	-3.554
489.40	-3.645
489.74	-3.748
490.09	-3.882
490.43	-4.034
490.77	-4.241
491.11	-4.474
491.46	-4.722
491.80	-5.010
492.14	-5.275
492.49	-5.575
492.83	-5.887
493.17	-6.192
493.51	-6.474
493.86	-6.719
494.20	-6.903
494.54	-6.975
494.88	-6.965
495.23	-6.917
495.57	-6.845
495.91	-6.817
496.25	-6.799
496.60	-6.783
496.94	-6.806
497.28	-6.838
497.62	-6.904
497.97	-6.975
498.31	-7.065
498.65	-7.159
498.99	-7.271
499.33	-7.352
499.68	-7.390
500.02	-7.426
500.36	-7.466
500.70	-7.481
501.04	-7.496
501.39	-7.469
501.73	-7.464
502.07	-7.435
502.41	-7.383
502.75	-7.340
503.09	-7.281
503.44	-7.219
503.78	-7.149
504.12	-7.072
504.46	-6.958
504.80	-6.850
505.14	-6.759
505.49	-6.629
505.83	-6.533
506.17	-6.461
506.51	-6.357
506.85	-6.293
507.19	-6.258
507.53	-6.195
507.87	-6.150
508.22	-6.145
508.56	-6.158
508.90	-6.177
509.24	-6.223
509.58	-6.246
509.92	-6.262
510.26	-6.321
510.60	-6.372
510.94	-6.425
511.28	-6.486
511.63	-6.545
511.97	-6.576
512.31	-6.568
512.65	-6.534
512.99	-6.448
513.33	-6.340
513.67	-6.187
514.01	-6.007
514.35	-5.787
514.69	-5.538
515.03	-5.303
515.37	-5.096
515.71	-4.903
516.05	-4.757
516.39	-4.645
516.73	-4.588
517.07	-4.560
517.41	-4.611
517.75	-4.692
518.09	-4.833
518.43	-5.029
518.77	-5.245
519.11	-5.458
519.45	-5.684
519.79	-5.893
520.13	-6.077
520.47	-6.193
520.81	-6.251
521.15	-6.218
521.49	-6.153
521.83	-6.013
522.17	-5.818
522.51	-5.587
522.85	-5.280
523.19	-4.869
523.53	-4.401
523.87	-3.914
524.21	-3.476
524.55	-3.113
524.89	-2.801
525.23	-2.520
525.57	-2.288
525.91	-2.079
526.25	-1.907
526.58	-1.780
526.92	-1.717
527.26	-1.686
527.60	-1.731
527.94	-1.812
528.28	-1.905
528.62	-2.018
528.96	-2.136
529.30	-2.262
529.64	-2.405
529.97	-2.556
530.31	-2.720
530.65	-2.877
530.99	-3.027
531.33	-3.127
531.67	-3.197
532.01	-3.244
532.35	-3.333
532.68	-3.430
533.02	-3.557
533.36	-3.704
533.70	-3.853
534.04	-3.987
534.38	-4.138
534.71	-4.293
535.05	-4.446
535.39	-4.600
535.73	-4.741
536.07	-4.767
536.41	-4.709
536.74	-4.571
537.08	-4.385
537.42	-4.184
537.76	-3.968
538.10	-3.728
538.43	-3.515
538.77	-3.307
539.11	-3.132
539.45	-2.988
539.79	-2.879
540.12	-2.834
540.46	-2.838
540.80	-2.892
541.14	-2.980
541.47	-3.109
541.81	-3.269
542.15	-3.435
542.49	-3.658
542.82	-3.881
543.16	-4.117
543.50	-4.364
543.84	-4.611
544.17	-4.811
544.51	-4.980
544.85	-5.115
545.18	-5.258
545.52	-5.433
545.86	-5.633
546.20	-5.845
546.53	-6.061
546.87	-6.277
547.21	-6.513
547.54	-6.727
547.88	-6.933
548.22	-7.095
548.55	-7.228
548.89	-7.323
549.23	-7.390
549.56	-7.396
549.90	-7.336
550.24	-7.305
550.57	-7.272
550.91	-7.225
551.25	-7.175
551.58	-7.147
551.92	-7.187
552.26	-7.235
552.59	-7.319
552.93	-7.371
553.27	-7.469
553.60	-7.551
553.94	-7.618
554.27	-7.665
554.61	-7.725
554.95	-7.770
555.28	-7.849
555.62	-7.813
555.95	-7.811
556.29	-7.745
556.63	-7.674
556.96	-7.624
557.30	-7.569
557.63	-7.513
557.97	-7.464
558.31	-7.371
558.64	-7.308
558.98	-7.243
559.31	-7.258
559.65	-7.200
559.98	-7.153
560.32	-7.116
560.65	-7.039
560.99	-6.954
561.33	-6.809
561.66	-6.685
562.00	-6.568
562.33	-6.461
562.67	-6.281
563.00	-6.069
563.34	-5.902
563.67	-5.747
564.01	-5.594
564.34	-5.466
564.68	-5.359
565.01	-5.314
565.35	-5.270
565.68	-5.228
566.02	-5.161
566.35	-5.139
566.69	-5.127
567.02	-5.078
567.36	-5.018
567.69	-4.936
568.03	-4.858
568.36	-4.752
568.69	-4.645
569.03	-4.523
569.36	-4.395
569.70	-4.269
570.03	-4.139
570.37	-3.998
570.70	-3.925
571.04	-3.850
571.37	-3.819
571.70	-3.783
572.04	-3.750
572.37	-3.704
572.71	-3.688
573.04	-3.664
573.37	-3.675
573.71	-3.699
574.04	-3.742
574.38	-3.761
574.71	-3.819
575.04	-3.863
575.38	-3.884
575.71	-3.938
576.05	-4.020
576.38	-4.058
576.71	-4.147
577.05	-4.226
577.38	-4.260
577.71	-4.296
578.05	-4.329
578.38	-4.337
578.71	-4.310
579.05	-4.301
579.38	-4.266
579.71	-4.196
580.05	-4.141
580.38	-4.071
580.71	-3.944
581.05	-3.856
581.38	-3.771
581.71	-3.672
582.05	-3.542
582.38	-3.400
582.71	-3.282
583.04	-3.165
583.38	-3.010
583.71	-2.810
584.04	-2.590
584.38	-2.407
584.71	-2.181
585.04	-1.931
585.37	-1.687
585.71	-1.398
586.04	-1.175
586.37	-0.882
586.70	-0.601
587.04	-0.349
587.37	-0.181
587.70	-0.003
588.03	0.150
588.37	0.303
588.70	0.450
589.03	0.538
589.36	0.617
589.69	0.735
590.03	0.811
590.36	0.860
590.69	0.960
591.02	1.105
591.35	1.235
591.69	1.463
592.02	1.695
592.35	1.914
592.68	2.229
593.01	2.519
593.35	2.766
593.68	3.026
594.01	3.288
594.34	3.486
594.67	3.673
595.00	3.887
595.34	4.033
595.67	4.154
596.00	4.249
596.33	4.289
596.66	4.313
596.99	4.334
597.32	4.327
597.65	4.374
597.99	4.394
598.32	4.481
598.65	4.566
598.98	4.684
599.31	4.867
599.64	5.080
599.97	5.323
600.30	5.586
600.63	5.845
600.96	6.118
601.30	6.356
601.63	6.621
601.96	6.817
602.29	6.998
602.62	7.138
602.95	7.248
603.28	7.346
603.61	7.414
603.94	7.445
604.27	7.486
604.60	7.512
604.93	7.548
605.26	7.568
605.59	7.626
605.92	7.631
606.25	7.704
606.58	7.740
606.91	7.840
607.24	7.915
607.57	8.009
607.90	8.048
608.23	8.086
608.56	8.100
608.89	8.115
609.22	8.085
609.55	8.079
609.88	8.003
610.21	7.932
610.54	7.804
610.87	7.718
611.20	7.618
611.53	7.572
611.86	7.486
612.19	7.445
612.52	7.412
612.85	7.436
613.18	7.428
613.51	7.434
613.84	7.473
614.17	7.517
614.49	7.503
614.82	7.531
615.15	7.515
615.48	7.531
615.81	7.524
616.14	7.483
616.47	7.432
616.80	7.412
617.13	7.416
617.46	7.425
617.78	7.380
618.11	7.362
618.44	7.316
618.77	7.331
619.10	7.326
619.43	7.317
619.76	7.322
620.09	7.317
620.41	7.322
620.74	7.395
621.07	7.374
621.40	7.489
621.73	7.591
622.06	7.702
622.38	7.826
622.71	7.982
623.04	8.122
623.37	8.297
623.70	8.436
624.02	8.556
624.35	8.633
624.68	8.764
625.01	8.824
625.34	8.892
625.66	8.928
625.99	8.975
626.32	8.960
626.65	8.955
626.98	8.944
627.30	8.929
627.63	8.894
627.96	8.889
628.29	8.863
628.61	8.872
628.94	8.842
629.27	8.810
629.60	8.774
629.92	8.820
630.25	8.795
630.58	8.784
630.91	8.734
631.23	8.752
631.56	8.699
631.89	8.643
632.21	8.560
632.54	8.508
632.87	8.492
633.19	8.404
633.52	8.294
633.85	8.207
634.18	8.077
634.50	7.994
634.83	7.854
635.16	7.691
635.48	7.597
635.81	7.454
636.14	7.301
636.46	7.099
636.79	6.962
637.11	6.733
637.44	6.567
637.77	6.382
638.09	6.185
638.42	6.071
638.75	5.881
639.07	5.637
639.40	5.425
639.73	5.248
640.05	5.053
640.38	4.815
640.70	4.660
641.03	4.446
641.36	4.283
641.68	4.100
642.01	3.836
642.33	3.749
642.66	3.557
642.98	3.430
643.31	3.276
643.64	3.154
643.96	3.041
644.29	2.958
644.61	2.860
644.94	2.771
645.26	2.692
645.59	2.643
645.91	2.481
646.24	2.487
646.56	2.345
646.89	2.275
647.22	2.221
647.54	2.140
647.87	2.049
648.19	1.974
648.52	1.868
648.84	1.778
649.17	1.648
649.49	1.540
649.82	1.354
650.14	1.335
650.47	1.268
650.79	1.108
651.11	1.033
651.44	0.900
651.76	0.823
652.09	0.765
652.41	0.669
652.74	0.608
653.06	0.579
653.39	0.598
653.71	0.566
654.04	0.568
654.36	0.577
654.68	0.586
655.01	0.578
655.33	0.580
655.66	0.572
655.98	0.600
656.30	0.587
656.63	0.586
656.95	0.525
657.28	0.476
657.60	0.366
657.92	0.280
658.25	0.150
658.57	0.050
658.90	-0.155
659.22	-0.383
659.54	-0.626
659.87	-0.863
660.19	-1.152
660.51	-1.384
660.84	-1.729
661.16	-2.030
661.48	-2.307
661.81	-2.633
662.13	-2.834
662.45	-3.041
662.78	-3.222
663.10	-3.383
663.42	-3.493
663.75	-3.598
664.07	-3.698
664.39	-3.714
664.72	-3.779
665.04	-3.780
665.36	-3.763
665.69	-3.882
666.01	-3.943
666.33	-3.977
666.65	-3.964
666.98	-3.963
667.30	-3.920
667.62	-3.978
667.94	-3.990
668.27	-4.021
668.59	-4.080
668.91	-4.081
669.23	-4.100
669.56	-4.095
669.88	-4.066
670.20	-4.072
670.52	-4.140
670.85	-4.171
671.17	-4.137
671.49	-4.131
671.81	-4.080
672.13	-4.007
672.46	-3.913
672.78	-3.844
673.10	-3.735
673.42	-3.701
673.74	-3.651
674.07	-3.498
674.39	-3.404
674.71	-3.294
675.03	-3.188
675.35	-3.005
675.67	-2.849
676.00	-2.673
676.32	-2.397
676.64	-2.149
676.96	-1.868
677.28	-1.704
677.60	-1.533
677.92	-1.294
678.25	-1.071
678.57	-0.827
678.89	-0.643
679.21	-0.434
679.53	-0.304
679.85	-0.205
680.17	-0.077
680.49	0.118
680.81	0.351
681.13	0.649
681.46	0.868
681.78	1.145
682.10	1.419
682.42	1.740
682.74	2.144
683.06	2.580
683.38	2.981
683.70	3.512
684.02	3.956
684.34	4.515
684.66	5.013
684.98	5.605
685.30	6.180
685.62	6.735
685.94	7.275
686.26	7.829
686.58	8.359
686.90	9.095
687.22	9.594
687.54	10.183
687.86	10.783
688.18	11.367
688.50	11.948
688.82	12.588
689.14	13.211
689.46	13.978
689.78	14.632
690.10	15.350
690.42	15.982
690.74	16.840
691.06	17.711
691.38	18.572
691.70	19.439
692.02	20.341
692.34	21.168
692.66	22.059
692.98	22.889
693.30	23.832
693.62	24.809
693.94	25.876
694.26	26.809
694.57	27.676
694.89	28.509
695.21	29.300
695.53	30.095
695.85	30.926
696.17	31.651
696.49	32.352
696.81	33.027
697.13	33.715
697.44	34.281
697.76	34.928
698.08	35.540
698.40	36.187
698.72	36.792
699.04	37.325
699.36	37.869
699.67	38.535
699.99	39.220
700.31	39.876
700.63	40.584
700.95	41.217
701.27	41.826
701.58	42.480
701.90	42.985
702.22	43.672
702.54	44.320
702.86	44.889
703.17	45.383
703.49	45.903
703.81	46.329
704.13	46.773
704.45	47.211
704.76	47.644
705.08	47.999
705.40	48.483
705.72	48.786
706.03	49.195
706.35	49.586
706.67	49.889
706.99	50.166
707.30	50.612
707.62	50.944
707.94	51.336
708.26	51.715
708.57	51.994
708.89	52.295
709.21	52.639
709.53	52.959
709.84	53.421
710.16	53.854
710.48	54.159
710.79	54.501
711.11	54.787
711.43	55.130
711.74	55.445
712.06	55.796
712.38	56.145
712.69	56.497
713.01	56.872
713.33	57.094
713.64	57.379
713.96	57.698
714.28	58.166
714.59	58.683
714.91	59.071
715.23	59.378
715.54	59.833
715.86	60.173
716.17	60.593
716.49	60.848
716.81	61.129
717.12	61.337
717.44	61.673
717.76	61.667
718.07	61.899
718.39	62.153
718.70	62.376
719.02	62.511
719.33	62.606
719.65	62.720
719.97	62.868
720.28	63.107
720.60	63.451
720.91	63.649
721.23	63.876
721.54	63.932
721.86	63.988
722.17	64.128
722.49	64.175
722.81	64.564
723.12	64.819
723.44	64.980
723.75	65.142
724.07	65.134
724.38	65.279
724.70	65.448
725.01	65.334
725.33	65.466
725.64	65.617
725.96	65.824
726.27	65.837
726.59	65.926
726.90	66.247
727.22	66.276
727.53	66.561
727.84	66.639
728.16	66.583
728.47	66.916
728.79	67.025
729.10	66.964
729.42	67.089
729.73	67.218
730.05	67.202
730.36	67.073
730.67	67.121
730.99	67.120
731.30	67.094
731.62	67.400
731.93	67.377
732.24	67.241
732.56	67.308
732.87	67.153
733.19	67.074
733.50	67.201
733.81	67.307
734.13	67.400
734.44	67.260
734.76	67.430
735.07	67.457
735.38	67.405
735.70	67.603
736.01	67.706
736.32	67.832
736.64	67.821
736.95	67.707
737.26	67.507
737.58	67.426
737.89	67.570
738.20	67.461
738.52	67.322
738.83	67.412
739.14	67.482
739.45	67.480
739.77	67.471
740.08	67.486
740.39	67.223
740.71	67.482
741.02	67.461
741.33	67.440
741.64	67.438
741.96	67.508
742.27	67.505
742.58	67.317
742.90	67.042
743.21	67.183
743.52	67.152
743.83	67.426
744.14	67.130
744.46	67.290
744.77	67.264
745.08	67.171
745.39	66.954
745.71	66.570
746.02	66.529
746.33	66.714
746.64	66.309
746.95	66.379
747.27	66.429
747.58	66.506
747.89	66.424
748.20	66.422
748.51	66.529
748.82	66.540
749.14	66.640
749.45	66.825
749.76	66.954
750.07	67.236
750.38	67.121
750.69	67.067
751.01	67.156
751.32	67.356
751.63	67.205
751.94	67.268
752.25	67.444
752.56	67.625
752.87	67.314
753.18	67.055
753.49	66.908
753.81	67.016
754.12	66.893
754.43	66.894
754.74	66.606
755.05	66.846
755.36	66.887
755.67	67.145
755.98	67.545
756.29	68.003
756.60	68.277
756.91	68.693
757.22	68.906
757.53	69.390
757.84	69.776
758.15	70.061
758.46	70.314
758.77	70.548
759.09	70.770
759.40	70.770
759.71	70.820
760.02	70.849
760.33	70.910
760.64	70.891
760.95	70.981
761.26	70.967
761.57	70.970
761.88	70.934
762.18	70.883
762.49	70.579
762.80	70.439
763.11	70.370
763.42	70.355
763.73	70.195
764.04	69.960
764.35	69.537
764.66	69.190
764.97	68.826
765.28	68.285
765.59	67.848
765.90	67.563
766.21	67.063
766.52	66.434
766.83	65.989
767.14	65.489
767.44	65.201
767.75	65.116
768.06	64.880
768.37	64.568
768.68	64.558
768.99	64.559
769.30	64.118
769.61	63.875
769.91	63.703
770.22	63.461
770.53	63.219
770.84	62.926
771.15	62.650
771.46	62.623
771.77	62.719
772.07	62.414
772.38	61.985
772.69	61.824
773.00	62.010
773.31	62.243
773.61	62.489
773.92	62.665
774.23	62.289
774.54	62.085
774.85	61.645
775.15	61.596
775.46	61.742
775.77	61.690
776.08	61.838
776.39	61.523
776.69	61.362
777.00	61.041
777.31	60.722
777.62	61.195
777.92	60.969
778.23	61.078
778.54	61.011
778.85	61.033
779.15	60.960
779.46	61.144
779.77	61.293
780.07	61.180
780.38	60.840
780.69	60.789
781.00	60.800
781.30	61.314
781.61	61.502
781.92	61.399
782.22	61.547
782.53	61.647
782.84	61.653
783.14	62.131
783.45	62.619
783.76	62.927
784.06	63.422
784.37	63.579
784.68	63.314
784.98	63.247
785.29	63.365
785.60	63.183
785.90	63.463
786.21	63.644
786.51	63.644
786.82	63.309
787.13	63.641
787.43	63.451
787.74	63.572
788.04	63.574
788.35	63.614
788.66	63.756
788.96	64.033
789.27	63.895
789.57	63.888
789.88	63.583
790.19	64.113
790.49	63.808
790.80	64.148
791.10	64.036
791.41	64.104
791.71	64.362
792.02	64.089
792.32	63.834
792.63	63.922
792.93	63.459
793.24	63.485
793.54	63.309
793.85	63.327
794.15	62.999
794.46	63.154
794.76	63.240
795.07	63.149
795.37	63.514
795.68	63.768
795.98	63.621
796.29	63.892
796.59	64.188
796.90	63.932
797.20	63.928
797.51	63.604
797.81	63.250
798.12	63.399
798.42	63.222
798.72	62.861
799.03	62.784
799.33	62.967
799.64	62.733
799.94	62.403
800.25	62.286
800.55	62.132
800.85	62.395
801.16	62.659
801.46	62.404
801.77	62.288
802.07	62.415
802.37	62.044
802.68	61.787
802.98	61.877
803.28	61.956
803.59	62.285
803.89	62.586
804.20	62.898
804.50	63.059
804.80	63.128
805.11	63.292
805.41	63.222
805.71	63.463
806.02	63.469
806.32	63.829
806.62	63.988
806.93	63.586
807.23	63.601
807.53	63.680
807.83	63.599
808.14	63.562
808.44	63.547
808.74	63.697
809.05	64.076
809.35	64.717
809.65	64.598
809.95	64.886
810.26	65.733
810.56	65.892
810.86	66.228
811.16	66.424
811.47	66.905
811.77	67.126
812.07	67.218
812.37	67.250
812.68	67.092
812.98	67.186
813.28	67.558
813.58	67.377
813.88	66.867
814.19	66.351
814.49	66.329
814.79	66.294
815.09	66.647
815.39	67.013
815.70	66.898
816.00	66.928
816.30	67.517
816.60	67.098
816.90	67.291
817.20	67.865
817.50	68.299
817.81	68.291
818.11	68.500
818.41	68.592
818.71	68.843
819.01	69.212
819.31	69.473
819.61	69.562
819.92	69.703
820.22	69.930
820.52	70.163
820.82	70.419
821.12	70.769
821.42	70.988
821.72	71.281
822.02	71.583
822.32	71.866
822.62	72.132
822.92	72.396
823.22	72.695
823.52	72.875
823.83	73.029
824.13	73.156
824.43	73.086
824.73	73.081
825.03	72.954
825.33	72.723
825.63	72.566
825.93	72.382
826.23	72.439
826.53	72.493
826.83	72.417
827.13	72.362
827.43	72.296
827.73	72.637
828.03	72.946
828.33	73.129
828.63	73.411
828.93	73.120
829.23	73.045
829.53	72.546
829.83	71.662
830.13	71.258
830.42	71.016
830.72	70.510
831.02	69.737
831.32	69.403
831.62	69.095
831.92	68.881
832.22	68.977
832.52	69.033
832.82	68.808
833.12	69.208
833.42	69.550
833.72	69.583
834.01	69.959
834.31	70.290
834.61	70.317
834.91	70.384
835.21	70.208
835.51	70.641
835.81	70.619
836.11	70.743
836.40	70.396
836.70	69.811
837.00	69.438
837.30	68.849
837.60	67.973
837.90	67.614
838.19	67.927
838.49	68.195
838.79	66.822
839.09	66.512
839.39	66.450
839.68	66.475
839.98	66.192
840.28	66.151
840.58	66.109
840.88	66.352
841.17	65.765
841.47	64.700
841.77	64.488
842.07	64.818
842.36	64.616
842.66	63.899
842.96	63.372
843.26	63.449
843.55	63.631
843.85	62.457
844.15	61.744
844.45	60.977
844.74	61.177
845.04	59.409
845.34	59.540
845.63	59.119
845.93	59.156
846.23	58.630
846.53	57.873
846.82	57.354
847.12	56.596
847.42	57.145
847.71	57.526
848.01	57.287
848.31	57.245
848.60	58.281
848.90	57.958
849.19	57.857
849.49	57.414
849.79	56.817
850.08	57.249
850.38	57.191
850.68	56.530
850.97	57.794
851.27	58.054
851.56	59.682
851.86	57.946
852.16	58.422
852.45	59.515
852.75	60.251
853.04	60.400
853.34	59.721
853.64	62.168
853.93	62.447
854.23	62.282
854.52	62.419
854.82	62.482
855.11	62.427
855.41	62.086
855.70	61.353
856.00	60.174
856.30	59.977
856.59	59.525
856.89	57.933
857.18	58.788
857.48	58.798
857.77	59.039
858.07	57.723
858.36	57.789
858.66	58.145
858.95	57.849
859.25	60.970
859.54	59.988
859.84	60.480
860.13	62.381
860.42	62.971
860.72	61.523
861.01	61.125
861.31	61.240
861.60	61.403
861.90	60.932
862.19	60.530
862.49	58.777
862.78	59.928
863.07	60.464
863.37	59.639
863.66	58.782
863.96	60.327
864.25	61.034
864.54	60.928
864.84	60.960
865.13	60.525
865.43	61.475
865.72	67.162
866.01	55.001
866.31	64.616
866.60	51.888
866.89	60.452
>>>>>End Spectral Data<<<<<
