OOIBase32 Version 2.0.0.6 Data File
++++++++++++++++++++++++++++++++++++
Date: 01-24-2012, 17:44:31
User: Valued Ocean Optics Customer
Spectrometer Serial Number: USB2E2917
Spectrometer Channel: Master
Integration Time (msec): 7
Spectra Averaged: 10
Boxcar Smoothing: 5
Correct for Electrical Dark: Enabled
Time Normalized: Disabled
Dual-beam Reference: Disabled
Reference Channel: Master
Temperature: Not acquired
Spectrometer Type: S2000
ADC Type: USB2000
Number of Pixels in File: 2048
Graph Title: 
>>>>>Begin Spectral Data<<<<<
180.30	0.000
180.67	0.000
181.03	34.237
181.40	-47938.095
181.77	240.253
182.14	-73.315
182.51	-164.067
182.88	228.261
183.25	26.067
183.62	-51.141
183.99	102.574
184.36	-28.168
184.73	-15.653
185.10	76.922
185.46	58.306
185.83	322.660
186.20	-298.194
186.57	149.415
186.94	33.817
187.31	120.823
187.68	-298.968
188.05	389.961
188.42	116.827
188.78	15.505
189.15	17.174
189.52	39.122
189.89	11.029
190.26	2.170
190.63	-0.030
191.00	-5.253
191.37	-12.044
191.73	-25.630
192.10	-81.594
192.47	-27.560
192.84	-6.089
193.21	-19.246
193.58	-6.063
193.94	0.139
194.31	-0.026
194.68	-6.359
195.05	-5.611
195.42	11.903
195.79	27.850
196.15	41.441
196.52	24.031
196.89	18.725
197.26	13.179
197.63	10.276
198.00	6.667
198.36	-4.241
198.73	2.735
199.10	3.743
199.47	-0.886
199.84	-6.435
200.20	-5.885
200.57	-30.096
200.94	-30.805
201.31	0.901
201.68	-15.233
202.04	-20.673
202.41	-9.081
202.78	-14.950
203.15	-12.177
203.51	-26.365
203.88	-17.412
204.25	-17.171
204.62	-0.682
204.98	0.110
205.35	-9.360
205.72	-4.517
206.09	17.997
206.46	31.728
206.82	37.949
207.19	28.374
207.56	34.160
207.92	24.990
208.29	-1.222
208.66	-23.031
209.03	-15.793
209.39	-30.583
209.76	-24.726
210.13	-40.354
210.50	-44.129
210.86	-23.574
211.23	-19.260
211.60	-11.680
211.96	-15.004
212.33	1.262
212.70	15.410
213.07	14.150
213.43	17.473
213.80	17.698
214.17	32.689
214.53	28.779
214.90	25.511
215.27	24.826
215.63	14.876
216.00	13.784
216.37	21.430
216.74	21.383
217.10	19.106
217.47	25.675
217.84	16.357
218.20	-16.589
218.57	-35.326
218.94	-21.731
219.30	-21.528
219.67	-12.104
220.04	-10.976
220.40	-26.926
220.77	-25.078
221.13	-26.745
221.50	-32.333
221.87	-23.710
222.23	-27.932
222.60	-11.344
222.97	-18.857
223.33	-14.855
223.70	-16.519
224.07	-12.308
224.43	-7.847
224.80	-12.905
225.16	-3.452
225.53	-0.363
225.90	-2.736
226.26	-0.774
226.63	-5.689
226.99	-2.750
227.36	-2.267
227.73	-4.162
228.09	-8.032
228.46	-8.043
228.82	-3.365
229.19	-7.445
229.56	-8.950
229.92	-7.368
230.29	-5.403
230.65	-3.375
231.02	-3.127
231.38	-3.137
231.75	0.886
232.12	2.292
232.48	1.493
232.85	-2.518
233.21	-0.004
233.58	0.018
233.94	-1.370
234.31	-8.247
234.68	-7.701
235.04	-7.484
235.41	-7.407
235.77	-9.707
236.14	-7.586
236.50	-5.876
236.87	-4.411
237.23	-4.336
237.60	-5.009
237.96	-3.521
238.33	-0.424
238.69	-0.055
239.06	-0.178
239.42	-0.047
239.79	0.100
240.15	0.101
240.52	0.531
240.88	0.341
241.25	-0.082
241.61	1.160
241.98	0.072
242.34	0.516
242.71	0.669
243.07	0.848
243.44	1.203
243.80	1.539
244.17	1.360
244.53	0.825
244.90	0.541
245.26	1.109
245.63	0.791
245.99	1.129
246.36	0.675
246.72	0.723
247.09	0.556
247.45	0.310
247.81	0.042
248.18	0.136
248.54	0.327
248.91	0.421
249.27	0.077
249.64	0.330
250.00	-0.229
250.36	0.034
250.73	0.029
251.09	0.036
251.46	-0.159
251.82	0.102
252.19	-0.303
252.55	-0.645
252.91	-0.696
253.28	-0.065
253.64	0.828
254.01	1.288
254.37	1.179
254.73	0.776
255.10	1.472
255.46	1.698
255.83	1.762
256.19	1.557
256.55	1.612
256.92	1.506
257.28	1.162
257.65	0.828
258.01	1.185
258.37	1.216
258.74	1.353
259.10	1.182
259.46	1.077
259.83	1.024
260.19	1.219
260.55	1.498
260.92	1.537
261.28	1.613
261.64	1.713
262.01	1.525
262.37	1.674
262.73	1.586
263.10	1.023
263.46	1.174
263.82	1.060
264.19	1.209
264.55	1.451
264.91	1.680
265.28	1.626
265.64	1.581
266.00	1.187
266.37	1.386
266.73	1.345
267.09	1.552
267.46	1.509
267.82	1.746
268.18	1.753
268.54	1.220
268.91	0.634
269.27	0.655
269.63	0.750
270.00	1.137
270.36	1.159
270.72	0.760
271.08	1.059
271.45	0.930
271.81	0.500
272.17	0.150
272.53	0.281
272.90	0.835
273.26	0.801
273.62	0.617
273.98	0.359
274.35	-0.030
274.71	0.242
275.07	-0.030
275.43	0.098
275.80	0.297
276.16	0.228
276.52	0.378
276.88	0.130
277.25	0.034
277.61	0.063
277.97	-0.076
278.33	0.108
278.69	0.426
279.06	-0.105
279.42	-0.232
279.78	-0.490
280.14	-0.138
280.50	-0.492
280.87	-0.130
281.23	0.102
281.59	0.225
281.95	0.312
282.31	0.293
282.68	0.113
283.04	0.510
283.40	0.486
283.76	0.678
284.12	0.862
284.48	0.927
284.85	0.705
285.21	0.339
285.57	0.184
285.93	0.594
286.29	0.749
286.65	0.714
287.02	0.582
287.38	0.744
287.74	0.760
288.10	0.653
288.46	0.830
288.82	0.969
289.18	1.351
289.54	1.333
289.91	0.969
290.27	0.699
290.63	0.474
290.99	0.783
291.35	0.750
291.71	0.831
292.07	0.752
292.43	0.481
292.79	0.460
293.16	0.319
293.52	0.245
293.88	0.404
294.24	0.361
294.60	0.650
294.96	0.404
295.32	0.450
295.68	0.441
296.04	0.374
296.40	0.326
296.76	0.134
297.12	0.080
297.49	0.127
297.85	-0.000
298.21	0.075
298.57	-0.113
298.93	-0.075
299.29	-0.329
299.65	-0.419
300.01	-0.188
300.37	0.130
300.73	0.346
301.09	0.316
301.45	0.244
301.81	0.089
302.17	0.086
302.53	0.125
302.89	0.076
303.25	0.209
303.61	0.216
303.97	-0.186
304.33	-0.430
304.69	-0.444
305.05	-0.516
305.41	-0.381
305.77	-0.270
306.13	-0.122
306.49	-0.329
306.85	-0.226
307.21	-0.212
307.57	-0.355
307.93	-0.238
308.29	-0.141
308.65	-0.299
309.01	-0.313
309.37	-0.359
309.73	-0.381
310.09	-0.742
310.45	-0.670
310.81	-0.834
311.17	-0.921
311.53	-0.927
311.89	-1.117
312.25	-1.238
312.61	-1.384
312.96	-1.373
313.32	-1.477
313.68	-1.677
314.04	-1.582
314.40	-1.798
314.76	-1.862
315.12	-2.163
315.48	-2.301
315.84	-2.480
316.20	-2.615
316.56	-2.726
316.92	-2.740
317.27	-2.920
317.63	-2.897
317.99	-2.985
318.35	-2.809
318.71	-2.867
319.07	-2.687
319.43	-2.685
319.79	-2.578
320.15	-2.807
320.50	-2.751
320.86	-3.051
321.22	-3.116
321.58	-3.157
321.94	-3.133
322.30	-3.258
322.66	-3.162
323.01	-3.272
323.37	-3.231
323.73	-3.342
324.09	-3.176
324.45	-3.393
324.81	-3.331
325.17	-3.262
325.52	-3.448
325.88	-3.650
326.24	-3.636
326.60	-3.869
326.96	-3.895
327.31	-4.033
327.67	-4.051
328.03	-4.256
328.39	-4.241
328.75	-4.328
329.11	-4.360
329.46	-4.383
329.82	-4.240
330.18	-4.318
330.54	-4.305
330.90	-4.248
331.25	-4.102
331.61	-3.979
331.97	-3.934
332.33	-3.913
332.68	-3.805
333.04	-3.855
333.40	-3.662
333.76	-3.637
334.11	-3.561
334.47	-3.542
334.83	-3.636
335.19	-3.785
335.54	-3.788
335.90	-3.719
336.26	-3.618
336.62	-3.665
336.97	-3.846
337.33	-4.015
337.69	-4.188
338.05	-4.200
338.40	-4.206
338.76	-4.294
339.12	-4.405
339.48	-4.397
339.83	-4.458
340.19	-4.486
340.55	-4.480
340.90	-4.431
341.26	-4.267
341.62	-4.203
341.97	-4.243
342.33	-4.171
342.69	-4.042
343.04	-3.935
343.40	-3.980
343.76	-3.957
344.12	-3.947
344.47	-3.975
344.83	-3.907
345.19	-3.994
345.54	-4.050
345.90	-4.085
346.26	-4.134
346.61	-4.207
346.97	-4.305
347.32	-4.422
347.68	-4.592
348.04	-4.716
348.39	-4.702
348.75	-4.870
349.11	-5.022
349.46	-5.120
349.82	-5.123
350.18	-5.171
350.53	-5.185
350.89	-5.266
351.24	-5.151
351.60	-5.115
351.96	-5.030
352.31	-5.087
352.67	-4.929
353.02	-4.858
353.38	-4.696
353.74	-4.695
354.09	-4.623
354.45	-4.619
354.80	-4.467
355.16	-4.517
355.52	-4.306
355.87	-4.286
356.23	-4.241
356.58	-4.278
356.94	-4.288
357.29	-4.277
357.65	-4.203
358.00	-4.226
358.36	-4.197
358.72	-4.195
359.07	-4.226
359.43	-4.321
359.78	-4.295
360.14	-4.364
360.49	-4.420
360.85	-4.461
361.20	-4.639
361.56	-4.868
361.91	-4.977
362.27	-5.033
362.62	-5.109
362.98	-5.218
363.33	-5.285
363.69	-5.412
364.04	-5.484
364.40	-5.635
364.75	-5.682
365.11	-5.677
365.46	-5.604
365.82	-5.654
366.17	-5.768
366.53	-5.808
366.88	-5.791
367.24	-5.814
367.59	-5.776
367.95	-5.760
368.30	-5.624
368.66	-5.600
369.01	-5.508
369.37	-5.424
369.72	-5.338
370.08	-5.197
370.43	-5.127
370.78	-4.979
371.14	-4.883
371.49	-4.885
371.85	-4.791
372.20	-4.779
372.56	-4.821
372.91	-4.923
373.26	-5.090
373.62	-5.236
373.97	-5.360
374.33	-5.389
374.68	-5.529
375.03	-5.662
375.39	-5.709
375.74	-5.825
376.10	-5.860
376.45	-5.748
376.80	-5.737
377.16	-5.569
377.51	-5.409
377.87	-5.284
378.22	-5.199
378.57	-5.094
378.93	-5.004
379.28	-4.811
379.63	-4.611
379.99	-4.403
380.34	-4.305
380.70	-4.097
381.05	-3.990
381.40	-3.878
381.76	-3.840
382.11	-3.814
382.46	-3.737
382.82	-3.669
383.17	-3.707
383.52	-3.726
383.88	-3.782
384.23	-3.843
384.58	-3.912
384.94	-4.006
385.29	-4.088
385.64	-4.100
385.99	-4.149
386.35	-4.212
386.70	-4.258
387.05	-4.282
387.41	-4.271
387.76	-4.214
388.11	-4.154
388.47	-4.058
388.82	-3.943
389.17	-3.775
389.52	-3.682
389.88	-3.505
390.23	-3.352
390.58	-3.149
390.93	-2.943
391.29	-2.770
391.64	-2.681
391.99	-2.573
392.34	-2.514
392.70	-2.498
393.05	-2.507
393.40	-2.495
393.75	-2.516
394.11	-2.597
394.46	-2.716
394.81	-2.909
395.16	-3.040
395.52	-3.203
395.87	-3.424
396.22	-3.642
396.57	-3.865
396.92	-4.141
397.28	-4.303
397.63	-4.546
397.98	-4.724
398.33	-4.902
398.68	-4.970
399.04	-5.060
399.39	-5.144
399.74	-5.023
400.09	-4.972
400.44	-4.822
400.80	-4.649
401.15	-4.572
401.50	-4.431
401.85	-4.261
402.20	-4.098
402.55	-4.027
402.90	-3.979
403.26	-3.884
403.61	-3.942
403.96	-3.905
404.31	-3.909
404.66	-3.973
405.01	-3.943
405.36	-4.024
405.72	-4.100
406.07	-4.165
406.42	-4.205
406.77	-4.218
407.12	-4.225
407.47	-4.209
407.82	-4.225
408.17	-4.302
408.53	-4.302
408.88	-4.405
409.23	-4.381
409.58	-4.397
409.93	-4.419
410.28	-4.469
410.63	-4.519
410.98	-4.534
411.33	-4.517
411.68	-4.478
412.03	-4.373
412.38	-4.267
412.73	-4.034
413.09	-3.855
413.44	-3.637
413.79	-3.397
414.14	-3.052
414.49	-2.768
414.84	-2.481
415.19	-2.165
415.54	-1.886
415.89	-1.613
416.24	-1.357
416.59	-1.125
416.94	-0.910
417.29	-0.719
417.64	-0.543
417.99	-0.432
418.34	-0.307
418.69	-0.214
419.04	-0.148
419.39	-0.075
419.74	-0.005
420.09	0.057
420.44	0.057
420.79	0.068
421.14	0.056
421.49	0.031
421.84	0.003
422.19	-0.045
422.54	-0.098
422.89	-0.188
423.24	-0.310
423.59	-0.445
423.94	-0.641
424.29	-0.817
424.64	-0.993
424.99	-1.203
425.34	-1.383
425.68	-1.572
426.03	-1.760
426.38	-1.936
426.73	-2.080
427.08	-2.160
427.43	-2.222
427.78	-2.187
428.13	-2.141
428.48	-2.104
428.83	-2.059
429.18	-2.010
429.53	-1.964
429.87	-1.939
430.22	-1.904
430.57	-1.886
430.92	-1.880
431.27	-1.939
431.62	-2.015
431.97	-2.110
432.32	-2.218
432.67	-2.305
433.01	-2.403
433.36	-2.537
433.71	-2.630
434.06	-2.707
434.41	-2.758
434.76	-2.775
435.11	-2.701
435.45	-2.622
435.80	-2.514
436.15	-2.390
436.50	-2.267
436.85	-2.164
437.20	-2.038
437.54	-1.950
437.89	-1.906
438.24	-1.857
438.59	-1.872
438.94	-1.933
439.29	-1.984
439.63	-2.063
439.98	-2.127
440.33	-2.147
440.68	-2.176
441.03	-2.138
441.37	-2.090
441.72	-1.959
442.07	-1.807
442.42	-1.623
442.76	-1.403
443.11	-1.219
443.46	-1.037
443.81	-0.876
444.16	-0.761
444.50	-0.675
444.85	-0.646
445.20	-0.650
445.55	-0.736
445.89	-0.848
446.24	-1.010
446.59	-1.209
446.94	-1.388
447.28	-1.603
447.63	-1.827
447.98	-2.031
448.32	-2.197
448.67	-2.348
449.02	-2.393
449.37	-2.421
449.71	-2.401
450.06	-2.305
450.41	-2.196
450.75	-2.115
451.10	-2.020
451.45	-1.974
451.79	-1.945
452.14	-1.905
452.49	-1.918
452.84	-1.944
453.18	-1.934
453.53	-1.906
453.88	-1.867
454.22	-1.807
454.57	-1.676
454.92	-1.492
455.26	-1.238
455.61	-1.029
455.95	-0.782
456.30	-0.536
456.65	-0.317
456.99	-0.122
457.34	0.023
457.69	0.130
458.03	0.207
458.38	0.209
458.73	0.152
459.07	0.015
459.42	-0.124
459.76	-0.332
460.11	-0.552
460.46	-0.785
460.80	-1.074
461.15	-1.350
461.49	-1.577
461.84	-1.794
462.19	-1.958
462.53	-2.038
462.88	-2.048
463.22	-2.019
463.57	-1.976
463.91	-1.919
464.26	-1.858
464.61	-1.741
464.95	-1.648
465.30	-1.611
465.64	-1.589
465.99	-1.618
466.33	-1.665
466.68	-1.740
467.02	-1.809
467.37	-1.893
467.71	-1.971
468.06	-2.069
468.41	-2.183
468.75	-2.311
469.10	-2.447
469.44	-2.599
469.79	-2.682
470.13	-2.786
470.48	-2.868
470.82	-2.961
471.17	-3.039
471.51	-3.119
471.86	-3.184
472.20	-3.273
472.55	-3.349
472.89	-3.377
473.23	-3.380
473.58	-3.419
473.92	-3.391
474.27	-3.383
474.61	-3.372
474.96	-3.343
475.30	-3.329
475.65	-3.302
475.99	-3.249
476.34	-3.185
476.68	-3.119
477.02	-3.044
477.37	-2.908
477.71	-2.737
478.06	-2.452
478.40	-1.950
478.75	-1.305
479.09	-0.647
479.43	-0.028
479.78	0.538
480.12	1.045
480.47	1.483
480.81	1.876
481.15	2.239
481.50	2.543
481.84	2.827
482.19	3.052
482.53	3.199
482.87	3.283
483.22	3.282
483.56	3.230
483.90	3.139
484.25	3.048
484.59	2.947
484.94	2.822
485.28	2.687
485.62	2.511
485.97	2.316
486.31	2.147
486.65	2.013
487.00	1.938
487.34	1.877
487.68	1.841
488.03	1.791
488.37	1.738
488.71	1.673
489.06	1.630
489.40	1.596
489.74	1.553
490.09	1.479
490.43	1.369
490.77	1.209
491.11	1.033
491.46	0.849
491.80	0.639
492.14	0.446
492.49	0.257
492.83	0.022
493.17	-0.189
493.51	-0.373
493.86	-0.511
494.20	-0.592
494.54	-0.560
494.88	-0.467
495.23	-0.328
495.57	-0.182
495.91	-0.058
496.25	0.054
496.60	0.187
496.94	0.274
497.28	0.338
497.62	0.394
497.97	0.435
498.31	0.473
498.65	0.537
498.99	0.572
499.33	0.652
499.68	0.753
500.02	0.848
500.36	0.960
500.70	1.083
501.04	1.224
501.39	1.391
501.73	1.580
502.07	1.776
502.41	1.981
502.75	2.155
503.09	2.373
503.44	2.578
503.78	2.820
504.12	3.055
504.46	3.320
504.80	3.595
505.14	3.846
505.49	4.127
505.83	4.384
506.17	4.625
506.51	4.899
506.85	5.137
507.19	5.362
507.53	5.597
507.87	5.808
508.22	6.004
508.56	6.174
508.90	6.347
509.24	6.501
509.58	6.680
509.92	6.848
510.26	7.010
510.60	7.131
510.94	7.279
511.28	7.424
511.63	7.578
511.97	7.767
512.31	7.981
512.65	8.217
512.99	8.493
513.33	8.793
513.67	9.126
514.01	9.453
514.35	9.866
514.69	10.238
515.03	10.601
515.37	10.954
515.71	11.264
516.05	11.543
516.39	11.774
516.73	11.963
517.07	12.119
517.41	12.242
517.75	12.322
518.09	12.346
518.43	12.378
518.77	12.365
519.11	12.366
519.45	12.354
519.79	12.325
520.13	12.365
520.47	12.438
520.81	12.557
521.15	12.705
521.49	12.914
521.83	13.169
522.17	13.452
522.51	13.785
522.85	14.126
523.19	14.591
523.53	15.177
523.87	15.748
524.21	16.276
524.55	16.743
524.89	17.163
525.23	17.568
525.57	17.907
525.91	18.188
526.25	18.444
526.58	18.681
526.92	18.841
527.26	18.933
527.60	18.976
527.94	18.984
528.28	18.957
528.62	18.918
528.96	18.842
529.30	18.755
529.64	18.682
529.97	18.581
530.31	18.477
530.65	18.398
530.99	18.331
531.33	18.284
531.67	18.270
532.01	18.271
532.35	18.248
532.68	18.220
533.02	18.180
533.36	18.125
533.70	18.062
534.04	17.996
534.38	17.910
534.71	17.833
535.05	17.763
535.39	17.697
535.73	17.674
536.07	17.719
536.41	17.815
536.74	17.993
537.08	18.186
537.42	18.414
537.76	18.663
538.10	18.933
538.43	19.202
538.77	19.438
539.11	19.637
539.45	19.799
539.79	19.950
540.12	20.090
540.46	20.148
540.80	20.178
541.14	20.191
541.47	20.164
541.81	20.105
542.15	20.009
542.49	19.917
542.82	19.838
543.16	19.753
543.50	19.643
543.84	19.505
544.17	19.448
544.51	19.405
544.85	19.370
545.18	19.340
545.52	19.317
545.86	19.285
546.20	19.215
546.53	19.135
546.87	19.109
547.21	19.076
547.54	19.064
547.88	19.010
548.22	19.019
548.55	19.041
548.89	19.093
549.23	19.168
549.56	19.269
549.90	19.407
550.24	19.518
550.57	19.615
550.91	19.747
551.25	19.884
551.58	20.026
551.92	20.132
552.26	20.208
552.59	20.294
552.93	20.351
553.27	20.424
553.60	20.520
553.94	20.630
554.27	20.753
554.61	20.850
554.95	20.964
555.28	21.078
555.62	21.189
555.95	21.358
556.29	21.526
556.63	21.706
556.96	21.852
557.30	21.962
557.63	22.096
557.97	22.215
558.31	22.349
558.64	22.440
558.98	22.542
559.31	22.652
559.65	22.751
559.98	22.836
560.32	22.914
560.65	23.044
560.99	23.229
561.33	23.413
561.66	23.543
562.00	23.690
562.33	23.846
562.67	24.029
563.00	24.184
563.34	24.345
563.67	24.538
564.01	24.729
564.34	24.850
564.68	24.950
565.01	25.028
565.35	25.162
565.68	25.263
566.02	25.381
566.35	25.446
566.69	25.565
567.02	25.640
567.36	25.698
567.69	25.753
568.03	25.838
568.36	25.949
568.69	26.054
569.03	26.131
569.36	26.236
569.70	26.315
570.03	26.407
570.37	26.475
570.70	26.512
571.04	26.574
571.37	26.624
571.70	26.700
572.04	26.745
572.37	26.787
572.71	26.827
573.04	26.852
573.37	26.879
573.71	26.905
574.04	26.896
574.38	26.942
574.71	26.931
575.04	26.923
575.38	26.871
575.71	26.807
576.05	26.746
576.38	26.704
576.71	26.649
577.05	26.583
577.38	26.535
577.71	26.531
578.05	26.491
578.38	26.443
578.71	26.451
579.05	26.458
579.38	26.481
579.71	26.520
580.05	26.511
580.38	26.501
580.71	26.525
581.05	26.557
581.38	26.553
581.71	26.605
582.05	26.632
582.38	26.673
582.71	26.730
583.04	26.775
583.38	26.834
583.71	26.929
584.04	26.994
584.38	27.028
584.71	27.095
585.04	27.149
585.37	27.231
585.71	27.371
586.04	27.436
586.37	27.543
586.70	27.670
587.04	27.727
587.37	27.728
587.70	27.829
588.03	27.903
588.37	27.977
588.70	28.056
589.03	28.084
589.36	28.086
589.69	28.119
590.03	28.073
590.36	28.013
590.69	28.017
591.02	28.025
591.35	28.016
591.69	28.040
592.02	28.011
592.35	28.057
592.68	28.073
593.01	28.145
593.35	28.172
593.68	28.257
594.01	28.301
594.34	28.370
594.67	28.437
595.00	28.509
595.34	28.573
595.67	28.641
596.00	28.639
596.33	28.655
596.66	28.605
596.99	28.569
597.32	28.518
597.65	28.486
597.99	28.390
598.32	28.331
598.65	28.258
598.98	28.179
599.31	28.142
599.64	28.109
599.97	28.108
600.30	28.148
600.63	28.190
600.96	28.280
601.30	28.305
601.63	28.340
601.96	28.420
602.29	28.426
602.62	28.462
602.95	28.454
603.28	28.459
603.61	28.420
603.94	28.364
604.27	28.251
604.60	28.130
604.93	28.059
605.26	27.951
605.59	27.815
605.92	27.682
606.25	27.584
606.58	27.473
606.91	27.392
607.24	27.321
607.57	27.245
607.90	27.203
608.23	27.101
608.56	27.003
608.89	26.933
609.22	26.823
609.55	26.681
609.88	26.521
610.21	26.401
610.54	26.199
610.87	25.996
611.20	25.796
611.53	25.624
611.86	25.448
612.19	25.289
612.52	25.127
612.85	25.003
613.18	24.913
613.51	24.776
613.84	24.645
614.17	24.545
614.49	24.440
614.82	24.305
615.15	24.172
615.48	24.050
615.81	23.962
616.14	23.850
616.47	23.740
616.80	23.669
617.13	23.586
617.46	23.455
617.78	23.346
618.11	23.250
618.44	23.188
618.77	23.103
619.10	23.059
619.43	22.949
619.76	22.874
620.09	22.801
620.41	22.701
620.74	22.629
621.07	22.567
621.40	22.547
621.73	22.597
622.06	22.632
622.38	22.652
622.71	22.673
623.04	22.747
623.37	22.803
623.70	22.820
624.02	22.908
624.35	22.984
624.68	23.077
625.01	23.160
625.34	23.187
625.66	23.188
625.99	23.229
626.32	23.252
626.65	23.254
626.98	23.253
627.30	23.268
627.63	23.233
627.96	23.176
628.29	23.086
628.61	23.033
628.94	22.918
629.27	22.891
629.60	22.876
629.92	22.799
630.25	22.683
630.58	22.632
630.91	22.552
631.23	22.460
631.56	22.388
631.89	22.322
632.21	22.211
632.54	22.149
632.87	22.061
633.19	21.932
633.52	21.817
633.85	21.712
634.18	21.499
634.50	21.307
634.83	21.081
635.16	20.857
635.48	20.707
635.81	20.473
636.14	20.214
636.46	19.912
636.79	19.607
637.11	19.290
637.44	19.033
637.77	18.773
638.09	18.517
638.42	18.319
638.75	18.059
639.07	17.697
639.40	17.419
639.73	17.169
640.05	16.864
640.38	16.616
640.70	16.340
641.03	16.006
641.36	15.753
641.68	15.434
642.01	15.137
642.33	14.906
642.66	14.639
642.98	14.392
643.31	14.095
643.64	13.883
643.96	13.626
644.29	13.443
644.61	13.253
644.94	13.069
645.26	12.959
645.59	12.766
645.91	12.539
646.24	12.424
646.56	12.200
646.89	12.067
647.22	11.922
647.54	11.765
647.87	11.628
648.19	11.475
648.52	11.303
648.84	11.128
649.17	10.990
649.49	10.867
649.82	10.695
650.14	10.682
650.47	10.570
650.79	10.427
651.11	10.377
651.44	10.227
651.76	10.141
652.09	10.066
652.41	9.980
652.74	9.881
653.06	9.820
653.39	9.745
653.71	9.663
654.04	9.660
654.36	9.599
654.68	9.511
655.01	9.409
655.33	9.344
655.66	9.229
655.98	9.094
656.30	9.012
656.63	8.854
656.95	8.735
657.28	8.538
657.60	8.361
657.92	8.169
658.25	7.927
658.57	7.694
658.90	7.391
659.22	7.090
659.54	6.841
659.87	6.480
660.19	6.109
660.51	5.711
660.84	5.283
661.16	4.779
661.48	4.344
661.81	3.994
662.13	3.681
662.45	3.331
662.78	3.034
663.10	2.687
663.42	2.436
663.75	2.252
664.07	2.087
664.39	1.929
664.72	1.822
665.04	1.709
665.36	1.572
665.69	1.433
666.01	1.338
666.33	1.238
666.65	1.137
666.98	1.078
667.30	0.993
667.62	0.896
667.94	0.781
668.27	0.627
668.59	0.510
668.91	0.380
669.23	0.236
669.56	0.222
669.88	0.181
670.20	0.131
670.52	0.050
670.85	-0.011
671.17	-0.111
671.49	-0.141
671.81	-0.105
672.13	-0.110
672.46	-0.092
672.78	-0.116
673.10	-0.145
673.42	-0.176
673.74	-0.179
674.07	-0.131
674.39	-0.066
674.71	0.043
675.03	0.091
675.35	0.241
675.67	0.369
676.00	0.524
676.32	0.812
676.64	0.988
676.96	1.216
677.28	1.438
677.60	1.612
677.92	1.801
678.25	2.012
678.57	2.293
678.89	2.451
679.21	2.719
679.53	2.921
679.85	3.077
680.17	3.296
680.49	3.597
680.81	3.870
681.13	4.163
681.46	4.521
681.78	4.877
682.10	5.282
682.42	5.726
682.74	6.255
683.06	6.829
683.38	7.479
683.70	8.167
684.02	8.790
684.34	9.568
684.66	10.350
684.98	11.150
685.30	12.012
685.62	12.767
685.94	13.663
686.26	14.440
686.58	15.200
686.90	16.071
687.22	16.862
687.54	17.693
687.86	18.474
688.18	19.285
688.50	20.139
688.82	21.073
689.14	22.048
689.46	23.016
689.78	23.959
690.10	24.957
690.42	25.955
690.74	27.082
691.06	28.185
691.38	29.214
691.70	30.343
692.02	31.392
692.34	32.410
692.66	33.440
692.98	34.528
693.30	35.651
693.62	36.925
693.94	38.000
694.26	39.024
694.57	39.935
694.89	40.947
695.21	41.778
695.53	42.647
695.85	43.427
696.17	44.200
696.49	44.867
696.81	45.450
697.13	46.031
697.44	46.691
697.76	47.301
698.08	47.955
698.40	48.616
698.72	49.310
699.04	49.862
699.36	50.568
699.67	51.264
699.99	51.881
700.31	52.623
700.63	53.253
700.95	53.816
701.27	54.397
701.58	55.038
701.90	55.502
702.22	56.027
702.54	56.592
702.86	57.006
703.17	57.315
703.49	57.898
703.81	58.335
704.13	58.744
704.45	59.133
704.76	59.556
705.08	59.884
705.40	60.342
705.72	60.734
706.03	61.124
706.35	61.406
706.67	61.762
706.99	61.982
707.30	62.340
707.62	62.706
707.94	63.190
708.26	63.550
708.57	63.704
708.89	63.950
709.21	64.145
709.53	64.420
709.84	64.712
710.16	65.049
710.48	65.356
710.79	65.672
711.11	66.036
711.43	66.218
711.74	66.422
712.06	66.862
712.38	67.111
712.69	67.423
713.01	67.703
713.33	67.901
713.64	68.213
713.96	68.350
714.28	68.692
714.59	68.928
714.91	69.231
715.23	69.602
715.54	69.928
715.86	70.296
716.17	70.543
716.49	70.730
716.81	71.079
717.12	71.133
717.44	71.555
717.76	71.648
718.07	71.895
718.39	72.026
718.70	72.028
719.02	72.006
719.33	71.943
719.65	72.058
719.97	72.250
720.28	72.294
720.60	72.618
720.91	72.506
721.23	72.629
721.54	72.515
721.86	72.611
722.17	72.700
722.49	72.791
722.81	72.934
723.12	73.060
723.44	73.115
723.75	73.319
724.07	73.137
724.38	73.244
724.70	73.243
725.01	73.356
725.33	73.344
725.64	73.432
725.96	73.518
726.27	73.604
726.59	73.701
726.90	73.794
727.22	73.755
727.53	74.052
727.84	74.224
728.16	74.279
728.47	74.425
728.79	74.563
729.10	74.575
729.42	74.735
729.73	74.867
730.05	74.884
730.36	74.900
730.67	74.926
730.99	74.709
731.30	74.773
731.62	75.075
731.93	75.091
732.24	75.104
732.56	75.120
732.87	75.030
733.19	74.949
733.50	75.068
733.81	75.131
734.13	75.329
734.44	75.345
734.76	75.200
735.07	75.153
735.38	75.118
735.70	74.878
736.01	74.912
736.32	74.741
736.64	74.596
736.95	74.288
737.26	74.175
737.58	73.916
737.89	74.116
738.20	74.071
738.52	73.786
738.83	73.651
739.14	73.855
739.45	73.732
739.77	74.015
740.08	74.053
740.39	74.172
740.71	74.199
741.02	74.274
741.33	74.184
741.64	74.172
741.96	74.172
742.27	74.127
742.58	73.888
742.90	73.841
743.21	73.679
743.52	73.580
743.83	73.397
744.14	73.290
744.46	73.280
744.77	73.089
745.08	73.011
745.39	72.947
745.71	72.819
746.02	72.998
746.33	73.060
746.64	72.937
746.95	72.821
747.27	72.925
747.58	72.869
747.89	72.984
748.20	73.201
748.51	73.316
748.82	73.342
749.14	73.381
749.45	73.386
749.76	73.439
750.07	73.415
750.38	73.317
750.69	73.364
751.01	73.494
751.32	73.445
751.63	73.428
751.94	73.403
752.25	73.507
752.56	73.601
752.87	73.157
753.18	72.891
753.49	72.998
753.81	73.151
754.12	73.135
754.43	73.175
754.74	73.082
755.05	72.999
755.36	73.187
755.67	73.322
755.98	73.580
756.29	74.397
756.60	74.746
756.91	74.932
757.22	75.307
757.53	75.529
757.84	75.700
758.15	75.966
758.46	76.234
758.77	76.290
759.09	76.505
759.40	76.704
759.71	76.593
760.02	76.560
760.33	76.778
760.64	76.742
760.95	76.900
761.26	76.853
761.57	76.919
761.88	76.948
762.18	76.944
762.49	76.940
762.80	76.693
763.11	76.545
763.42	76.595
763.73	76.292
764.04	76.061
764.35	75.715
764.66	75.635
764.97	75.246
765.28	74.673
765.59	74.407
765.90	73.825
766.21	73.513
766.52	72.975
766.83	72.347
767.14	71.994
767.44	71.820
767.75	71.428
768.06	70.990
768.37	70.716
768.68	70.711
768.99	70.800
769.30	70.570
769.61	70.518
769.91	70.734
770.22	70.819
770.53	70.788
770.84	70.416
771.15	70.556
771.46	70.407
771.77	70.400
772.07	70.812
772.38	70.056
772.69	69.959
773.00	69.772
773.31	69.648
773.61	69.832
773.92	69.471
774.23	69.502
774.54	69.013
774.85	69.128
775.15	69.104
775.46	68.646
775.77	69.119
776.08	68.786
776.39	68.439
776.69	68.531
777.00	68.233
777.31	68.360
777.62	68.418
777.92	68.414
778.23	68.193
778.54	68.126
778.85	68.197
779.15	67.678
779.46	68.016
779.77	68.325
780.07	67.992
780.38	67.694
780.69	67.695
781.00	67.704
781.30	67.709
781.61	67.914
781.92	68.049
782.22	67.951
782.53	68.366
782.84	68.178
783.14	68.576
783.45	68.758
783.76	68.911
784.06	69.196
784.37	69.583
784.68	69.848
784.98	69.909
785.29	70.016
785.60	70.346
785.90	70.421
786.21	70.754
786.51	70.739
786.82	70.653
787.13	71.112
787.43	71.083
787.74	71.256
788.04	71.483
788.35	71.544
788.66	71.665
788.96	71.472
789.27	71.247
789.57	71.555
789.88	70.923
790.19	71.237
790.49	71.005
790.80	70.784
791.10	70.540
791.41	70.368
791.71	70.541
792.02	70.463
792.32	70.229
792.63	70.393
792.93	69.969
793.24	70.534
793.54	70.100
793.85	69.967
794.15	70.108
794.46	69.854
794.76	70.281
795.07	70.029
795.37	70.055
795.68	70.433
795.98	70.297
796.29	70.455
796.59	70.525
796.90	70.824
797.20	71.103
797.51	71.080
797.81	70.984
798.12	70.841
798.42	70.928
798.72	70.619
799.03	70.571
799.33	70.724
799.64	70.539
799.94	70.304
800.25	70.399
800.55	70.048
800.85	70.100
801.16	70.512
801.46	70.426
801.77	69.982
802.07	69.880
802.37	69.267
802.68	69.498
802.98	69.709
803.28	69.774
803.59	69.971
803.89	70.362
804.20	70.521
804.50	70.427
804.80	70.250
805.11	70.794
805.41	71.148
805.71	71.783
806.02	71.424
806.32	71.701
806.62	71.918
806.93	71.738
807.23	71.473
807.53	71.738
807.83	71.804
808.14	72.092
808.44	71.787
808.74	71.945
809.05	72.048
809.35	72.043
809.65	71.640
809.95	71.444
810.26	71.815
810.56	71.802
810.86	71.720
811.16	71.793
811.47	71.999
811.77	72.728
812.07	72.694
812.37	73.036
812.68	73.464
812.98	73.784
813.28	73.975
813.58	73.799
813.88	74.139
814.19	74.428
814.49	74.462
814.79	73.935
815.09	74.284
815.39	74.758
815.70	74.379
816.00	74.466
816.30	74.965
816.60	74.742
816.90	74.736
817.20	75.250
817.50	75.024
817.81	74.893
818.11	75.045
818.41	74.947
818.71	75.033
819.01	75.420
819.31	75.576
819.61	75.631
819.92	75.822
820.22	76.093
820.52	76.179
820.82	76.496
821.12	76.852
821.42	77.194
821.72	77.552
822.02	77.927
822.32	78.220
822.62	78.553
822.92	78.898
823.22	79.236
823.52	79.423
823.83	79.676
824.13	79.761
824.43	79.763
824.73	79.798
825.03	79.716
825.33	79.363
825.63	79.137
825.93	78.876
826.23	78.646
826.53	78.709
826.83	78.620
827.13	78.668
827.43	78.687
827.73	78.854
828.03	78.956
828.33	78.838
828.63	79.154
828.93	79.064
829.23	78.907
829.53	78.586
829.83	77.661
830.13	77.458
830.42	76.988
830.72	76.811
831.02	76.325
831.32	75.947
831.62	76.111
831.92	75.867
832.22	75.820
832.52	76.028
832.82	76.150
833.12	76.630
833.42	76.998
833.72	77.006
834.01	77.082
834.31	77.420
834.61	77.646
834.91	77.433
835.21	77.437
835.51	78.020
835.81	77.682
836.11	77.661
836.40	77.424
836.70	76.430
837.00	76.128
837.30	75.802
837.60	75.218
837.90	74.338
838.19	74.201
838.49	74.424
838.79	73.151
839.09	73.708
839.39	73.504
839.68	73.453
839.98	73.943
840.28	74.249
840.58	73.963
840.88	73.742
841.17	74.557
841.47	74.133
841.77	73.869
842.07	74.630
842.36	73.888
842.66	73.390
842.96	73.167
843.26	72.600
843.55	71.437
843.85	71.097
844.15	71.789
844.45	69.948
844.74	69.491
845.04	68.044
845.34	66.290
845.63	66.711
845.93	66.903
846.23	65.078
846.53	65.339
846.82	65.959
847.12	65.235
847.42	64.899
847.71	64.673
848.01	65.720
848.31	67.324
848.60	68.179
848.90	67.246
849.19	67.310
849.49	67.716
849.79	66.246
850.08	66.707
850.38	66.155
850.68	65.965
850.97	65.684
851.27	65.663
851.56	65.730
851.86	64.894
852.16	65.995
852.45	66.146
852.75	66.444
853.04	67.738
853.34	67.236
853.64	69.295
853.93	68.753
854.23	69.584
854.52	69.299
854.82	68.042
855.11	67.723
855.41	66.400
855.70	65.788
856.00	66.402
856.30	64.870
856.59	64.518
856.89	64.449
857.18	65.299
857.48	66.009
857.77	67.311
858.07	67.105
858.36	68.352
858.66	69.460
858.95	70.155
859.25	71.418
859.54	71.885
859.84	72.995
860.13	72.307
860.42	72.162
860.72	70.524
861.01	68.188
861.31	68.680
861.60	68.316
861.90	66.866
862.19	66.628
862.49	65.483
862.78	65.450
863.07	64.698
863.37	64.990
863.66	63.360
863.96	64.891
864.25	65.687
864.54	65.859
864.84	66.388
865.13	68.130
865.43	68.778
865.72	67.204
866.01	69.568
866.31	76.547
866.60	72.794
866.89	71.776
>>>>>End Spectral Data<<<<<
