OOIBase32 Version 2.0.0.6 Data File
++++++++++++++++++++++++++++++++++++
Date: 01-24-2012, 17:44:51
User: Valued Ocean Optics Customer
Spectrometer Serial Number: USB2E2917
Spectrometer Channel: Master
Integration Time (msec): 7
Spectra Averaged: 10
Boxcar Smoothing: 5
Correct for Electrical Dark: Enabled
Time Normalized: Disabled
Dual-beam Reference: Disabled
Reference Channel: Master
Temperature: Not acquired
Spectrometer Type: S2000
ADC Type: USB2000
Number of Pixels in File: 2048
Graph Title: 
>>>>>Begin Spectral Data<<<<<
180.30	0.000
180.67	0.000
181.03	247.306
181.40	-320247.619
181.77	-1008.801
182.14	263.518
182.51	-1.386
182.88	80.716
183.25	62.551
183.62	-8.718
183.99	17.152
184.36	-58.443
184.73	32.650
185.10	6.708
185.46	75.812
185.83	-13.070
186.20	-177.568
186.57	267.560
186.94	-61.456
187.31	30.958
187.68	-172.823
188.05	351.287
188.42	90.826
188.78	8.249
189.15	2.749
189.52	20.727
189.89	0.991
190.26	-6.829
190.63	-0.844
191.00	-8.218
191.37	-23.968
191.73	-30.846
192.10	-37.901
192.47	3.691
192.84	13.052
193.21	-5.403
193.58	-14.998
193.94	-15.639
194.31	-3.127
194.68	-5.448
195.05	-0.860
195.42	9.784
195.79	27.229
196.15	32.748
196.52	26.167
196.89	36.007
197.26	46.252
197.63	46.705
198.00	50.611
198.36	56.079
198.73	43.385
199.10	20.133
199.47	18.948
199.84	4.941
200.20	-16.510
200.57	-40.839
200.94	-69.727
201.31	-36.914
201.68	-26.557
202.04	-28.462
202.41	-25.033
202.78	-14.244
203.15	-10.288
203.51	-20.706
203.88	-11.320
204.25	3.497
204.62	17.211
204.98	21.369
205.35	11.477
205.72	5.824
206.09	27.531
206.46	29.058
206.82	26.898
207.19	66.891
207.56	69.503
207.92	66.864
208.29	52.156
208.66	26.319
209.03	27.293
209.39	28.642
209.76	27.947
210.13	1.911
210.50	-15.151
210.86	-4.193
211.23	-12.783
211.60	-5.450
211.96	-14.282
212.33	-5.149
212.70	7.166
213.07	-7.464
213.43	-11.034
213.80	-4.258
214.17	17.198
214.53	28.845
214.90	25.577
215.27	18.895
215.63	18.098
216.00	5.522
216.37	15.383
216.74	3.242
217.10	14.425
217.47	23.966
217.84	18.660
218.20	-3.905
218.57	6.498
218.94	20.442
219.30	15.824
219.67	2.363
220.04	7.712
220.40	-1.419
220.77	1.542
221.13	8.122
221.50	3.314
221.87	4.358
222.23	7.815
222.60	2.144
222.97	-6.391
223.33	-3.338
223.70	0.029
224.07	-0.889
224.43	0.602
224.80	-3.099
225.16	-1.131
225.53	-1.509
225.90	-4.718
226.26	-6.490
226.63	-8.366
226.99	-6.951
227.36	-6.904
227.73	-8.922
228.09	-7.321
228.46	-9.755
228.82	-6.826
229.19	-8.109
229.56	-7.407
229.92	-4.971
230.29	-3.710
230.65	-1.906
231.02	0.884
231.38	0.160
231.75	2.680
232.12	0.160
232.48	0.633
232.85	-1.234
233.21	-2.155
233.58	-3.390
233.94	-4.584
234.31	-8.356
234.68	-7.563
235.04	-7.468
235.41	-4.767
235.77	-4.538
236.14	-3.552
236.50	-0.844
236.87	-1.427
237.23	-1.826
237.60	-3.218
237.96	-3.511
238.33	-2.104
238.69	-2.358
239.06	-1.932
239.42	-1.730
239.79	-2.177
240.15	-0.935
240.52	-0.618
240.88	-0.240
241.25	-0.037
241.61	1.127
241.98	1.574
242.34	2.088
242.71	2.109
243.07	0.912
243.44	0.422
243.80	0.866
244.17	0.269
244.53	0.143
244.90	-0.323
245.26	-0.199
245.63	-0.275
245.99	-0.597
246.36	-0.733
246.72	-0.656
247.09	-0.018
247.45	0.108
247.81	0.044
248.18	0.338
248.54	0.259
248.91	0.424
249.27	0.549
249.64	0.579
250.00	0.373
250.36	0.423
250.73	0.733
251.09	0.320
251.46	0.097
251.82	0.171
252.19	-0.534
252.55	-0.641
252.91	-0.623
253.28	-0.341
253.64	0.452
254.01	1.124
254.37	0.986
254.73	0.657
255.10	1.107
255.46	1.393
255.83	1.115
256.19	1.601
256.55	1.389
256.92	1.337
257.28	1.242
257.65	1.051
258.01	1.256
258.37	1.164
258.74	0.990
259.10	0.873
259.46	0.855
259.83	1.106
260.19	1.122
260.55	1.442
260.92	1.803
261.28	1.862
261.64	1.873
262.01	1.676
262.37	2.124
262.73	2.198
263.10	1.798
263.46	1.645
263.82	1.423
264.19	1.524
264.55	1.556
264.91	1.383
265.28	1.569
265.64	1.640
266.00	1.338
266.37	1.243
266.73	1.491
267.09	1.801
267.46	2.008
267.82	1.833
268.18	1.739
268.54	1.058
268.91	0.831
269.27	0.450
269.63	0.642
270.00	1.124
270.36	1.040
270.72	0.732
271.08	0.737
271.45	0.681
271.81	0.590
272.17	0.375
272.53	0.832
272.90	1.239
273.26	1.302
273.62	0.988
273.98	0.970
274.35	0.850
274.71	1.211
275.07	0.984
275.43	0.953
275.80	1.100
276.16	0.949
276.52	1.214
276.88	0.766
277.25	0.777
277.61	0.878
277.97	0.475
278.33	0.603
278.69	0.292
279.06	0.566
279.42	0.399
279.78	0.332
280.14	0.494
280.50	0.165
280.87	0.532
281.23	0.538
281.59	0.585
281.95	0.771
282.31	0.598
282.68	0.672
283.04	0.711
283.40	0.703
283.76	0.838
284.12	1.092
284.48	1.082
284.85	0.839
285.21	0.728
285.57	0.697
285.93	0.667
286.29	0.955
286.65	1.046
287.02	0.948
287.38	1.017
287.74	1.035
288.10	0.890
288.46	1.047
288.82	1.209
289.18	1.187
289.54	1.201
289.91	1.230
290.27	0.929
290.63	0.648
290.99	0.703
291.35	0.681
291.71	0.552
292.07	0.557
292.43	0.311
292.79	0.439
293.16	0.660
293.52	0.405
293.88	0.333
294.24	0.322
294.60	0.516
294.96	0.396
295.32	0.516
295.68	0.568
296.04	0.464
296.40	0.425
296.76	0.091
297.12	-0.142
297.49	-0.151
297.85	-0.209
298.21	-0.062
298.57	-0.290
298.93	-0.178
299.29	-0.396
299.65	-0.574
300.01	-0.473
300.37	-0.155
300.73	-0.019
301.09	0.131
301.45	0.196
301.81	0.167
302.17	-0.019
302.53	0.136
302.89	-0.009
303.25	0.031
303.61	0.189
303.97	-0.044
304.33	-0.495
304.69	-0.470
305.05	-0.598
305.41	-0.598
305.77	-0.565
306.13	-0.455
306.49	-0.690
306.85	-0.678
307.21	-0.521
307.57	-0.670
307.93	-0.529
308.29	-0.371
308.65	-0.509
309.01	-0.555
309.37	-0.561
309.73	-0.707
310.09	-0.817
310.45	-0.669
310.81	-0.590
311.17	-0.744
311.53	-0.720
311.89	-0.833
312.25	-0.869
312.61	-0.948
312.96	-0.879
313.32	-1.075
313.68	-0.997
314.04	-0.986
314.40	-1.203
314.76	-1.351
315.12	-1.452
315.48	-1.636
315.84	-1.762
316.20	-1.912
316.56	-1.984
316.92	-2.008
317.27	-2.081
317.63	-2.158
317.99	-2.309
318.35	-2.271
318.71	-2.401
319.07	-2.455
319.43	-2.470
319.79	-2.516
320.15	-2.693
320.50	-2.765
320.86	-2.947
321.22	-2.969
321.58	-3.062
321.94	-3.046
322.30	-3.095
322.66	-3.196
323.01	-3.299
323.37	-3.223
323.73	-3.368
324.09	-3.341
324.45	-3.439
324.81	-3.448
325.17	-3.588
325.52	-3.644
325.88	-3.891
326.24	-3.969
326.60	-4.144
326.96	-4.204
327.31	-4.430
327.67	-4.448
328.03	-4.587
328.39	-4.646
328.75	-4.774
329.11	-4.671
329.46	-4.800
329.82	-4.594
330.18	-4.638
330.54	-4.636
330.90	-4.525
331.25	-4.351
331.61	-4.105
331.97	-3.977
332.33	-3.844
332.68	-3.786
333.04	-3.855
333.40	-3.775
333.76	-3.762
334.11	-3.733
334.47	-3.647
334.83	-3.718
335.19	-3.808
335.54	-3.933
335.90	-3.927
336.26	-3.946
336.62	-3.929
336.97	-4.000
337.33	-3.975
337.69	-4.074
338.05	-4.041
338.40	-4.093
338.76	-4.244
339.12	-4.366
339.48	-4.358
339.83	-4.332
340.19	-4.303
340.55	-4.335
340.90	-4.267
341.26	-4.209
341.62	-4.212
341.97	-4.196
342.33	-4.084
342.69	-3.951
343.04	-3.935
343.40	-4.009
343.76	-4.015
344.12	-4.059
344.47	-3.989
344.83	-3.906
345.19	-4.037
345.54	-4.088
345.90	-4.194
346.26	-4.205
346.61	-4.292
346.97	-4.295
347.32	-4.341
347.68	-4.450
348.04	-4.561
348.39	-4.631
348.75	-4.828
349.11	-4.919
349.46	-4.962
349.82	-4.984
350.18	-5.069
350.53	-5.002
350.89	-5.083
351.24	-5.033
351.60	-5.083
351.96	-5.025
352.31	-5.068
352.67	-4.981
353.02	-4.918
353.38	-4.772
353.74	-4.686
354.09	-4.597
354.45	-4.623
354.80	-4.516
355.16	-4.561
355.52	-4.405
355.87	-4.341
356.23	-4.279
356.58	-4.281
356.94	-4.235
357.29	-4.269
357.65	-4.253
358.00	-4.304
358.36	-4.285
358.72	-4.243
359.07	-4.212
359.43	-4.280
359.78	-4.324
360.14	-4.419
360.49	-4.488
360.85	-4.535
361.20	-4.677
361.56	-4.801
361.91	-4.903
362.27	-5.051
362.62	-5.143
362.98	-5.289
363.33	-5.341
363.69	-5.468
364.04	-5.477
364.40	-5.569
364.75	-5.626
365.11	-5.640
365.46	-5.689
365.82	-5.752
366.17	-5.777
366.53	-5.822
366.88	-5.824
367.24	-5.826
367.59	-5.736
367.95	-5.736
368.30	-5.627
368.66	-5.597
369.01	-5.528
369.37	-5.346
369.72	-5.236
370.08	-5.062
370.43	-4.962
370.78	-4.881
371.14	-4.822
371.49	-4.849
371.85	-4.804
372.20	-4.825
372.56	-4.891
372.91	-4.949
373.26	-5.152
373.62	-5.270
373.97	-5.397
374.33	-5.489
374.68	-5.492
375.03	-5.607
375.39	-5.616
375.74	-5.763
376.10	-5.774
376.45	-5.665
376.80	-5.628
377.16	-5.441
377.51	-5.295
377.87	-5.183
378.22	-5.082
378.57	-4.952
378.93	-4.866
379.28	-4.656
379.63	-4.418
379.99	-4.237
380.34	-4.087
380.70	-3.885
381.05	-3.773
381.40	-3.622
381.76	-3.585
382.11	-3.559
382.46	-3.545
382.82	-3.489
383.17	-3.557
383.52	-3.587
383.88	-3.642
384.23	-3.736
384.58	-3.859
384.94	-3.980
385.29	-4.075
385.64	-4.095
385.99	-4.109
386.35	-4.158
386.70	-4.169
387.05	-4.176
387.41	-4.145
387.76	-4.101
388.11	-4.029
388.47	-3.899
388.82	-3.795
389.17	-3.704
389.52	-3.576
389.88	-3.438
390.23	-3.297
390.58	-3.082
390.93	-2.936
391.29	-2.819
391.64	-2.771
391.99	-2.698
392.34	-2.681
392.70	-2.701
393.05	-2.707
393.40	-2.749
393.75	-2.833
394.11	-2.969
394.46	-3.148
394.81	-3.307
395.16	-3.442
395.52	-3.579
395.87	-3.840
396.22	-4.098
396.57	-4.325
396.92	-4.623
397.28	-4.845
397.63	-5.068
397.98	-5.263
398.33	-5.494
398.68	-5.648
399.04	-5.801
399.39	-5.934
399.74	-5.873
400.09	-5.863
400.44	-5.797
400.80	-5.698
401.15	-5.662
401.50	-5.591
401.85	-5.449
402.20	-5.333
402.55	-5.309
402.90	-5.257
403.26	-5.184
403.61	-5.232
403.96	-5.227
404.31	-5.240
404.66	-5.294
405.01	-5.332
405.36	-5.398
405.72	-5.535
406.07	-5.621
406.42	-5.680
406.77	-5.763
407.12	-5.835
407.47	-5.853
407.82	-5.924
408.17	-5.996
408.53	-6.029
408.88	-6.077
409.23	-6.112
409.58	-6.163
409.93	-6.232
410.28	-6.262
410.63	-6.335
410.98	-6.362
411.33	-6.386
411.68	-6.337
412.03	-6.301
412.38	-6.189
412.73	-6.001
413.09	-5.805
413.44	-5.579
413.79	-5.301
414.14	-4.984
414.49	-4.690
414.84	-4.395
415.19	-4.114
415.54	-3.831
415.89	-3.516
416.24	-3.269
416.59	-3.043
416.94	-2.834
417.29	-2.647
417.64	-2.485
417.99	-2.378
418.34	-2.255
418.69	-2.176
419.04	-2.099
419.39	-2.036
419.74	-1.982
420.09	-1.930
420.44	-1.928
420.79	-1.926
421.14	-1.927
421.49	-1.949
421.84	-1.994
422.19	-2.047
422.54	-2.098
422.89	-2.190
423.24	-2.334
423.59	-2.483
423.94	-2.680
424.29	-2.859
424.64	-3.049
424.99	-3.268
425.34	-3.471
425.68	-3.634
426.03	-3.807
426.38	-4.007
426.73	-4.148
427.08	-4.179
427.43	-4.220
427.78	-4.145
428.13	-4.090
428.48	-4.042
428.83	-3.995
429.18	-3.908
429.53	-3.865
429.87	-3.821
430.22	-3.752
430.57	-3.728
430.92	-3.745
431.27	-3.779
431.62	-3.873
431.97	-3.980
432.32	-4.091
432.67	-4.176
433.01	-4.309
433.36	-4.448
433.71	-4.578
434.06	-4.675
434.41	-4.707
434.76	-4.724
435.11	-4.678
435.45	-4.601
435.80	-4.459
436.15	-4.343
436.50	-4.217
436.85	-4.075
437.20	-3.942
437.54	-3.858
437.89	-3.796
438.24	-3.771
438.59	-3.761
438.94	-3.824
439.29	-3.892
439.63	-3.987
439.98	-4.041
440.33	-4.085
440.68	-4.146
441.03	-4.135
441.37	-4.068
441.72	-3.976
442.07	-3.842
442.42	-3.667
442.76	-3.477
443.11	-3.296
443.46	-3.152
443.81	-3.017
444.16	-2.923
444.50	-2.863
444.85	-2.855
445.20	-2.886
445.55	-2.986
445.89	-3.130
446.24	-3.336
446.59	-3.559
446.94	-3.793
447.28	-4.030
447.63	-4.272
447.98	-4.506
448.32	-4.703
448.67	-4.874
449.02	-4.990
449.37	-5.053
449.71	-5.034
450.06	-4.966
450.41	-4.891
450.75	-4.830
451.10	-4.763
451.45	-4.742
451.79	-4.717
452.14	-4.681
452.49	-4.697
452.84	-4.700
453.18	-4.701
453.53	-4.696
453.88	-4.680
454.22	-4.597
454.57	-4.445
454.92	-4.229
455.26	-3.982
455.61	-3.746
455.95	-3.535
456.30	-3.300
456.65	-3.088
456.99	-2.884
457.34	-2.729
457.69	-2.612
458.03	-2.541
458.38	-2.543
458.73	-2.640
459.07	-2.773
459.42	-2.921
459.76	-3.121
460.11	-3.351
460.46	-3.592
460.80	-3.897
461.15	-4.188
461.49	-4.442
461.84	-4.652
462.19	-4.838
462.53	-4.918
462.88	-4.942
463.22	-4.944
463.57	-4.890
463.91	-4.837
464.26	-4.785
464.61	-4.663
464.95	-4.575
465.30	-4.504
465.64	-4.504
465.99	-4.526
466.33	-4.558
466.68	-4.651
467.02	-4.728
467.37	-4.800
467.71	-4.881
468.06	-4.970
468.41	-5.091
468.75	-5.206
469.10	-5.373
469.44	-5.548
469.79	-5.640
470.13	-5.725
470.48	-5.801
470.82	-5.883
471.17	-5.964
471.51	-6.045
471.86	-6.129
472.20	-6.216
472.55	-6.294
472.89	-6.310
473.23	-6.291
473.58	-6.314
473.92	-6.296
474.27	-6.264
474.61	-6.237
474.96	-6.210
475.30	-6.195
475.65	-6.140
475.99	-6.070
476.34	-6.010
476.68	-5.943
477.02	-5.849
477.37	-5.716
477.71	-5.537
478.06	-5.220
478.40	-4.732
478.75	-4.070
479.09	-3.381
479.43	-2.762
479.78	-2.198
480.12	-1.703
480.47	-1.275
480.81	-0.892
481.15	-0.549
481.50	-0.255
481.84	-0.006
482.19	0.202
482.53	0.323
482.87	0.395
483.22	0.415
483.56	0.402
483.90	0.359
484.25	0.299
484.59	0.210
484.94	0.106
485.28	-0.014
485.62	-0.161
485.97	-0.330
486.31	-0.464
486.65	-0.589
487.00	-0.696
487.34	-0.807
487.68	-0.894
488.03	-0.971
488.37	-1.037
488.71	-1.101
489.06	-1.152
489.40	-1.206
489.74	-1.259
490.09	-1.365
490.43	-1.483
490.77	-1.639
491.11	-1.824
491.46	-2.030
491.80	-2.249
492.14	-2.455
492.49	-2.682
492.83	-2.930
493.17	-3.151
493.51	-3.340
493.86	-3.483
494.20	-3.560
494.54	-3.553
494.88	-3.454
495.23	-3.317
495.57	-3.173
495.91	-3.058
496.25	-2.923
496.60	-2.787
496.94	-2.690
497.28	-2.622
497.62	-2.563
497.97	-2.536
498.31	-2.472
498.65	-2.417
498.99	-2.365
499.33	-2.278
499.68	-2.170
500.02	-2.077
500.36	-1.977
500.70	-1.838
501.04	-1.689
501.39	-1.511
501.73	-1.312
502.07	-1.122
502.41	-0.885
502.75	-0.677
503.09	-0.444
503.44	-0.195
503.78	0.063
504.12	0.334
504.46	0.627
504.80	0.928
505.14	1.232
505.49	1.555
505.83	1.869
506.17	2.122
506.51	2.436
506.85	2.709
507.19	2.969
507.53	3.272
507.87	3.547
508.22	3.780
508.56	4.012
508.90	4.235
509.24	4.409
509.58	4.604
509.92	4.828
510.26	5.041
510.60	5.221
510.94	5.432
511.28	5.600
511.63	5.810
511.97	6.075
512.31	6.342
512.65	6.655
512.99	7.019
513.33	7.410
513.67	7.840
514.01	8.269
514.35	8.740
514.69	9.184
515.03	9.652
515.37	10.073
515.71	10.436
516.05	10.796
516.39	11.088
516.73	11.350
517.07	11.589
517.41	11.761
517.75	11.906
518.09	12.035
518.43	12.119
518.77	12.161
519.11	12.221
519.45	12.296
519.79	12.378
520.13	12.518
520.47	12.680
520.81	12.918
521.15	13.170
521.49	13.460
521.83	13.796
522.17	14.164
522.51	14.604
522.85	15.072
523.19	15.614
523.53	16.206
523.87	16.814
524.21	17.415
524.55	17.934
524.89	18.413
525.23	18.859
525.57	19.239
525.91	19.574
526.25	19.873
526.58	20.139
526.92	20.345
527.26	20.507
527.60	20.605
527.94	20.667
528.28	20.687
528.62	20.696
528.96	20.659
529.30	20.615
529.64	20.573
529.97	20.504
530.31	20.427
530.65	20.372
530.99	20.329
531.33	20.313
531.67	20.310
532.01	20.322
532.35	20.327
532.68	20.336
533.02	20.330
533.36	20.289
533.70	20.253
534.04	20.220
534.38	20.177
534.71	20.146
535.05	20.124
535.39	20.086
535.73	20.095
536.07	20.153
536.41	20.290
536.74	20.474
537.08	20.719
537.42	20.969
537.76	21.210
538.10	21.494
538.43	21.741
538.77	21.971
539.11	22.204
539.45	22.387
539.79	22.557
540.12	22.690
540.46	22.766
540.80	22.820
541.14	22.838
541.47	22.837
541.81	22.785
542.15	22.725
542.49	22.645
542.82	22.515
543.16	22.422
543.50	22.319
543.84	22.199
544.17	22.144
544.51	22.061
544.85	22.072
545.18	22.051
545.52	22.031
545.86	22.020
546.20	21.978
546.53	21.986
546.87	21.984
547.21	21.942
547.54	21.929
547.88	21.908
548.22	21.961
548.55	21.953
548.89	22.036
549.23	22.103
549.56	22.233
549.90	22.358
550.24	22.446
550.57	22.526
550.91	22.673
551.25	22.826
551.58	22.915
551.92	23.012
552.26	23.081
552.59	23.110
552.93	23.157
553.27	23.153
553.60	23.182
553.94	23.255
554.27	23.338
554.61	23.372
554.95	23.410
555.28	23.518
555.62	23.621
555.95	23.690
556.29	23.800
556.63	23.933
556.96	24.035
557.30	24.175
557.63	24.268
557.97	24.299
558.31	24.390
558.64	24.412
558.98	24.413
559.31	24.443
559.65	24.504
559.98	24.569
560.32	24.592
560.65	24.664
560.99	24.745
561.33	24.827
561.66	24.926
562.00	24.991
562.33	25.059
562.67	25.171
563.00	25.255
563.34	25.343
563.67	25.401
564.01	25.482
564.34	25.495
564.68	25.504
565.01	25.497
565.35	25.522
565.68	25.528
566.02	25.547
566.35	25.521
566.69	25.471
567.02	25.429
567.36	25.406
567.69	25.360
568.03	25.387
568.36	25.349
568.69	25.328
569.03	25.299
569.36	25.272
569.70	25.266
570.03	25.268
570.37	25.243
570.70	25.202
571.04	25.141
571.37	25.132
571.70	25.046
572.04	24.981
572.37	24.928
572.71	24.863
573.04	24.832
573.37	24.730
573.71	24.631
574.04	24.560
574.38	24.478
574.71	24.394
575.04	24.241
575.38	24.163
575.71	24.059
576.05	23.931
576.38	23.806
576.71	23.637
577.05	23.531
577.38	23.387
577.71	23.254
578.05	23.186
578.38	23.075
578.71	23.008
579.05	22.903
579.38	22.852
579.71	22.744
580.05	22.681
580.38	22.623
580.71	22.530
581.05	22.510
581.38	22.419
581.71	22.283
582.05	22.217
582.38	22.167
582.71	22.092
583.04	22.029
583.38	22.047
583.71	22.036
584.04	22.023
584.38	22.013
584.71	22.014
585.04	22.104
585.37	22.163
585.71	22.261
586.04	22.304
586.37	22.382
586.70	22.430
587.04	22.469
587.37	22.450
587.70	22.462
588.03	22.511
588.37	22.510
588.70	22.463
589.03	22.415
589.36	22.332
589.69	22.308
590.03	22.208
590.36	22.155
590.69	22.089
591.02	22.051
591.35	22.009
591.69	21.973
592.02	21.948
592.35	21.936
592.68	21.958
593.01	21.992
593.35	21.993
593.68	22.039
594.01	22.026
594.34	22.062
594.67	22.090
595.00	22.144
595.34	22.152
595.67	22.167
596.00	22.151
596.33	22.102
596.66	22.015
596.99	21.921
597.32	21.831
597.65	21.759
597.99	21.630
598.32	21.523
598.65	21.357
598.98	21.247
599.31	21.157
599.64	21.127
599.97	21.135
600.30	21.154
600.63	21.177
600.96	21.229
601.30	21.263
601.63	21.266
601.96	21.282
602.29	21.332
602.62	21.338
602.95	21.327
603.28	21.271
603.61	21.191
603.94	21.066
604.27	20.943
604.60	20.786
604.93	20.646
605.26	20.521
605.59	20.394
605.92	20.215
606.25	20.131
606.58	19.989
606.91	19.899
607.24	19.802
607.57	19.764
607.90	19.647
608.23	19.542
608.56	19.439
608.89	19.313
609.22	19.163
609.55	19.006
609.88	18.785
610.21	18.579
610.54	18.299
610.87	18.107
611.20	17.866
611.53	17.694
611.86	17.493
612.19	17.302
612.52	17.155
612.85	17.010
613.18	16.851
613.51	16.710
613.84	16.599
614.17	16.481
614.49	16.301
614.82	16.167
615.15	16.027
615.48	15.902
615.81	15.761
616.14	15.610
616.47	15.515
616.80	15.446
617.13	15.355
617.46	15.203
617.78	15.125
618.11	15.018
618.44	14.887
618.77	14.811
619.10	14.720
619.43	14.633
619.76	14.557
620.09	14.447
620.41	14.309
620.74	14.218
621.07	14.158
621.40	14.161
621.73	14.217
622.06	14.302
622.38	14.339
622.71	14.433
623.04	14.516
623.37	14.616
623.70	14.677
624.02	14.785
624.35	14.894
624.68	15.024
625.01	15.092
625.34	15.136
625.66	15.142
625.99	15.143
626.32	15.092
626.65	15.052
626.98	15.025
627.30	15.005
627.63	14.962
627.96	14.892
628.29	14.785
628.61	14.705
628.94	14.592
629.27	14.534
629.60	14.482
629.92	14.467
630.25	14.413
630.58	14.370
630.91	14.299
631.23	14.227
631.56	14.150
631.89	14.083
632.21	13.960
632.54	13.896
632.87	13.794
633.19	13.686
633.52	13.508
633.85	13.356
634.18	13.125
634.50	12.903
634.83	12.675
635.16	12.411
635.48	12.230
635.81	12.022
636.14	11.756
636.46	11.476
636.79	11.178
637.11	10.915
637.44	10.665
637.77	10.446
638.09	10.189
638.42	9.999
638.75	9.753
639.07	9.419
639.40	9.119
639.73	8.832
640.05	8.493
640.38	8.189
640.70	7.906
641.03	7.606
641.36	7.307
641.68	7.043
642.01	6.729
642.33	6.506
642.66	6.250
642.98	6.053
643.31	5.824
643.64	5.655
643.96	5.519
644.29	5.331
644.61	5.167
644.94	5.008
645.26	4.858
645.59	4.714
645.91	4.513
646.24	4.429
646.56	4.269
646.89	4.159
647.22	4.019
647.54	3.806
647.87	3.718
648.19	3.611
648.52	3.540
648.84	3.454
649.17	3.310
649.49	3.219
649.82	3.041
650.14	2.955
650.47	2.841
650.79	2.714
651.11	2.699
651.44	2.594
651.76	2.514
652.09	2.378
652.41	2.291
652.74	2.257
653.06	2.216
653.39	2.161
653.71	2.139
654.04	2.220
654.36	2.247
654.68	2.230
655.01	2.169
655.33	2.102
655.66	2.037
655.98	1.981
656.30	1.921
656.63	1.833
656.95	1.837
657.28	1.745
657.60	1.569
657.92	1.407
658.25	1.246
658.57	1.061
658.90	0.801
659.22	0.538
659.54	0.304
659.87	0.022
660.19	-0.257
660.51	-0.651
660.84	-1.035
661.16	-1.382
661.48	-1.732
661.81	-2.068
662.13	-2.318
662.45	-2.539
662.78	-2.714
663.10	-2.956
663.42	-3.081
663.75	-3.256
664.07	-3.341
664.39	-3.394
664.72	-3.508
665.04	-3.497
665.36	-3.529
665.69	-3.559
666.01	-3.546
666.33	-3.551
666.65	-3.543
666.98	-3.573
667.30	-3.493
667.62	-3.538
667.94	-3.612
668.27	-3.638
668.59	-3.722
668.91	-3.769
669.23	-3.793
669.56	-3.775
669.88	-3.789
670.20	-3.797
670.52	-3.791
670.85	-3.775
671.17	-3.754
671.49	-3.681
671.81	-3.659
672.13	-3.537
672.46	-3.462
672.78	-3.454
673.10	-3.419
673.42	-3.392
673.74	-3.299
674.07	-3.181
674.39	-3.112
674.71	-2.957
675.03	-2.822
675.35	-2.593
675.67	-2.461
676.00	-2.264
676.32	-1.947
676.64	-1.708
676.96	-1.424
677.28	-1.206
677.60	-1.041
677.92	-0.825
678.25	-0.586
678.57	-0.408
678.89	-0.243
679.21	-0.014
679.53	0.139
679.85	0.302
680.17	0.473
680.49	0.706
680.81	0.957
681.13	1.225
681.46	1.493
681.78	1.778
682.10	2.204
682.42	2.607
682.74	3.055
683.06	3.537
683.38	3.964
683.70	4.485
684.02	5.079
684.34	5.690
684.66	6.362
684.98	6.999
685.30	7.693
685.62	8.296
685.94	9.037
686.26	9.664
686.58	10.404
686.90	11.266
687.22	11.994
687.54	12.704
687.86	13.451
688.18	14.174
688.50	14.967
688.82	15.806
689.14	16.644
689.46	17.517
689.78	18.498
690.10	19.394
690.42	20.329
690.74	21.379
691.06	22.447
691.38	23.501
691.70	24.607
692.02	25.663
692.34	26.733
692.66	27.818
692.98	28.971
693.30	30.149
693.62	31.393
693.94	32.543
694.26	33.748
694.57	34.765
694.89	35.863
695.21	36.866
695.53	37.930
695.85	38.828
696.17	39.773
696.49	40.533
696.81	41.302
697.13	42.103
697.44	42.919
697.76	43.572
698.08	44.387
698.40	45.170
698.72	45.904
699.04	46.553
699.36	47.390
699.67	48.259
699.99	49.144
700.31	50.079
700.63	50.946
700.95	51.733
701.27	52.705
701.58	53.554
701.90	54.239
702.22	54.999
702.54	55.872
702.86	56.423
703.17	56.932
703.49	57.524
703.81	57.999
704.13	58.566
704.45	59.085
704.76	59.605
705.08	60.047
705.40	60.523
705.72	61.027
706.03	61.508
706.35	62.102
706.67	62.618
706.99	63.115
707.30	63.574
707.62	63.965
707.94	64.426
708.26	64.851
708.57	65.163
708.89	65.623
709.21	66.096
709.53	66.460
709.84	66.897
710.16	67.368
710.48	67.696
710.79	68.077
711.11	68.635
711.43	69.124
711.74	69.594
712.06	70.154
712.38	70.449
712.69	70.851
713.01	71.310
713.33	71.587
713.64	71.992
713.96	72.281
714.28	72.903
714.59	73.347
714.91	73.769
715.23	74.133
715.54	74.590
715.86	75.095
716.17	75.379
716.49	75.675
716.81	76.141
717.12	76.240
717.44	76.877
717.76	77.101
718.07	77.203
718.39	77.256
718.70	77.451
719.02	77.570
719.33	77.719
719.65	78.009
719.97	78.050
720.28	78.313
720.60	78.626
720.91	78.579
721.23	78.565
721.54	78.864
721.86	79.237
722.17	79.368
722.49	79.512
722.81	79.778
723.12	79.958
723.44	80.246
723.75	80.378
724.07	80.532
724.38	80.683
724.70	81.011
725.01	80.983
725.33	81.070
725.64	81.308
725.96	81.351
726.27	81.301
726.59	81.414
726.90	81.660
727.22	81.750
727.53	82.089
727.84	82.405
728.16	82.354
728.47	82.610
728.79	82.727
729.10	82.747
729.42	82.954
729.73	83.259
730.05	83.395
730.36	83.366
730.67	83.291
730.99	83.224
731.30	83.122
731.62	83.233
731.93	83.159
732.24	83.012
732.56	83.073
732.87	83.002
733.19	83.047
733.50	83.118
733.81	83.327
734.13	83.544
734.44	83.503
734.76	83.714
735.07	83.868
735.38	84.005
735.70	84.295
736.01	84.300
736.32	84.507
736.64	84.394
736.95	84.314
737.26	84.063
737.58	83.994
737.89	84.273
738.20	84.107
738.52	83.935
738.83	83.627
739.14	83.702
739.45	83.656
739.77	83.861
740.08	83.899
740.39	84.011
740.71	84.266
741.02	84.357
741.33	84.204
741.64	84.301
741.96	84.579
742.27	84.891
742.58	84.597
742.90	84.738
743.21	84.364
743.52	84.304
743.83	84.117
744.14	84.066
744.46	84.210
744.77	84.140
745.08	83.917
745.39	83.664
745.71	83.666
746.02	83.645
746.33	83.565
746.64	83.401
746.95	83.392
747.27	83.511
747.58	83.564
747.89	83.447
748.20	83.547
748.51	83.734
748.82	83.848
749.14	83.862
749.45	83.897
749.76	83.831
750.07	83.947
750.38	83.882
750.69	83.768
751.01	83.570
751.32	83.568
751.63	83.203
751.94	83.098
752.25	82.967
752.56	83.119
752.87	83.003
753.18	82.696
753.49	82.605
753.81	82.924
754.12	82.935
754.43	82.938
754.74	82.721
755.05	82.902
755.36	83.104
755.67	83.205
755.98	83.123
756.29	83.224
756.60	83.668
756.91	83.861
757.22	83.995
757.53	84.071
757.84	84.369
758.15	84.553
758.46	84.746
758.77	84.716
759.09	85.074
759.40	84.948
759.71	85.059
760.02	85.007
760.33	85.203
760.64	84.999
760.95	84.977
761.26	84.805
761.57	84.746
761.88	84.670
762.18	84.729
762.49	84.432
762.80	84.380
763.11	84.259
763.42	84.282
763.73	84.012
764.04	83.777
764.35	83.583
764.66	83.545
764.97	83.526
765.28	83.201
765.59	82.854
765.90	82.729
766.21	82.495
766.52	82.238
766.83	81.866
767.14	81.540
767.44	81.565
767.75	81.470
768.06	81.163
768.37	80.787
768.68	80.768
768.99	80.785
769.30	80.435
769.61	80.247
769.91	80.188
770.22	79.924
770.53	79.778
770.84	79.581
771.15	79.541
771.46	79.450
771.77	79.238
772.07	79.095
772.38	78.355
772.69	78.539
773.00	78.803
773.31	78.606
773.61	78.673
773.92	78.816
774.23	78.737
774.54	78.683
774.85	78.630
775.15	78.891
775.46	79.039
775.77	79.520
776.08	79.369
776.39	79.250
776.69	79.247
777.00	78.841
777.31	78.411
777.62	78.328
777.92	78.293
778.23	78.021
778.54	77.557
778.85	77.504
779.15	77.131
779.46	77.147
779.77	76.923
780.07	76.994
780.38	77.027
780.69	77.231
781.00	77.213
781.30	77.282
781.61	77.472
781.92	77.711
782.22	77.556
782.53	77.909
782.84	77.775
783.14	78.166
783.45	78.230
783.76	78.276
784.06	78.308
784.37	78.500
784.68	78.024
784.98	77.915
785.29	77.865
785.60	77.807
785.90	77.661
786.21	77.749
786.51	77.656
786.82	77.531
787.13	77.680
787.43	78.046
787.74	78.349
788.04	78.587
788.35	78.678
788.66	78.855
788.96	79.086
789.27	79.086
789.57	79.497
789.88	79.273
790.19	79.495
790.49	79.455
790.80	79.083
791.10	78.713
791.41	78.650
791.71	78.750
792.02	78.704
792.32	78.370
792.63	78.532
792.93	78.043
793.24	77.833
793.54	77.704
793.85	77.657
794.15	77.943
794.46	77.947
794.76	78.142
795.07	78.313
795.37	78.335
795.68	78.337
795.98	78.109
796.29	78.186
796.59	78.905
796.90	78.733
797.20	78.791
797.51	78.455
797.81	78.264
798.12	78.193
798.42	78.102
798.72	77.884
799.03	78.305
799.33	78.594
799.64	78.415
799.94	78.109
800.25	78.370
800.55	78.339
800.85	78.489
801.16	78.602
801.46	78.302
801.77	77.785
802.07	77.916
802.37	77.007
802.68	76.923
802.98	77.149
803.28	76.953
803.59	77.448
803.89	77.664
804.20	77.488
804.50	77.704
804.80	77.884
805.11	78.839
805.41	79.125
805.71	79.806
806.02	79.699
806.32	79.669
806.62	79.980
806.93	79.420
807.23	79.447
807.53	79.648
807.83	79.913
808.14	80.181
808.44	79.484
808.74	78.950
809.05	79.150
809.35	79.230
809.65	79.214
809.95	79.011
810.26	79.395
810.56	79.730
810.86	79.917
811.16	79.929
811.47	79.917
811.77	80.223
812.07	80.397
812.37	80.757
812.68	80.818
812.98	80.964
813.28	80.993
813.58	81.018
813.88	80.824
814.19	81.065
814.49	80.644
814.79	80.760
815.09	80.966
815.39	81.664
815.70	81.213
816.00	81.392
816.30	81.992
816.60	81.754
816.90	81.805
817.20	81.839
817.50	81.510
817.81	81.364
818.11	81.187
818.41	81.202
818.71	81.269
819.01	81.593
819.31	81.821
819.61	81.764
819.92	81.925
820.22	82.171
820.52	82.296
820.82	82.626
821.12	83.045
821.42	83.442
821.72	83.865
822.02	84.276
822.32	84.633
822.62	84.993
822.92	85.481
823.22	85.890
823.52	86.019
823.83	86.353
824.13	86.474
824.43	86.429
824.73	86.509
825.03	86.361
825.33	86.093
825.63	85.860
825.93	85.645
826.23	85.401
826.53	85.340
826.83	85.493
827.13	85.628
827.43	85.728
827.73	86.178
828.03	86.336
828.33	86.372
828.63	86.638
828.93	86.363
829.23	86.270
829.53	85.529
829.83	84.871
830.13	84.380
830.42	83.535
830.72	83.147
831.02	82.251
831.32	81.779
831.62	81.946
831.92	81.701
832.22	82.019
832.52	81.819
832.82	82.151
833.12	82.721
833.42	83.018
833.72	83.435
834.01	83.694
834.31	84.012
834.61	84.212
834.91	84.050
835.21	84.082
835.51	84.283
835.81	84.564
836.11	84.385
836.40	84.040
836.70	83.269
837.00	82.463
837.30	82.037
837.60	81.539
837.90	81.107
838.19	80.715
838.49	80.216
838.79	79.550
839.09	79.665
839.39	80.006
839.68	80.365
839.98	81.046
840.28	81.759
840.58	81.742
840.88	81.882
841.17	81.682
841.47	80.975
841.77	81.964
842.07	82.028
842.36	81.372
842.66	81.036
842.96	79.619
843.26	78.897
843.55	78.138
843.85	76.995
844.15	77.226
844.45	76.526
844.74	76.701
845.04	74.804
845.34	74.287
845.63	74.854
845.93	75.250
846.23	74.108
846.53	73.666
846.82	73.355
847.12	72.409
847.42	71.934
847.71	72.933
848.01	73.174
848.31	74.193
848.60	74.118
848.90	73.236
849.19	73.263
849.49	73.838
849.79	72.311
850.08	71.989
850.38	73.004
850.68	73.244
850.97	73.063
851.27	73.879
851.56	74.550
851.86	75.796
852.16	75.817
852.45	75.013
852.75	74.289
853.04	75.630
853.34	74.428
853.64	74.822
853.93	73.687
854.23	73.623
854.52	73.780
854.82	72.965
855.11	71.100
855.41	71.151
855.70	71.816
856.00	74.066
856.30	74.032
856.59	74.652
856.89	73.011
857.18	74.448
857.48	74.195
857.77	74.798
858.07	74.914
858.36	77.907
858.66	78.629
858.95	79.610
859.25	78.694
859.54	80.094
859.84	80.784
860.13	82.968
860.42	83.435
860.72	84.135
861.01	82.687
861.31	81.965
861.60	79.903
861.90	78.737
862.19	75.956
862.49	75.738
862.78	74.779
863.07	74.195
863.37	75.209
863.66	74.679
863.96	74.554
864.25	74.933
864.54	75.229
864.84	76.098
865.13	75.749
865.43	78.263
865.72	73.470
866.01	77.117
866.31	85.130
866.60	66.386
866.89	84.012
>>>>>End Spectral Data<<<<<
