OOIBase32 Version 2.0.0.6 Data File
++++++++++++++++++++++++++++++++++++
Date: 01-22-2012, 21:36:50
User: Valued Ocean Optics Customer
Spectrometer Serial Number: USB2E2917
Spectrometer Channel: Master
Integration Time (msec): 4
Spectra Averaged: 10
Boxcar Smoothing: 5
Correct for Electrical Dark: Enabled
Time Normalized: Disabled
Dual-beam Reference: Disabled
Reference Channel: Master
Temperature: Not acquired
Spectrometer Type: S2000
ADC Type: USB2000
Number of Pixels in File: 2048
Graph Title: 
>>>>>Begin Spectral Data<<<<<
180.30	0.000
180.67	0.000
181.03	-122.342
181.40	-136.300
181.77	50.356
182.14	-122.815
182.51	532.880
182.88	-22.407
183.25	111.040
183.62	-303.982
183.99	70.448
184.36	335.891
184.73	-256.861
185.10	18.889
185.46	-131.928
185.83	57.662
186.20	-6.894
186.57	337.063
186.94	33.504
187.31	-22.405
187.68	-4677.127
188.05	-542.810
188.42	-244.256
188.78	268.624
189.15	93.961
189.52	74.993
189.89	24.645
190.26	16.327
190.63	-17.265
191.00	-32.442
191.37	-74.978
191.73	-132.236
192.10	-103.403
192.47	-68.999
192.84	-278.211
193.21	-406.451
193.58	-391.921
193.94	-262.728
194.31	-97.681
194.68	-8.638
195.05	17.951
195.42	27.199
195.79	34.348
196.15	23.650
196.52	7.965
196.89	26.128
197.26	3.562
197.63	-7.437
198.00	41.296
198.36	-1.197
198.73	-69.608
199.10	-59.412
199.47	14.622
199.84	0.662
200.20	-45.723
200.57	-11.848
200.94	10.827
201.31	36.559
201.68	43.357
202.04	32.008
202.41	25.561
202.78	29.005
203.15	33.870
203.51	29.879
203.88	32.399
204.25	20.590
204.62	0.606
204.98	1.692
205.35	-23.843
205.72	-56.604
206.09	-118.111
206.46	-74.923
206.82	-121.853
207.19	-134.182
207.56	-153.866
207.92	-186.025
208.29	-75.395
208.66	-7.761
209.03	-35.009
209.39	10.623
209.76	22.087
210.13	26.139
210.50	54.830
210.86	70.414
211.23	70.854
211.60	37.424
211.96	36.486
212.33	-0.963
212.70	2007.557
213.07	231.273
213.43	283.468
213.80	1002.617
214.17	205.081
214.53	1361.584
214.90	-165.045
215.27	-69.557
215.63	-114.352
216.00	-31.777
216.37	-1.122
216.74	-7.668
217.10	5.743
217.47	5.512
217.84	4.230
218.20	13.166
218.57	19.248
218.94	11.858
219.30	10.075
219.67	22.552
220.04	23.130
220.40	22.956
220.77	29.715
221.13	30.506
221.50	24.529
221.87	20.715
222.23	14.914
222.60	17.127
222.97	12.522
223.33	6.217
223.70	-0.366
224.07	-6.432
224.43	-5.789
224.80	-1.487
225.16	-1.995
225.53	-3.146
225.90	-2.187
226.26	0.085
226.63	-0.245
226.99	1.483
227.36	2.465
227.73	3.212
228.09	4.160
228.46	4.002
228.82	2.335
229.19	3.384
229.56	3.870
229.92	5.105
230.29	6.636
230.65	7.661
231.02	5.617
231.38	6.971
231.75	6.324
232.12	6.388
232.48	4.714
232.85	7.496
233.21	6.005
233.58	7.901
233.94	7.528
234.31	6.121
234.68	3.984
235.04	7.386
235.41	6.679
235.77	5.761
236.14	4.803
236.50	8.784
236.87	8.133
237.23	7.869
237.60	5.479
237.96	3.991
238.33	2.873
238.69	4.169
239.06	2.232
239.42	1.445
239.79	1.727
240.15	2.215
240.52	1.574
240.88	1.532
241.25	1.317
241.61	1.312
241.98	1.598
242.34	1.415
242.71	0.612
243.07	1.402
243.44	1.864
243.80	2.142
244.17	1.320
244.53	1.216
244.90	1.073
245.26	1.256
245.63	1.422
245.99	1.405
246.36	1.685
246.72	1.916
247.09	1.629
247.45	1.939
247.81	2.108
248.18	2.699
248.54	2.741
248.91	2.625
249.27	2.102
249.64	2.804
250.00	3.148
250.36	3.227
250.73	3.076
251.09	2.415
251.46	1.974
251.82	2.043
252.19	2.046
252.55	2.446
252.91	3.107
253.28	3.947
253.64	3.084
254.01	2.953
254.37	2.986
254.73	3.088
255.10	3.815
255.46	3.730
255.83	3.179
256.19	3.302
256.55	3.006
256.92	2.774
257.28	2.931
257.65	3.035
258.01	2.779
258.37	2.811
258.74	2.631
259.10	2.737
259.46	2.676
259.83	2.856
260.19	2.790
260.55	2.729
260.92	2.710
261.28	2.329
261.64	2.115
262.01	2.281
262.37	2.089
262.73	2.242
263.10	1.657
263.46	2.024
263.82	1.752
264.19	1.458
264.55	1.629
264.91	2.009
265.28	2.467
265.64	2.368
266.00	2.379
266.37	2.607
266.73	2.784
267.09	2.921
267.46	2.357
267.82	2.550
268.18	2.795
268.54	2.725
268.91	2.653
269.27	2.349
269.63	2.235
270.00	2.053
270.36	1.846
270.72	1.656
271.08	1.653
271.45	1.911
271.81	2.113
272.17	2.205
272.53	2.263
272.90	2.102
273.26	2.268
273.62	2.533
273.98	2.870
274.35	2.962
274.71	2.901
275.07	3.369
275.43	3.494
275.80	3.215
276.16	3.240
276.52	3.239
276.88	3.307
277.25	2.920
277.61	3.122
277.97	2.997
278.33	2.901
278.69	3.135
279.06	2.637
279.42	2.407
279.78	2.337
280.14	2.105
280.50	2.001
280.87	1.920
281.23	2.160
281.59	2.204
281.95	2.183
282.31	2.285
282.68	2.262
283.04	2.365
283.40	2.200
283.76	2.130
284.12	2.145
284.48	2.176
284.85	2.276
285.21	2.347
285.57	2.171
285.93	2.199
286.29	2.091
286.65	2.062
287.02	2.379
287.38	2.681
287.74	2.818
288.10	2.925
288.46	2.840
288.82	2.721
289.18	2.478
289.54	2.494
289.91	2.336
290.27	2.467
290.63	2.626
290.99	2.195
291.35	2.070
291.71	2.069
292.07	1.812
292.43	1.853
292.79	1.879
293.16	1.989
293.52	1.953
293.88	2.075
294.24	1.948
294.60	1.939
294.96	1.969
295.32	2.073
295.68	1.935
296.04	2.020
296.40	2.061
296.76	2.055
297.12	2.078
297.49	2.288
297.85	2.465
298.21	2.630
298.57	2.529
298.93	2.737
299.29	2.592
299.65	2.684
300.01	2.752
300.37	2.896
300.73	2.935
301.09	2.958
301.45	2.595
301.81	2.499
302.17	2.481
302.53	2.389
302.89	2.245
303.25	2.340
303.61	2.373
303.97	2.481
304.33	2.453
304.69	2.676
305.05	2.784
305.41	3.111
305.77	3.037
306.13	3.008
306.49	3.257
306.85	3.507
307.21	3.356
307.57	3.218
307.93	3.083
308.29	3.063
308.65	2.755
309.01	2.627
309.37	2.495
309.73	2.564
310.09	2.658
310.45	2.584
310.81	2.404
311.17	2.564
311.53	2.653
311.89	2.715
312.25	2.689
312.61	2.868
312.96	3.042
313.32	3.157
313.68	3.104
314.04	3.034
314.40	2.842
314.76	2.867
315.12	2.822
315.48	2.901
315.84	2.642
316.20	2.686
316.56	2.775
316.92	2.578
317.27	2.488
317.63	2.457
317.99	2.343
318.35	2.520
318.71	2.532
319.07	2.571
319.43	2.401
319.79	2.597
320.15	2.651
320.50	2.642
320.86	2.760
321.22	2.878
321.58	2.762
321.94	2.857
322.30	2.970
322.66	2.948
323.01	2.850
323.37	3.054
323.73	2.973
324.09	2.948
324.45	2.877
324.81	2.932
325.17	2.903
325.52	3.121
325.88	3.122
326.24	2.986
326.60	2.963
326.96	3.174
327.31	3.050
327.67	3.195
328.03	3.273
328.39	3.253
328.75	3.196
329.11	3.272
329.46	3.221
329.82	3.220
330.18	3.326
330.54	3.418
330.90	3.328
331.25	3.414
331.61	3.299
331.97	3.181
332.33	3.294
332.68	3.396
333.04	3.292
333.40	3.330
333.76	3.344
334.11	3.246
334.47	3.224
334.83	3.151
335.19	3.178
335.54	3.232
335.90	3.177
336.26	3.060
336.62	2.999
336.97	3.065
337.33	3.043
337.69	3.053
338.05	3.318
338.40	3.319
338.76	3.383
339.12	3.383
339.48	3.340
339.83	3.346
340.19	3.369
340.55	3.349
340.90	3.280
341.26	3.230
341.62	3.206
341.97	3.055
342.33	3.045
342.69	3.075
343.04	2.964
343.40	3.101
343.76	3.135
344.12	3.173
344.47	3.114
344.83	3.172
345.19	3.286
345.54	3.272
345.90	3.223
346.26	3.174
346.61	3.003
346.97	3.151
347.32	3.073
347.68	3.126
348.04	3.147
348.39	3.208
348.75	3.167
349.11	3.109
349.46	3.159
349.82	3.169
350.18	3.290
350.53	3.545
350.89	3.467
351.24	3.579
351.60	3.599
351.96	3.589
352.31	3.560
352.67	3.580
353.02	3.588
353.38	3.629
353.74	3.619
354.09	3.601
354.45	3.478
354.80	3.483
355.16	3.419
355.52	3.401
355.87	3.376
356.23	3.458
356.58	3.419
356.94	3.410
357.29	3.383
357.65	3.395
358.00	3.378
358.36	3.421
358.72	3.400
359.07	3.331
359.43	3.348
359.78	3.418
360.14	3.372
360.49	3.398
360.85	3.384
361.20	3.415
361.56	3.469
361.91	3.444
362.27	3.436
362.62	3.537
362.98	3.625
363.33	3.661
363.69	3.642
364.04	3.705
364.40	3.779
364.75	3.775
365.11	3.727
365.46	3.672
365.82	3.643
366.17	3.624
366.53	3.552
366.88	3.559
367.24	3.555
367.59	3.550
367.95	3.522
368.30	3.500
368.66	3.581
369.01	3.678
369.37	3.709
369.72	3.795
370.08	3.823
370.43	3.825
370.78	3.829
371.14	3.813
371.49	3.801
371.85	3.848
372.20	3.870
372.56	3.902
372.91	3.905
373.26	3.941
373.62	3.929
373.97	3.993
374.33	4.016
374.68	4.056
375.03	4.067
375.39	4.027
375.74	4.029
376.10	4.047
376.45	4.039
376.80	4.065
377.16	4.061
377.51	4.103
377.87	4.114
378.22	4.163
378.57	4.135
378.93	4.179
379.28	4.302
379.63	4.332
379.99	4.334
380.34	4.346
380.70	4.374
381.05	4.435
381.40	4.442
381.76	4.482
382.11	4.480
382.46	4.564
382.82	4.527
383.17	4.546
383.52	4.574
383.88	4.630
384.23	4.687
384.58	4.723
384.94	4.761
385.29	4.792
385.64	4.778
385.99	4.842
386.35	4.840
386.70	4.939
387.05	4.969
387.41	5.041
387.76	5.033
388.11	5.035
388.47	4.999
388.82	5.010
389.17	5.055
389.52	5.067
389.88	5.147
390.23	5.205
390.58	5.247
390.93	5.323
391.29	5.369
391.64	5.443
391.99	5.515
392.34	5.598
392.70	5.658
393.05	5.726
393.40	5.841
393.75	5.867
394.11	5.903
394.46	5.948
394.81	5.973
395.16	5.998
395.52	6.086
395.87	6.116
396.22	6.198
396.57	6.268
396.92	6.322
397.28	6.326
397.63	6.330
397.98	6.434
398.33	6.499
398.68	6.540
399.04	6.552
399.39	6.552
399.74	6.613
400.09	6.619
400.44	6.648
400.80	6.678
401.15	6.749
401.50	6.843
401.85	6.851
402.20	6.895
402.55	6.946
402.90	7.016
403.26	7.077
403.61	7.141
403.96	7.206
404.31	7.283
404.66	7.329
405.01	7.383
405.36	7.424
405.72	7.500
406.07	7.527
406.42	7.610
406.77	7.686
407.12	7.764
407.47	7.799
407.82	7.830
408.17	7.848
408.53	7.926
408.88	7.986
409.23	8.021
409.58	8.044
409.93	8.124
410.28	8.152
410.63	8.198
410.98	8.248
411.33	8.311
411.68	8.409
412.03	8.476
412.38	8.519
412.73	8.548
413.09	8.553
413.44	8.613
413.79	8.656
414.14	8.727
414.49	8.713
414.84	8.740
415.19	8.741
415.54	8.740
415.89	8.718
416.24	8.747
416.59	8.776
416.94	8.816
417.29	8.823
417.64	8.830
417.99	8.824
418.34	8.861
418.69	8.875
419.04	8.903
419.39	8.955
419.74	9.020
420.09	9.024
420.44	9.050
420.79	9.085
421.14	9.124
421.49	9.174
421.84	9.210
422.19	9.243
422.54	9.284
422.89	9.330
423.24	9.341
423.59	9.396
423.94	9.473
424.29	9.531
424.64	9.606
424.99	9.702
425.34	9.763
425.68	9.850
426.03	9.975
426.38	10.084
426.73	10.173
427.08	10.272
427.43	10.313
427.78	10.366
428.13	10.416
428.48	10.477
428.83	10.500
429.18	10.528
429.53	10.549
429.87	10.561
430.22	10.574
430.57	10.608
430.92	10.634
431.27	10.675
431.62	10.697
431.97	10.714
432.32	10.738
432.67	10.761
433.01	10.837
433.36	10.886
433.71	10.926
434.06	10.978
434.41	11.018
434.76	11.081
435.11	11.142
435.45	11.181
435.80	11.227
436.15	11.248
436.50	11.260
436.85	11.242
437.20	11.233
437.54	11.242
437.89	11.255
438.24	11.271
438.59	11.285
438.94	11.271
439.29	11.302
439.63	11.318
439.98	11.346
440.33	11.383
440.68	11.419
441.03	11.463
441.37	11.479
441.72	11.522
442.07	11.553
442.42	11.545
442.76	11.572
443.11	11.574
443.46	11.601
443.81	11.595
444.16	11.622
444.50	11.634
444.85	11.672
445.20	11.721
445.55	11.731
445.89	11.746
446.24	11.792
446.59	11.834
446.94	11.892
447.28	11.928
447.63	11.986
447.98	12.021
448.32	12.074
448.67	12.123
449.02	12.144
449.37	12.176
449.71	12.241
450.06	12.287
450.41	12.342
450.75	12.346
451.10	12.393
451.45	12.427
451.79	12.460
452.14	12.481
452.49	12.486
452.84	12.525
453.18	12.588
453.53	12.601
453.88	12.620
454.22	12.610
454.57	12.641
454.92	12.634
455.26	12.666
455.61	12.656
455.95	12.675
456.30	12.707
456.65	12.717
456.99	12.690
457.34	12.699
457.69	12.705
458.03	12.710
458.38	12.742
458.73	12.793
459.07	12.813
459.42	12.865
459.76	12.908
460.11	12.951
460.46	13.020
460.80	13.091
461.15	13.173
461.49	13.247
461.84	13.338
462.19	13.404
462.53	13.453
462.88	13.542
463.22	13.592
463.57	13.658
463.91	13.695
464.26	13.718
464.61	13.760
464.95	13.818
465.30	13.880
465.64	13.920
465.99	13.969
466.33	14.012
466.68	14.034
467.02	14.091
467.37	14.138
467.71	14.168
468.06	14.191
468.41	14.240
468.75	14.280
469.10	14.326
469.44	14.381
469.79	14.404
470.13	14.438
470.48	14.472
470.82	14.504
471.17	14.540
471.51	14.582
471.86	14.644
472.20	14.662
472.55	14.657
472.89	14.636
473.23	14.619
473.58	14.634
473.92	14.625
474.27	14.637
474.61	14.634
474.96	14.619
475.30	14.614
475.65	14.622
475.99	14.656
476.34	14.649
476.68	14.663
477.02	14.694
477.37	14.692
477.71	14.709
478.06	14.707
478.40	14.699
478.75	14.739
479.09	14.775
479.43	14.817
479.78	14.879
480.12	14.981
480.47	15.115
480.81	15.234
481.15	15.368
481.50	15.509
481.84	15.693
482.19	15.890
482.53	16.022
482.87	16.066
483.22	15.998
483.56	15.821
483.90	15.625
484.25	15.473
484.59	15.395
484.94	15.291
485.28	15.185
485.62	15.017
485.97	14.828
486.31	14.681
486.65	14.642
487.00	14.733
487.34	14.948
487.68	15.180
488.03	15.331
488.37	15.361
488.71	15.419
489.06	15.446
489.40	15.489
489.74	15.530
490.09	15.581
490.43	15.638
490.77	15.683
491.11	15.726
491.46	15.768
491.80	15.809
492.14	15.869
492.49	15.927
492.83	15.992
493.17	16.056
493.51	16.133
493.86	16.217
494.20	16.288
494.54	16.351
494.88	16.394
495.23	16.441
495.57	16.497
495.91	16.578
496.25	16.631
496.60	16.688
496.94	16.753
497.28	16.814
497.62	16.858
497.97	16.924
498.31	17.013
498.65	17.126
498.99	17.224
499.33	17.324
499.68	17.400
500.02	17.490
500.36	17.577
500.70	17.667
501.04	17.748
501.39	17.854
501.73	17.908
502.07	17.962
502.41	18.017
502.75	18.074
503.09	18.121
503.44	18.188
503.78	18.249
504.12	18.328
504.46	18.384
504.80	18.460
505.14	18.510
505.49	18.592
505.83	18.650
506.17	18.718
506.51	18.789
506.85	18.861
507.19	18.938
507.53	19.010
507.87	19.068
508.22	19.144
508.56	19.223
508.90	19.279
509.24	19.354
509.58	19.437
509.92	19.512
510.26	19.603
510.60	19.685
510.94	19.761
511.28	19.831
511.63	19.932
511.97	20.000
512.31	20.072
512.65	20.173
512.99	20.253
513.33	20.314
513.67	20.372
514.01	20.417
514.35	20.491
514.69	20.547
515.03	20.624
515.37	20.668
515.71	20.716
516.05	20.743
516.39	20.786
516.73	20.823
517.07	20.899
517.41	20.960
517.75	21.036
518.09	21.087
518.43	21.161
518.77	21.200
519.11	21.264
519.45	21.339
519.79	21.444
520.13	21.513
520.47	21.613
520.81	21.662
521.15	21.740
521.49	21.782
521.83	21.822
522.17	21.838
522.51	21.841
522.85	21.846
523.19	21.876
523.53	21.931
523.87	22.019
524.21	22.082
524.55	22.159
524.89	22.228
525.23	22.298
525.57	22.396
525.91	22.485
526.25	22.588
526.58	22.678
526.92	22.758
527.26	22.813
527.60	22.848
527.94	22.880
528.28	22.897
528.62	22.912
528.96	22.932
529.30	22.919
529.64	22.922
529.97	22.922
530.31	22.913
530.65	22.911
530.99	22.909
531.33	22.912
531.67	22.934
532.01	22.968
532.35	23.014
532.68	23.051
533.02	23.095
533.36	23.103
533.70	23.125
534.04	23.180
534.38	23.217
534.71	23.247
535.05	23.290
535.39	23.301
535.73	23.325
536.07	23.332
536.41	23.362
536.74	23.395
537.08	23.438
537.42	23.471
537.76	23.492
538.10	23.506
538.43	23.531
538.77	23.579
539.11	23.619
539.45	23.665
539.79	23.687
540.12	23.720
540.46	23.723
540.80	23.727
541.14	23.759
541.47	23.775
541.81	23.800
542.15	23.824
542.49	23.826
542.82	23.844
543.16	23.869
543.50	23.913
543.84	23.922
544.17	23.970
544.51	24.047
544.85	24.080
545.18	24.107
545.52	24.160
545.86	24.228
546.20	24.298
546.53	24.393
546.87	24.462
547.21	24.538
547.54	24.661
547.88	24.747
548.22	24.796
548.55	24.841
548.89	24.910
549.23	24.972
549.56	25.023
549.90	25.033
550.24	25.028
550.57	25.044
550.91	25.066
551.25	25.056
551.58	25.061
551.92	25.082
552.26	25.129
552.59	25.171
552.93	25.210
553.27	25.243
553.60	25.290
553.94	25.341
554.27	25.391
554.61	25.426
554.95	25.465
555.28	25.502
555.62	25.549
555.95	25.584
556.29	25.616
556.63	25.634
556.96	25.634
557.30	25.672
557.63	25.700
557.97	25.722
558.31	25.716
558.64	25.721
558.98	25.731
559.31	25.745
559.65	25.749
559.98	25.723
560.32	25.729
560.65	25.737
560.99	25.741
561.33	25.687
561.66	25.630
562.00	25.652
562.33	25.623
562.67	25.597
563.00	25.558
563.34	25.545
563.67	25.557
564.01	25.538
564.34	25.544
564.68	25.516
565.01	25.554
565.35	25.577
565.68	25.588
566.02	25.620
566.35	25.662
566.69	25.660
567.02	25.625
567.36	25.652
567.69	25.624
568.03	25.567
568.36	25.569
568.69	25.561
569.03	25.562
569.36	25.517
569.70	25.494
570.03	25.487
570.37	25.496
570.70	25.526
571.04	25.504
571.37	25.529
571.70	25.574
572.04	25.582
572.37	25.599
572.71	25.616
573.04	25.661
573.37	25.687
573.71	25.721
574.04	25.769
574.38	25.817
574.71	25.848
575.04	25.893
575.38	25.972
575.71	26.033
576.05	26.092
576.38	26.163
576.71	26.193
577.05	26.261
577.38	26.301
577.71	26.340
578.05	26.388
578.38	26.429
578.71	26.415
579.05	26.387
579.38	26.399
579.71	26.389
580.05	26.378
580.38	26.391
580.71	26.379
581.05	26.389
581.38	26.401
581.71	26.371
582.05	26.368
582.38	26.390
582.71	26.424
583.04	26.422
583.38	26.440
583.71	26.424
584.04	26.428
584.38	26.442
584.71	26.416
585.04	26.395
585.37	26.372
585.71	26.362
586.04	26.346
586.37	26.338
586.70	26.313
587.04	26.283
587.37	26.267
587.70	26.218
588.03	26.164
588.37	26.150
588.70	26.150
589.03	26.164
589.36	26.138
589.69	26.120
590.03	26.082
590.36	26.059
590.69	26.013
591.02	25.998
591.35	25.999
591.69	26.000
592.02	25.960
592.35	25.879
592.68	25.807
593.01	25.736
593.35	25.695
593.68	25.616
594.01	25.577
594.34	25.538
594.67	25.477
595.00	25.400
595.34	25.336
595.67	25.321
596.00	25.304
596.33	25.302
596.66	25.339
596.99	25.336
597.32	25.356
597.65	25.355
597.99	25.365
598.32	25.345
598.65	25.330
598.98	25.314
599.31	25.249
599.64	25.235
599.97	25.184
600.30	25.115
600.63	25.048
600.96	25.019
601.30	24.956
601.63	24.873
601.96	24.864
602.29	24.829
602.62	24.808
602.95	24.823
603.28	24.795
603.61	24.775
603.94	24.749
604.27	24.772
604.60	24.762
604.93	24.781
605.26	24.810
605.59	24.815
605.92	24.864
606.25	24.876
606.58	24.836
606.91	24.807
607.24	24.795
607.57	24.807
607.90	24.790
608.23	24.777
608.56	24.766
608.89	24.772
609.22	24.733
609.55	24.731
609.88	24.732
610.21	24.771
610.54	24.788
610.87	24.800
611.20	24.774
611.53	24.774
611.86	24.776
612.19	24.795
612.52	24.775
612.85	24.810
613.18	24.782
613.51	24.723
613.84	24.688
614.17	24.712
614.49	24.701
614.82	24.740
615.15	24.728
615.48	24.703
615.81	24.705
616.14	24.715
616.47	24.679
616.80	24.661
617.13	24.666
617.46	24.610
617.78	24.534
618.11	24.529
618.44	24.506
618.77	24.471
619.10	24.453
619.43	24.418
619.76	24.368
620.09	24.349
620.41	24.314
620.74	24.315
621.07	24.294
621.40	24.327
621.73	24.289
622.06	24.241
622.38	24.212
622.71	24.122
623.04	24.029
623.37	23.991
623.70	23.901
624.02	23.840
624.35	23.758
624.68	23.775
625.01	23.692
625.34	23.652
625.66	23.602
625.99	23.588
626.32	23.614
626.65	23.662
626.98	23.672
627.30	23.732
627.63	23.758
627.96	23.798
628.29	23.748
628.61	23.738
628.94	23.721
629.27	23.717
629.60	23.674
629.92	23.656
630.25	23.588
630.58	23.511
630.91	23.427
631.23	23.344
631.56	23.300
631.89	23.255
632.21	23.285
632.54	23.280
632.87	23.261
633.19	23.256
633.52	23.233
633.85	23.212
634.18	23.174
634.50	23.200
634.83	23.176
635.16	23.157
635.48	23.167
635.81	23.118
636.14	23.016
636.46	22.970
636.79	22.953
637.11	22.911
637.44	22.841
637.77	22.885
638.09	22.842
638.42	22.826
638.75	22.790
639.07	22.750
639.40	22.665
639.73	22.676
640.05	22.652
640.38	22.589
640.70	22.531
641.03	22.547
641.36	22.486
641.68	22.460
642.01	22.483
642.33	22.486
642.66	22.451
642.98	22.503
643.31	22.482
643.64	22.505
643.96	22.495
644.29	22.513
644.61	22.450
644.94	22.472
645.26	22.527
645.59	22.467
645.91	22.441
646.24	22.457
646.56	22.448
646.89	22.468
647.22	22.438
647.54	22.386
647.87	22.352
648.19	22.339
648.52	22.268
648.84	22.137
649.17	22.144
649.49	22.053
649.82	21.967
650.14	21.888
650.47	21.840
650.79	21.790
651.11	21.778
651.44	21.723
651.76	21.766
652.09	21.776
652.41	21.806
652.74	21.765
653.06	21.706
653.39	21.697
653.71	21.664
654.04	21.659
654.36	21.597
654.68	21.545
655.01	21.558
655.33	21.530
655.66	21.467
655.98	21.404
656.30	21.360
656.63	21.347
656.95	21.309
657.28	21.279
657.60	21.228
657.92	21.215
658.25	21.197
658.57	21.118
658.90	21.010
659.22	20.970
659.54	20.913
659.87	20.856
660.19	20.844
660.51	20.841
660.84	20.772
661.16	20.758
661.48	20.741
661.81	20.725
662.13	20.728
662.45	20.766
662.78	20.711
663.10	20.754
663.42	20.790
663.75	20.762
664.07	20.750
664.39	20.780
664.72	20.667
665.04	20.647
665.36	20.646
665.69	20.625
666.01	20.549
666.33	20.534
666.65	20.476
666.98	20.362
667.30	20.386
667.62	20.300
667.94	20.244
668.27	20.240
668.59	20.184
668.91	20.150
669.23	20.089
669.56	20.066
669.88	20.092
670.20	20.062
670.52	20.093
670.85	20.041
671.17	20.040
671.49	19.992
671.81	20.055
672.13	19.989
672.46	19.932
672.78	19.927
673.10	19.898
673.42	19.823
673.74	19.791
674.07	19.780
674.39	19.775
674.71	19.728
675.03	19.729
675.35	19.642
675.67	19.627
676.00	19.616
676.32	19.532
676.64	19.500
676.96	19.552
677.28	19.562
677.60	19.503
677.92	19.455
678.25	19.438
678.57	19.407
678.89	19.389
679.21	19.420
679.53	19.387
679.85	19.463
680.17	19.516
680.49	19.439
680.81	19.343
681.13	19.408
681.46	19.369
681.78	19.331
682.10	19.354
682.42	19.366
682.74	19.343
683.06	19.384
683.38	19.387
683.70	19.361
684.02	19.408
684.34	19.460
684.66	19.409
684.98	19.427
685.30	19.447
685.62	19.504
685.94	19.481
686.26	19.432
686.58	19.375
686.90	19.232
687.22	19.198
687.54	19.161
687.86	19.156
688.18	19.118
688.50	19.094
688.82	19.108
689.14	19.018
689.46	19.008
689.78	18.990
690.10	19.026
690.42	19.066
690.74	19.016
691.06	18.985
691.38	18.932
691.70	18.886
692.02	18.780
692.34	18.638
692.66	18.530
692.98	18.489
693.30	18.473
693.62	18.388
693.94	18.414
694.26	18.354
694.57	18.369
694.89	18.324
695.21	18.294
695.53	18.307
695.85	18.339
696.17	18.348
696.49	18.248
696.81	18.266
697.13	18.249
697.44	18.210
697.76	18.260
698.08	18.108
698.40	18.119
698.72	18.074
699.04	18.044
699.36	18.021
699.67	17.925
699.99	17.906
700.31	17.811
700.63	17.701
700.95	17.690
701.27	17.496
701.58	17.548
701.90	17.442
702.22	17.398
702.54	17.353
702.86	17.282
703.17	17.273
703.49	17.259
703.81	17.209
704.13	17.190
704.45	17.058
704.76	17.123
705.08	17.040
705.40	17.035
705.72	17.059
706.03	17.138
706.35	17.164
706.67	17.163
706.99	17.155
707.30	17.168
707.62	17.210
707.94	17.257
708.26	17.245
708.57	17.251
708.89	17.267
709.21	17.253
709.53	17.172
709.84	17.212
710.16	17.156
710.48	17.181
710.79	17.178
711.11	17.113
711.43	17.065
711.74	17.036
712.06	17.066
712.38	17.064
712.69	17.030
713.01	17.080
713.33	17.035
713.64	17.173
713.96	17.203
714.28	17.173
714.59	17.310
714.91	17.453
715.23	17.586
715.54	17.587
715.86	17.589
716.17	17.775
716.49	17.702
716.81	17.700
717.12	17.648
717.44	17.587
717.76	17.499
718.07	17.280
718.39	17.056
718.70	16.958
719.02	16.884
719.33	16.760
719.65	16.507
719.97	16.486
720.28	16.481
720.60	16.440
720.91	16.381
721.23	16.436
721.54	16.519
721.86	16.618
722.17	16.547
722.49	16.656
722.81	16.796
723.12	16.959
723.44	17.021
723.75	17.053
724.07	16.974
724.38	16.995
724.70	17.037
725.01	17.100
725.33	17.157
725.64	17.139
725.96	17.058
726.27	17.083
726.59	16.965
726.90	16.877
727.22	16.818
727.53	16.925
727.84	16.936
728.16	16.840
728.47	16.859
728.79	16.754
729.10	16.719
729.42	16.699
729.73	16.540
730.05	16.438
730.36	16.332
730.67	16.308
730.99	16.181
731.30	16.064
731.62	16.119
731.93	15.934
732.24	15.784
732.56	15.807
732.87	15.687
733.19	15.744
733.50	15.812
733.81	15.882
734.13	15.722
734.44	15.653
734.76	15.689
735.07	15.597
735.38	15.492
735.70	15.442
736.01	15.256
736.32	15.372
736.64	15.244
736.95	15.082
737.26	15.001
737.58	15.064
737.89	15.031
738.20	14.946
738.52	14.829
738.83	14.993
739.14	14.908
739.45	15.008
739.77	14.793
740.08	14.702
740.39	14.591
740.71	14.581
741.02	14.420
741.33	14.451
741.64	14.331
741.96	14.257
742.27	14.047
742.58	14.129
742.90	13.953
743.21	13.821
743.52	13.780
743.83	13.753
744.14	13.645
744.46	13.404
744.77	13.384
745.08	13.440
745.39	13.516
745.71	13.580
746.02	13.502
746.33	13.587
746.64	13.819
746.95	13.681
747.27	13.673
747.58	13.736
747.89	14.026
748.20	13.907
748.51	13.949
748.82	13.886
749.14	13.818
749.45	13.817
749.76	13.693
750.07	13.689
750.38	13.664
750.69	13.806
751.01	13.789
751.32	13.734
751.63	13.764
751.94	13.703
752.25	13.671
752.56	13.586
752.87	13.621
753.18	13.713
753.49	13.559
753.81	13.626
754.12	13.556
754.43	13.628
754.74	13.663
755.05	13.878
755.36	13.971
755.67	14.166
755.98	14.349
756.29	14.600
756.60	14.721
756.91	15.100
757.22	15.519
757.53	15.883
757.84	16.102
758.15	16.394
758.46	16.452
758.77	16.629
759.09	16.714
759.40	17.016
759.71	17.028
760.02	17.018
760.33	16.957
760.64	16.905
760.95	16.866
761.26	16.780
761.57	16.790
761.88	16.747
762.18	16.675
762.49	16.716
762.80	16.628
763.11	16.613
763.42	16.453
763.73	16.237
764.04	16.073
764.35	15.913
764.66	15.782
764.97	15.531
765.28	15.248
765.59	14.937
765.90	14.558
766.21	14.104
766.52	13.650
766.83	13.615
767.14	13.420
767.44	13.186
767.75	13.015
768.06	12.698
768.37	12.440
768.68	12.507
768.99	12.686
769.30	12.490
769.61	12.384
769.91	12.291
770.22	12.126
770.53	12.234
770.84	12.152
771.15	11.915
771.46	11.979
771.77	11.822
772.07	11.472
772.38	11.374
772.69	11.547
773.00	11.461
773.31	11.633
773.61	11.566
773.92	11.563
774.23	11.581
774.54	11.433
774.85	11.521
775.15	11.669
775.46	11.853
775.77	11.846
776.08	11.746
776.39	11.809
776.69	11.577
777.00	11.840
777.31	11.903
777.62	11.902
777.92	12.319
778.23	12.151
778.54	12.104
778.85	12.198
779.15	11.906
779.46	11.847
779.77	12.112
780.07	12.372
780.38	12.274
780.69	11.927
781.00	12.063
781.30	11.978
781.61	12.113
781.92	12.155
782.22	12.084
782.53	12.413
782.84	12.402
783.14	11.899
783.45	11.835
783.76	11.925
784.06	12.197
784.37	12.345
784.68	12.155
784.98	12.310
785.29	12.541
785.60	12.366
785.90	12.485
786.21	12.653
786.51	13.320
786.82	13.217
787.13	13.071
787.43	13.139
787.74	13.151
788.04	13.289
788.35	13.168
788.66	13.096
788.96	13.336
789.27	13.038
789.57	13.113
789.88	12.798
790.19	13.094
790.49	13.328
790.80	13.376
791.10	13.375
791.41	13.447
791.71	13.462
792.02	13.394
792.32	13.512
792.63	13.638
792.93	13.642
793.24	13.682
793.54	13.618
793.85	13.490
794.15	13.473
794.46	13.487
794.76	13.493
795.07	13.507
795.37	13.525
795.68	13.484
795.98	13.523
796.29	13.734
796.59	13.657
796.90	13.855
797.20	14.008
797.51	14.146
797.81	14.014
798.12	14.259
798.42	14.659
798.72	14.686
799.03	15.066
799.33	15.082
799.64	14.868
799.94	15.080
800.25	14.680
800.55	14.798
800.85	14.536
801.16	14.491
801.46	14.117
801.77	13.818
802.07	13.741
802.37	13.607
802.68	13.705
802.98	14.002
803.28	13.975
803.59	14.177
803.89	13.864
804.20	14.057
804.50	13.975
804.80	14.289
805.11	13.951
805.41	13.942
805.71	13.545
806.02	13.496
806.32	13.065
806.62	12.916
806.93	13.077
807.23	13.457
807.53	13.301
807.83	13.626
808.14	13.516
808.44	13.905
808.74	14.315
809.05	14.566
809.35	14.703
809.65	15.220
809.95	15.254
810.26	15.312
810.56	15.220
810.86	15.472
811.16	15.741
811.47	15.759
811.77	15.827
812.07	16.102
812.37	16.521
812.68	16.684
812.98	16.261
813.28	16.550
813.58	16.747
813.88	16.647
814.19	17.165
814.49	17.297
814.79	17.562
815.09	17.695
815.39	17.506
815.70	17.376
816.00	17.460
816.30	17.984
816.60	17.937
816.90	18.001
817.20	18.268
817.50	17.895
817.81	17.783
818.11	17.824
818.41	17.680
818.71	17.701
819.01	17.583
819.31	17.668
819.61	17.759
819.92	17.855
820.22	17.890
820.52	17.919
820.82	17.990
821.12	17.951
821.42	17.908
821.72	17.949
822.02	18.009
822.32	18.128
822.62	18.171
822.92	18.057
823.22	18.030
823.52	18.025
823.83	17.954
824.13	17.956
824.43	17.975
824.73	18.113
825.03	18.181
825.33	18.219
825.63	18.088
825.93	18.032
826.23	18.120
826.53	18.156
826.83	18.076
827.13	18.009
827.43	17.854
827.73	17.880
828.03	17.597
828.33	17.523
828.63	17.178
828.93	17.159
829.23	16.924
829.53	17.014
829.83	16.958
830.13	17.150
830.42	17.342
830.72	17.515
831.02	17.284
831.32	17.373
831.62	17.263
831.92	17.468
832.22	17.483
832.52	17.494
832.82	17.534
833.12	17.345
833.42	17.231
833.72	17.401
834.01	17.290
834.31	17.306
834.61	17.377
834.91	17.303
835.21	17.077
835.51	16.951
835.81	16.911
836.11	16.264
836.40	16.465
836.70	16.024
837.00	15.290
837.30	15.302
837.60	15.729
837.90	15.898
838.19	16.082
838.49	16.350
838.79	16.569
839.09	16.861
839.39	17.279
839.68	16.693
839.98	17.114
840.28	17.657
840.58	17.561
840.88	17.476
841.17	17.217
841.47	17.626
841.77	17.324
842.07	17.382
842.36	17.417
842.66	17.524
842.96	17.361
843.26	16.887
843.55	15.545
843.85	14.872
844.15	13.850
844.45	12.961
844.74	12.446
845.04	13.046
845.34	12.740
845.63	12.416
845.93	12.658
846.23	14.185
846.53	14.037
846.82	14.605
847.12	15.051
847.42	15.431
847.71	16.318
848.01	15.740
848.31	16.027
848.60	16.676
848.90	16.717
849.19	15.347
849.49	14.018
849.79	15.049
850.08	16.355
850.38	16.552
850.68	16.772
850.97	16.568
851.27	16.882
851.56	15.614
851.86	13.286
852.16	13.037
852.45	14.608
852.75	15.902
853.04	13.364
853.34	13.042
853.64	13.288
853.93	13.221
854.23	12.525
854.52	13.730
854.82	13.391
855.11	15.744
855.41	14.191
855.70	12.210
856.00	10.230
856.30	11.091
856.59	10.118
856.89	8.604
857.18	8.629
857.48	9.841
857.77	8.793
858.07	9.948
858.36	9.261
858.66	11.532
858.95	13.909
859.25	15.046
859.54	16.922
859.84	17.527
860.13	18.961
860.42	20.323
860.72	20.332
861.01	19.082
861.31	18.387
861.60	19.922
861.90	20.350
862.19	20.005
862.49	21.183
862.78	20.571
863.07	19.155
863.37	18.831
863.66	18.469
863.96	18.132
864.25	19.086
864.54	19.213
864.84	17.742
865.13	16.140
865.43	15.714
865.72	13.835
866.01	11.237
866.31	15.292
866.60	8.136
866.89	17.398
>>>>>End Spectral Data<<<<<
