OOIBase32 Version 2.0.0.6 Data File
++++++++++++++++++++++++++++++++++++
Date: 01-22-2012, 21:36:40
User: Valued Ocean Optics Customer
Spectrometer Serial Number: USB2E2917
Spectrometer Channel: Master
Integration Time (msec): 4
Spectra Averaged: 10
Boxcar Smoothing: 5
Correct for Electrical Dark: Enabled
Time Normalized: Disabled
Dual-beam Reference: Disabled
Reference Channel: Master
Temperature: Not acquired
Spectrometer Type: S2000
ADC Type: USB2000
Number of Pixels in File: 2048
Graph Title: 
>>>>>Begin Spectral Data<<<<<
180.30	0.000
180.67	0.000
181.03	-31.976
181.40	37.278
181.77	50.695
182.14	-70.573
182.51	413.615
182.88	-2.494
183.25	97.154
183.62	-105.098
183.99	-0.662
184.36	64.334
184.73	-11.855
185.10	727.089
185.46	404.838
185.83	102.255
186.20	49.681
186.57	492.695
186.94	108.394
187.31	114.310
187.68	-4977.893
188.05	-159.999
188.42	-125.088
188.78	185.113
189.15	106.189
189.52	100.748
189.89	62.820
190.26	41.087
190.63	2.320
191.00	-19.754
191.37	-62.487
191.73	-101.622
192.10	-172.596
192.47	-159.148
192.84	-410.306
193.21	-680.242
193.58	-690.138
193.94	-554.574
194.31	-250.779
194.68	-96.327
195.05	-104.014
195.42	-93.925
195.79	-85.017
196.15	-32.463
196.52	-18.711
196.89	-14.004
197.26	-17.410
197.63	-28.668
198.00	-33.278
198.36	-99.056
198.73	-198.090
199.10	-131.501
199.47	-38.704
199.84	-15.783
200.20	-76.354
200.57	-67.960
200.94	-35.953
201.31	-18.903
201.68	-16.275
202.04	-9.550
202.41	-12.364
202.78	2.290
203.15	9.168
203.51	10.640
203.88	0.524
204.25	6.309
204.62	4.482
204.98	-2.936
205.35	-18.032
205.72	-25.167
206.09	-86.694
206.46	-26.389
206.82	-66.187
207.19	-89.525
207.56	-129.593
207.92	-140.820
208.29	-80.671
208.66	-27.013
209.03	-27.967
209.39	2.634
209.76	2.446
210.13	19.877
210.50	8.438
210.86	-6.847
211.23	-29.693
211.60	-47.976
211.96	-48.155
212.33	-149.409
212.70	7688.133
213.07	774.367
213.43	751.600
213.80	2101.208
214.17	374.224
214.53	1790.591
214.90	-207.377
215.27	-79.841
215.63	-144.386
216.00	-89.697
216.37	-60.167
216.74	-42.342
217.10	-23.397
217.47	-30.679
217.84	-35.223
218.20	-30.983
218.57	-28.493
218.94	-36.007
219.30	-26.008
219.67	-3.677
220.04	1.278
220.40	13.774
220.77	20.973
221.13	22.967
221.50	28.098
221.87	25.287
222.23	20.664
222.60	11.532
222.97	1.311
223.33	-9.186
223.70	-19.623
224.07	-22.179
224.43	-23.631
224.80	-16.321
225.16	-16.416
225.53	-14.085
225.90	-13.807
226.26	-10.429
226.63	-9.079
226.99	-6.147
227.36	-3.289
227.73	0.222
228.09	0.777
228.46	1.406
228.82	-1.062
229.19	-0.222
229.56	-1.079
229.92	0.306
230.29	1.252
230.65	2.446
231.02	0.930
231.38	1.498
231.75	0.579
232.12	0.244
232.48	-1.285
232.85	0.564
233.21	-0.342
233.58	1.464
233.94	3.642
234.31	3.269
234.68	2.072
235.04	3.699
235.41	1.888
235.77	-0.153
236.14	0.348
236.50	3.787
236.87	5.058
237.23	5.444
237.60	2.405
237.96	-0.169
238.33	-1.513
238.69	0.132
239.06	0.343
239.42	-0.123
239.79	0.466
240.15	0.826
240.52	0.183
240.88	-0.390
241.25	-0.703
241.61	-0.252
241.98	0.620
242.34	1.229
242.71	0.440
243.07	0.716
243.44	1.521
243.80	1.774
244.17	1.210
244.53	0.890
244.90	1.221
245.26	1.576
245.63	1.870
245.99	1.792
246.36	1.683
246.72	1.639
247.09	1.504
247.45	1.577
247.81	1.532
248.18	1.792
248.54	2.258
248.91	1.876
249.27	1.181
249.64	1.509
250.00	1.899
250.36	2.032
250.73	2.133
251.09	1.842
251.46	0.995
251.82	1.095
252.19	0.929
252.55	0.641
252.91	1.243
253.28	1.651
253.64	0.990
254.01	0.259
254.37	0.501
254.73	0.932
255.10	0.871
255.46	1.598
255.83	1.543
256.19	1.805
256.55	1.856
256.92	1.838
257.28	2.304
257.65	2.319
258.01	2.244
258.37	2.213
258.74	2.155
259.10	2.558
259.46	2.508
259.83	2.475
260.19	2.459
260.55	2.409
260.92	2.233
261.28	1.805
261.64	1.762
262.01	1.785
262.37	1.528
262.73	1.406
263.10	0.561
263.46	0.757
263.82	0.448
264.19	0.379
264.55	0.705
264.91	1.277
265.28	1.502
265.64	1.619
266.00	1.565
266.37	2.033
266.73	2.306
267.09	2.627
267.46	2.101
267.82	2.390
268.18	2.408
268.54	2.239
268.91	2.028
269.27	1.848
269.63	1.746
270.00	1.654
270.36	1.441
270.72	1.268
271.08	1.190
271.45	1.516
271.81	1.828
272.17	1.853
272.53	2.005
272.90	1.758
273.26	1.785
273.62	1.915
273.98	2.259
274.35	2.468
274.71	2.272
275.07	2.407
275.43	2.480
275.80	2.242
276.16	2.715
276.52	2.536
276.88	2.415
277.25	2.328
277.61	2.364
277.97	2.218
278.33	2.035
278.69	2.252
279.06	2.154
279.42	2.093
279.78	2.044
280.14	1.778
280.50	1.924
280.87	2.125
281.23	2.194
281.59	2.132
281.95	2.237
282.31	2.260
282.68	2.323
283.04	2.229
283.40	2.018
283.76	2.029
284.12	1.786
284.48	1.725
284.85	1.601
285.21	1.684
285.57	1.754
285.93	1.688
286.29	1.467
286.65	1.339
287.02	1.388
287.38	1.528
287.74	1.509
288.10	1.669
288.46	1.601
288.82	1.761
289.18	1.566
289.54	1.447
289.91	1.306
290.27	1.570
290.63	1.752
290.99	1.860
291.35	1.885
291.71	1.753
292.07	1.725
292.43	1.797
292.79	1.658
293.16	1.915
293.52	1.962
293.88	2.169
294.24	1.993
294.60	1.964
294.96	1.897
295.32	1.925
295.68	1.917
296.04	2.002
296.40	1.863
296.76	1.971
297.12	1.870
297.49	1.868
297.85	1.932
298.21	2.168
298.57	2.111
298.93	2.348
299.29	2.404
299.65	2.789
300.01	2.832
300.37	2.875
300.73	2.624
301.09	2.574
301.45	2.459
301.81	2.443
302.17	2.212
302.53	2.280
302.89	2.041
303.25	1.996
303.61	1.750
303.97	1.691
304.33	1.834
304.69	2.276
305.05	2.450
305.41	2.687
305.77	2.578
306.13	2.794
306.49	2.906
306.85	3.094
307.21	2.948
307.57	2.916
307.93	2.975
308.29	3.055
308.65	2.856
309.01	2.852
309.37	2.710
309.73	2.756
310.09	2.567
310.45	2.440
310.81	2.416
311.17	2.484
311.53	2.579
311.89	2.586
312.25	2.538
312.61	2.563
312.96	2.518
313.32	2.589
313.68	2.535
314.04	2.720
314.40	2.680
314.76	2.600
315.12	2.666
315.48	2.641
315.84	2.413
316.20	2.280
316.56	2.320
316.92	2.211
317.27	2.269
317.63	2.260
317.99	2.183
318.35	2.218
318.71	2.332
319.07	2.378
319.43	2.260
319.79	2.428
320.15	2.519
320.50	2.518
320.86	2.584
321.22	2.551
321.58	2.453
321.94	2.533
322.30	2.714
322.66	2.576
323.01	2.402
323.37	2.611
323.73	2.542
324.09	2.707
324.45	2.739
324.81	2.723
325.17	2.725
325.52	2.897
325.88	2.856
326.24	2.642
326.60	2.626
326.96	2.717
327.31	2.507
327.67	2.560
328.03	2.415
328.39	2.220
328.75	2.284
329.11	2.251
329.46	2.178
329.82	2.224
330.18	2.421
330.54	2.546
330.90	2.638
331.25	2.781
331.61	2.828
331.97	2.793
332.33	2.932
332.68	2.965
333.04	3.021
333.40	3.088
333.76	3.045
334.11	2.862
334.47	2.865
334.83	2.751
335.19	2.600
335.54	2.446
335.90	2.386
336.26	2.355
336.62	2.360
336.97	2.323
337.33	2.326
337.69	2.302
338.05	2.526
338.40	2.532
338.76	2.693
339.12	2.658
339.48	2.595
339.83	2.716
340.19	2.716
340.55	2.652
340.90	2.705
341.26	2.713
341.62	2.672
341.97	2.544
342.33	2.576
342.69	2.582
343.04	2.716
343.40	2.934
343.76	2.828
344.12	2.840
344.47	2.820
344.83	2.827
345.19	2.813
345.54	2.908
345.90	2.877
346.26	2.838
346.61	2.689
346.97	2.783
347.32	2.719
347.68	2.777
348.04	2.770
348.39	2.888
348.75	2.839
349.11	2.802
349.46	2.766
349.82	2.861
350.18	2.872
350.53	2.919
350.89	2.783
351.24	2.872
351.60	2.836
351.96	2.932
352.31	2.857
352.67	2.866
353.02	2.890
353.38	2.927
353.74	2.864
354.09	2.877
354.45	2.901
354.80	2.918
355.16	2.894
355.52	2.947
355.87	2.875
356.23	2.900
356.58	2.901
356.94	2.962
357.29	2.954
357.65	2.949
358.00	2.920
358.36	2.939
358.72	2.920
359.07	2.870
359.43	2.882
359.78	2.933
360.14	2.914
360.49	2.926
360.85	2.881
361.20	2.881
361.56	2.895
361.91	2.951
362.27	2.972
362.62	3.051
362.98	3.084
363.33	3.105
363.69	3.127
364.04	3.215
364.40	3.217
364.75	3.212
365.11	3.222
365.46	3.256
365.82	3.162
366.17	3.089
366.53	3.041
366.88	3.069
367.24	3.026
367.59	2.994
367.95	2.915
368.30	2.908
368.66	2.951
369.01	2.974
369.37	2.951
369.72	3.015
370.08	3.072
370.43	3.060
370.78	3.090
371.14	3.076
371.49	3.016
371.85	3.054
372.20	3.056
372.56	3.041
372.91	3.039
373.26	3.116
373.62	3.059
373.97	3.071
374.33	3.122
374.68	3.112
375.03	3.155
375.39	3.181
375.74	3.146
376.10	3.174
376.45	3.205
376.80	3.208
377.16	3.135
377.51	3.191
377.87	3.244
378.22	3.233
378.57	3.223
378.93	3.258
379.28	3.318
379.63	3.341
379.99	3.338
380.34	3.332
380.70	3.346
381.05	3.363
381.40	3.339
381.76	3.309
382.11	3.307
382.46	3.296
382.82	3.249
383.17	3.217
383.52	3.225
383.88	3.253
384.23	3.253
384.58	3.274
384.94	3.336
385.29	3.365
385.64	3.343
385.99	3.350
386.35	3.382
386.70	3.393
387.05	3.393
387.41	3.402
387.76	3.372
388.11	3.315
388.47	3.289
388.82	3.286
389.17	3.297
389.52	3.297
389.88	3.304
390.23	3.317
390.58	3.321
390.93	3.346
391.29	3.370
391.64	3.392
391.99	3.447
392.34	3.463
392.70	3.496
393.05	3.473
393.40	3.495
393.75	3.491
394.11	3.452
394.46	3.429
394.81	3.424
395.16	3.404
395.52	3.451
395.87	3.455
396.22	3.484
396.57	3.388
396.92	3.392
397.28	3.356
397.63	3.329
397.98	3.362
398.33	3.415
398.68	3.438
399.04	3.428
399.39	3.389
399.74	3.383
400.09	3.355
400.44	3.406
400.80	3.433
401.15	3.419
401.50	3.482
401.85	3.494
402.20	3.481
402.55	3.473
402.90	3.483
403.26	3.477
403.61	3.520
403.96	3.529
404.31	3.534
404.66	3.533
405.01	3.570
405.36	3.533
405.72	3.529
406.07	3.530
406.42	3.565
406.77	3.562
407.12	3.571
407.47	3.546
407.82	3.541
408.17	3.512
408.53	3.525
408.88	3.564
409.23	3.564
409.58	3.569
409.93	3.584
410.28	3.567
410.63	3.571
410.98	3.553
411.33	3.539
411.68	3.536
412.03	3.530
412.38	3.514
412.73	3.494
413.09	3.463
413.44	3.428
413.79	3.423
414.14	3.405
414.49	3.408
414.84	3.395
415.19	3.391
415.54	3.361
415.89	3.345
416.24	3.348
416.59	3.328
416.94	3.338
417.29	3.324
417.64	3.318
417.99	3.296
418.34	3.282
418.69	3.275
419.04	3.263
419.39	3.273
419.74	3.280
420.09	3.259
420.44	3.244
420.79	3.237
421.14	3.239
421.49	3.242
421.84	3.248
422.19	3.254
422.54	3.267
422.89	3.266
423.24	3.253
423.59	3.260
423.94	3.280
424.29	3.291
424.64	3.312
424.99	3.341
425.34	3.333
425.68	3.344
426.03	3.354
426.38	3.352
426.73	3.368
427.08	3.377
427.43	3.371
427.78	3.351
428.13	3.361
428.48	3.360
428.83	3.351
429.18	3.348
429.53	3.360
429.87	3.363
430.22	3.361
430.57	3.349
430.92	3.352
431.27	3.350
431.62	3.338
431.97	3.322
432.32	3.304
432.67	3.299
433.01	3.313
433.36	3.306
433.71	3.303
434.06	3.318
434.41	3.329
434.76	3.320
435.11	3.347
435.45	3.369
435.80	3.365
436.15	3.387
436.50	3.395
436.85	3.379
437.20	3.365
437.54	3.350
437.89	3.356
438.24	3.342
438.59	3.357
438.94	3.334
439.29	3.318
439.63	3.331
439.98	3.319
440.33	3.292
440.68	3.300
441.03	3.304
441.37	3.308
441.72	3.280
442.07	3.287
442.42	3.288
442.76	3.299
443.11	3.309
443.46	3.297
443.81	3.281
444.16	3.297
444.50	3.298
444.85	3.292
445.20	3.288
445.55	3.298
445.89	3.283
446.24	3.274
446.59	3.259
446.94	3.258
447.28	3.274
447.63	3.273
447.98	3.256
448.32	3.232
448.67	3.225
449.02	3.230
449.37	3.231
449.71	3.247
450.06	3.264
450.41	3.276
450.75	3.265
451.10	3.244
451.45	3.273
451.79	3.284
452.14	3.297
452.49	3.296
452.84	3.284
453.18	3.262
453.53	3.264
453.88	3.261
454.22	3.250
454.57	3.252
454.92	3.262
455.26	3.244
455.61	3.244
455.95	3.238
456.30	3.252
456.65	3.247
456.99	3.249
457.34	3.248
457.69	3.253
458.03	3.251
458.38	3.269
458.73	3.281
459.07	3.300
459.42	3.292
459.76	3.306
460.11	3.320
460.46	3.331
460.80	3.338
461.15	3.352
461.49	3.346
461.84	3.366
462.19	3.381
462.53	3.378
462.88	3.366
463.22	3.402
463.57	3.409
463.91	3.402
464.26	3.429
464.61	3.433
464.95	3.462
465.30	3.485
465.64	3.496
465.99	3.486
466.33	3.505
466.68	3.508
467.02	3.502
467.37	3.504
467.71	3.502
468.06	3.492
468.41	3.490
468.75	3.456
469.10	3.450
469.44	3.447
469.79	3.468
470.13	3.462
470.48	3.486
470.82	3.496
471.17	3.497
471.51	3.496
471.86	3.508
472.20	3.522
472.55	3.525
472.89	3.521
473.23	3.519
473.58	3.490
473.92	3.481
474.27	3.463
474.61	3.456
474.96	3.454
475.30	3.456
475.65	3.457
475.99	3.463
476.34	3.460
476.68	3.454
477.02	3.466
477.37	3.466
477.71	3.471
478.06	3.475
478.40	3.480
478.75	3.511
479.09	3.530
479.43	3.546
479.78	3.570
480.12	3.614
480.47	3.663
480.81	3.695
481.15	3.740
481.50	3.789
481.84	3.843
482.19	3.898
482.53	3.928
482.87	3.942
483.22	3.925
483.56	3.887
483.90	3.834
484.25	3.787
484.59	3.758
484.94	3.729
485.28	3.690
485.62	3.639
485.97	3.583
486.31	3.539
486.65	3.518
487.00	3.533
487.34	3.581
487.68	3.636
488.03	3.678
488.37	3.694
488.71	3.706
489.06	3.708
489.40	3.717
489.74	3.732
490.09	3.754
490.43	3.774
490.77	3.786
491.11	3.792
491.46	3.800
491.80	3.802
492.14	3.810
492.49	3.804
492.83	3.817
493.17	3.834
493.51	3.836
493.86	3.852
494.20	3.870
494.54	3.898
494.88	3.932
495.23	3.955
495.57	3.973
495.91	4.027
496.25	4.072
496.60	4.122
496.94	4.161
497.28	4.221
497.62	4.258
497.97	4.304
498.31	4.369
498.65	4.431
498.99	4.502
499.33	4.601
499.68	4.642
500.02	4.722
500.36	4.793
500.70	4.865
501.04	4.950
501.39	5.040
501.73	5.130
502.07	5.189
502.41	5.267
502.75	5.356
503.09	5.437
503.44	5.555
503.78	5.650
504.12	5.748
504.46	5.872
504.80	5.961
505.14	6.073
505.49	6.196
505.83	6.322
506.17	6.453
506.51	6.582
506.85	6.708
507.19	6.836
507.53	6.979
507.87	7.132
508.22	7.281
508.56	7.456
508.90	7.602
509.24	7.757
509.58	7.939
509.92	8.097
510.26	8.255
510.60	8.428
510.94	8.617
511.28	8.809
511.63	9.003
511.97	9.189
512.31	9.383
512.65	9.630
512.99	9.848
513.33	10.063
513.67	10.273
514.01	10.529
514.35	10.762
514.69	10.969
515.03	11.185
515.37	11.368
515.71	11.553
516.05	11.723
516.39	11.864
516.73	12.035
517.07	12.209
517.41	12.386
517.75	12.537
518.09	12.710
518.43	12.901
518.77	13.082
519.11	13.281
519.45	13.491
519.79	13.715
520.13	13.944
520.47	14.211
520.81	14.441
521.15	14.685
521.49	14.908
521.83	15.104
522.17	15.276
522.51	15.443
522.85	15.620
523.19	15.823
523.53	16.041
523.87	16.279
524.21	16.494
524.55	16.715
524.89	16.914
525.23	17.121
525.57	17.303
525.91	17.474
526.25	17.653
526.58	17.825
526.92	17.967
527.26	18.103
527.60	18.212
527.94	18.314
528.28	18.424
528.62	18.526
528.96	18.623
529.30	18.741
529.64	18.858
529.97	18.967
530.31	19.072
530.65	19.189
530.99	19.297
531.33	19.430
531.67	19.559
532.01	19.672
532.35	19.783
532.68	19.907
533.02	20.005
533.36	20.105
533.70	20.207
534.04	20.320
534.38	20.452
534.71	20.590
535.05	20.717
535.39	20.824
535.73	20.953
536.07	21.076
536.41	21.178
536.74	21.292
537.08	21.404
537.42	21.528
537.76	21.640
538.10	21.716
538.43	21.781
538.77	21.857
539.11	21.947
539.45	22.024
539.79	22.099
540.12	22.159
540.46	22.220
540.80	22.274
541.14	22.330
541.47	22.372
541.81	22.442
542.15	22.525
542.49	22.599
542.82	22.657
543.16	22.714
543.50	22.805
543.84	22.874
544.17	22.952
544.51	23.041
544.85	23.098
545.18	23.174
545.52	23.256
545.86	23.359
546.20	23.449
546.53	23.543
546.87	23.681
547.21	23.760
547.54	23.860
547.88	23.940
548.22	24.045
548.55	24.139
548.89	24.226
549.23	24.293
549.56	24.324
549.90	24.369
550.24	24.419
550.57	24.404
550.91	24.457
551.25	24.504
551.58	24.563
551.92	24.613
552.26	24.701
552.59	24.770
552.93	24.843
553.27	24.904
553.60	24.953
553.94	25.012
554.27	25.081
554.61	25.142
554.95	25.219
555.28	25.272
555.62	25.274
555.95	25.273
556.29	25.282
556.63	25.323
556.96	25.369
557.30	25.402
557.63	25.393
557.97	25.393
558.31	25.405
558.64	25.447
558.98	25.474
559.31	25.493
559.65	25.521
559.98	25.521
560.32	25.508
560.65	25.485
560.99	25.502
561.33	25.518
561.66	25.521
562.00	25.520
562.33	25.471
562.67	25.470
563.00	25.474
563.34	25.468
563.67	25.513
564.01	25.497
564.34	25.510
564.68	25.497
565.01	25.524
565.35	25.557
565.68	25.573
566.02	25.586
566.35	25.584
566.69	25.606
567.02	25.596
567.36	25.588
567.69	25.594
568.03	25.558
568.36	25.565
568.69	25.587
569.03	25.595
569.36	25.572
569.70	25.580
570.03	25.583
570.37	25.571
570.70	25.581
571.04	25.590
571.37	25.598
571.70	25.652
572.04	25.664
572.37	25.659
572.71	25.655
573.04	25.703
573.37	25.747
573.71	25.795
574.04	25.841
574.38	25.898
574.71	25.961
575.04	26.037
575.38	26.085
575.71	26.133
576.05	26.194
576.38	26.260
576.71	26.288
577.05	26.352
577.38	26.385
577.71	26.456
578.05	26.469
578.38	26.452
578.71	26.426
579.05	26.414
579.38	26.450
579.71	26.474
580.05	26.453
580.38	26.474
580.71	26.451
581.05	26.427
581.38	26.420
581.71	26.433
582.05	26.442
582.38	26.458
582.71	26.479
583.04	26.457
583.38	26.390
583.71	26.404
584.04	26.360
584.38	26.329
584.71	26.318
585.04	26.276
585.37	26.212
585.71	26.193
586.04	26.148
586.37	26.129
586.70	26.095
587.04	26.114
587.37	26.073
587.70	26.026
588.03	25.968
588.37	25.950
588.70	25.931
589.03	25.946
589.36	25.906
589.69	25.883
590.03	25.842
590.36	25.856
590.69	25.807
591.02	25.774
591.35	25.759
591.69	25.741
592.02	25.682
592.35	25.635
592.68	25.557
593.01	25.512
593.35	25.457
593.68	25.373
594.01	25.286
594.34	25.238
594.67	25.175
595.00	25.129
595.34	25.094
595.67	25.067
596.00	25.042
596.33	25.048
596.66	25.035
596.99	25.095
597.32	25.130
597.65	25.137
597.99	25.120
598.32	25.120
598.65	25.125
598.98	25.110
599.31	25.075
599.64	25.018
599.97	24.960
600.30	24.859
600.63	24.706
600.96	24.657
601.30	24.556
601.63	24.510
601.96	24.467
602.29	24.446
602.62	24.430
602.95	24.420
603.28	24.387
603.61	24.352
603.94	24.348
604.27	24.386
604.60	24.353
604.93	24.385
605.26	24.381
605.59	24.394
605.92	24.375
606.25	24.335
606.58	24.319
606.91	24.291
607.24	24.282
607.57	24.287
607.90	24.271
608.23	24.230
608.56	24.223
608.89	24.175
609.22	24.160
609.55	24.198
609.88	24.209
610.21	24.197
610.54	24.242
610.87	24.212
611.20	24.225
611.53	24.218
611.86	24.243
612.19	24.267
612.52	24.261
612.85	24.254
613.18	24.175
613.51	24.167
613.84	24.140
614.17	24.098
614.49	24.112
614.82	24.121
615.15	24.128
615.48	24.113
615.81	24.076
616.14	24.040
616.47	24.038
616.80	24.034
617.13	24.004
617.46	24.021
617.78	23.992
618.11	23.990
618.44	23.959
618.77	23.926
619.10	23.954
619.43	23.941
619.76	23.963
620.09	23.904
620.41	23.859
620.74	23.856
621.07	23.776
621.40	23.786
621.73	23.736
622.06	23.678
622.38	23.649
622.71	23.557
623.04	23.483
623.37	23.493
623.70	23.456
624.02	23.409
624.35	23.343
624.68	23.349
625.01	23.271
625.34	23.233
625.66	23.201
625.99	23.132
626.32	23.101
626.65	23.133
626.98	23.090
627.30	23.072
627.63	23.050
627.96	23.050
628.29	23.015
628.61	23.031
628.94	23.028
629.27	23.007
629.60	23.006
629.92	23.043
630.25	22.936
630.58	22.891
630.91	22.854
631.23	22.842
631.56	22.828
631.89	22.824
632.21	22.780
632.54	22.720
632.87	22.704
633.19	22.701
633.52	22.613
633.85	22.633
634.18	22.621
634.50	22.616
634.83	22.608
635.16	22.587
635.48	22.512
635.81	22.569
636.14	22.593
636.46	22.609
636.79	22.613
637.11	22.619
637.44	22.630
637.77	22.609
638.09	22.600
638.42	22.548
638.75	22.511
639.07	22.534
639.40	22.502
639.73	22.484
640.05	22.464
640.38	22.404
640.70	22.414
641.03	22.374
641.36	22.373
641.68	22.337
642.01	22.383
642.33	22.445
642.66	22.426
642.98	22.353
643.31	22.298
643.64	22.253
643.96	22.210
644.29	22.228
644.61	22.230
644.94	22.249
645.26	22.319
645.59	22.337
645.91	22.242
646.24	22.226
646.56	22.195
646.89	22.223
647.22	22.213
647.54	22.198
647.87	22.154
648.19	22.095
648.52	22.028
648.84	21.924
649.17	21.864
649.49	21.790
649.82	21.763
650.14	21.745
650.47	21.749
650.79	21.729
651.11	21.737
651.44	21.690
651.76	21.693
652.09	21.729
652.41	21.786
652.74	21.745
653.06	21.751
653.39	21.764
653.71	21.750
654.04	21.712
654.36	21.679
654.68	21.661
655.01	21.659
655.33	21.670
655.66	21.583
655.98	21.513
656.30	21.486
656.63	21.437
656.95	21.366
657.28	21.360
657.60	21.291
657.92	21.265
658.25	21.236
658.57	21.192
658.90	21.120
659.22	21.135
659.54	21.064
659.87	21.050
660.19	21.069
660.51	21.118
660.84	21.064
661.16	21.084
661.48	21.132
661.81	21.149
662.13	21.137
662.45	21.203
662.78	21.161
663.10	21.204
663.42	21.199
663.75	21.222
664.07	21.173
664.39	21.191
664.72	21.187
665.04	21.125
665.36	21.060
665.69	21.105
666.01	21.021
666.33	20.979
666.65	20.988
666.98	20.977
667.30	20.980
667.62	21.014
667.94	20.980
668.27	20.973
668.59	20.952
668.91	21.020
669.23	20.988
669.56	21.025
669.88	21.064
670.20	20.997
670.52	20.982
670.85	20.950
671.17	20.850
671.49	20.835
671.81	20.793
672.13	20.781
672.46	20.730
672.78	20.705
673.10	20.619
673.42	20.612
673.74	20.637
674.07	20.582
674.39	20.549
674.71	20.522
675.03	20.526
675.35	20.468
675.67	20.455
676.00	20.422
676.32	20.326
676.64	20.320
676.96	20.317
677.28	20.292
677.60	20.234
677.92	20.185
678.25	20.161
678.57	20.198
678.89	20.236
679.21	20.259
679.53	20.234
679.85	20.324
680.17	20.374
680.49	20.318
680.81	20.292
681.13	20.375
681.46	20.394
681.78	20.450
682.10	20.425
682.42	20.377
682.74	20.317
683.06	20.348
683.38	20.300
683.70	20.326
684.02	20.355
684.34	20.373
684.66	20.377
684.98	20.370
685.30	20.349
685.62	20.336
685.94	20.411
686.26	20.422
686.58	20.412
686.90	20.442
687.22	20.439
687.54	20.421
687.86	20.419
688.18	20.443
688.50	20.440
688.82	20.448
689.14	20.402
689.46	20.369
689.78	20.397
690.10	20.360
690.42	20.262
690.74	20.113
691.06	20.108
691.38	20.107
691.70	20.039
692.02	20.059
692.34	20.011
692.66	20.067
692.98	20.057
693.30	19.974
693.62	19.962
693.94	19.969
694.26	19.931
694.57	19.882
694.89	19.808
695.21	19.754
695.53	19.668
695.85	19.653
696.17	19.605
696.49	19.528
696.81	19.555
697.13	19.555
697.44	19.512
697.76	19.571
698.08	19.521
698.40	19.514
698.72	19.422
699.04	19.448
699.36	19.459
699.67	19.394
699.99	19.422
700.31	19.343
700.63	19.257
700.95	19.269
701.27	19.205
701.58	19.197
701.90	19.267
702.22	19.383
702.54	19.425
702.86	19.383
703.17	19.400
703.49	19.308
703.81	19.320
704.13	19.255
704.45	19.227
704.76	19.182
705.08	19.263
705.40	19.123
705.72	19.127
706.03	19.140
706.35	19.127
706.67	19.058
706.99	19.084
707.30	19.039
707.62	19.189
707.94	19.284
708.26	19.326
708.57	19.226
708.89	19.320
709.21	19.294
709.53	19.182
709.84	19.196
710.16	19.216
710.48	19.266
710.79	19.255
711.11	19.136
711.43	19.122
711.74	19.098
712.06	19.164
712.38	19.113
712.69	19.077
713.01	19.110
713.33	19.087
713.64	19.079
713.96	19.114
714.28	19.189
714.59	19.299
714.91	19.350
715.23	19.467
715.54	19.395
715.86	19.404
716.17	19.510
716.49	19.499
716.81	19.526
717.12	19.541
717.44	19.500
717.76	19.426
718.07	19.351
718.39	19.171
718.70	19.094
719.02	19.026
719.33	18.977
719.65	18.716
719.97	18.709
720.28	18.669
720.60	18.632
720.91	18.603
721.23	18.553
721.54	18.469
721.86	18.637
722.17	18.558
722.49	18.707
722.81	18.796
723.12	19.014
723.44	19.207
723.75	19.330
724.07	19.319
724.38	19.411
724.70	19.486
725.01	19.587
725.33	19.623
725.64	19.609
725.96	19.636
726.27	19.632
726.59	19.640
726.90	19.455
727.22	19.440
727.53	19.539
727.84	19.483
728.16	19.402
728.47	19.440
728.79	19.255
729.10	19.208
729.42	19.206
729.73	19.107
730.05	19.005
730.36	18.989
730.67	18.934
730.99	18.851
731.30	18.696
731.62	18.855
731.93	18.823
732.24	18.771
732.56	18.900
732.87	18.873
733.19	18.820
733.50	18.884
733.81	18.794
734.13	18.671
734.44	18.729
734.76	18.901
735.07	18.642
735.38	18.461
735.70	18.416
736.01	18.235
736.32	18.155
736.64	18.116
736.95	17.897
737.26	18.085
737.58	18.121
737.89	18.106
738.20	17.934
738.52	17.982
738.83	18.073
739.14	18.162
739.45	18.224
739.77	18.059
740.08	18.087
740.39	18.187
740.71	17.940
741.02	17.801
741.33	17.748
741.64	17.720
741.96	17.677
742.27	17.691
742.58	17.554
742.90	17.457
743.21	17.569
743.52	17.593
743.83	17.471
744.14	17.341
744.46	17.306
744.77	17.393
745.08	17.489
745.39	17.575
745.71	17.539
746.02	17.598
746.33	17.798
746.64	17.909
746.95	17.881
747.27	17.979
747.58	18.208
747.89	18.441
748.20	18.190
748.51	18.080
748.82	17.965
749.14	17.786
749.45	17.822
749.76	17.715
750.07	17.771
750.38	17.774
750.69	17.783
751.01	17.738
751.32	17.680
751.63	17.552
751.94	17.641
752.25	17.745
752.56	17.791
752.87	17.771
753.18	17.615
753.49	17.341
753.81	17.425
754.12	17.352
754.43	17.539
754.74	17.552
755.05	17.861
755.36	17.769
755.67	17.859
755.98	18.065
756.29	18.117
756.60	18.265
756.91	18.393
757.22	18.528
757.53	18.658
757.84	18.554
758.15	18.670
758.46	18.699
758.77	18.915
759.09	19.056
759.40	19.035
759.71	19.149
760.02	19.133
760.33	19.206
760.64	19.154
760.95	19.208
761.26	19.262
761.57	19.145
761.88	19.179
762.18	19.169
762.49	19.137
762.80	19.112
763.11	19.086
763.42	19.178
763.73	19.102
764.04	19.053
764.35	19.025
764.66	18.946
764.97	18.914
765.28	18.714
765.59	18.509
765.90	18.236
766.21	18.157
766.52	17.867
766.83	17.707
767.14	17.527
767.44	17.256
767.75	17.048
768.06	16.866
768.37	16.795
768.68	16.886
768.99	16.966
769.30	16.906
769.61	16.900
769.91	16.877
770.22	16.638
770.53	16.711
770.84	16.928
771.15	17.073
771.46	17.045
771.77	17.056
772.07	16.980
772.38	16.871
772.69	16.852
773.00	16.510
773.31	16.520
773.61	16.488
773.92	16.523
774.23	16.339
774.54	16.029
774.85	16.067
775.15	16.004
775.46	15.975
775.77	15.810
776.08	16.190
776.39	16.486
776.69	16.596
777.00	16.680
777.31	16.605
777.62	16.682
777.92	17.055
778.23	16.949
778.54	16.985
778.85	16.885
779.15	17.183
779.46	16.985
779.77	16.991
780.07	17.002
780.38	16.843
780.69	16.830
781.00	16.797
781.30	16.615
781.61	16.810
781.92	16.739
782.22	16.757
782.53	16.783
782.84	16.718
783.14	16.558
783.45	16.613
783.76	16.823
784.06	16.902
784.37	17.002
784.68	16.849
784.98	17.024
785.29	17.387
785.60	17.471
785.90	17.335
786.21	17.421
786.51	17.845
786.82	17.711
787.13	17.846
787.43	17.906
787.74	17.912
788.04	18.056
788.35	17.902
788.66	17.857
788.96	17.869
789.27	17.873
789.57	17.922
789.88	17.562
790.19	17.453
790.49	17.468
790.80	17.395
791.10	17.522
791.41	17.662
791.71	17.608
792.02	17.418
792.32	17.349
792.63	17.392
792.93	17.134
793.24	17.361
793.54	17.884
793.85	17.891
794.15	17.874
794.46	17.909
794.76	17.878
795.07	17.763
795.37	17.945
795.68	18.158
795.98	18.085
796.29	18.263
796.59	18.192
796.90	18.132
797.20	18.195
797.51	18.224
797.81	17.997
798.12	17.939
798.42	18.350
798.72	18.336
799.03	18.413
799.33	18.653
799.64	18.684
799.94	18.624
800.25	18.548
800.55	18.384
800.85	18.209
801.16	18.296
801.46	18.283
801.77	18.143
802.07	18.119
802.37	17.938
802.68	18.006
802.98	18.269
803.28	18.294
803.59	18.376
803.89	18.378
804.20	18.807
804.50	18.935
804.80	18.722
805.11	18.595
805.41	18.480
805.71	18.367
806.02	18.226
806.32	17.700
806.62	17.574
806.93	17.341
807.23	17.663
807.53	17.780
807.83	18.029
808.14	18.446
808.44	18.564
808.74	18.456
809.05	18.540
809.35	18.829
809.65	19.275
809.95	19.495
810.26	19.650
810.56	19.520
810.86	19.615
811.16	19.301
811.47	19.244
811.77	19.519
812.07	20.059
812.37	19.875
812.68	19.986
812.98	20.000
813.28	20.130
813.58	20.288
813.88	20.049
814.19	20.517
814.49	20.787
814.79	20.820
815.09	20.652
815.39	20.315
815.70	21.057
816.00	20.801
816.30	20.976
816.60	20.903
816.90	20.558
817.20	20.965
817.50	20.189
817.81	20.136
818.11	20.015
818.41	19.929
818.71	19.994
819.01	19.862
819.31	19.809
819.61	19.699
819.92	19.732
820.22	19.926
820.52	19.789
820.82	19.819
821.12	19.729
821.42	19.711
821.72	19.765
822.02	19.790
822.32	19.810
822.62	19.877
822.92	19.868
823.22	19.783
823.52	19.755
823.83	19.834
824.13	19.867
824.43	19.958
824.73	20.040
825.03	20.054
825.33	19.991
825.63	19.901
825.93	19.765
826.23	19.775
826.53	19.925
826.83	19.846
827.13	19.808
827.43	19.814
827.73	19.777
828.03	19.818
828.33	19.892
828.63	19.758
828.93	20.019
829.23	20.114
829.53	20.180
829.83	20.325
830.13	20.357
830.42	20.376
830.72	20.212
831.02	20.253
831.32	20.019
831.62	19.617
831.92	19.949
832.22	19.657
832.52	19.676
832.82	19.829
833.12	19.551
833.42	19.431
833.72	19.369
834.01	19.598
834.31	19.376
834.61	19.463
834.91	19.528
835.21	19.290
835.51	19.284
835.81	18.954
836.11	18.757
836.40	18.964
836.70	18.681
837.00	18.547
837.30	18.672
837.60	19.537
837.90	20.021
838.19	20.265
838.49	20.719
838.79	20.500
839.09	21.034
839.39	21.308
839.68	21.449
839.98	21.542
840.28	22.079
840.58	21.581
840.88	21.344
841.17	20.754
841.47	21.348
841.77	20.824
842.07	21.840
842.36	21.705
842.66	21.273
842.96	20.652
843.26	20.735
843.55	19.836
843.85	19.022
844.15	18.119
844.45	18.398
844.74	18.273
845.04	19.402
845.34	19.105
845.63	19.486
845.93	20.000
846.23	21.396
846.53	20.872
846.82	21.238
847.12	23.166
847.42	23.503
847.71	22.891
848.01	21.811
848.31	22.148
848.60	22.037
848.90	21.667
849.19	22.092
849.49	20.829
849.79	21.953
850.08	21.694
850.38	20.827
850.68	20.108
850.97	20.390
851.27	20.959
851.56	18.759
851.86	17.320
852.16	17.741
852.45	17.489
852.75	17.602
853.04	16.006
853.34	17.854
853.64	17.070
853.93	18.615
854.23	18.979
854.52	18.879
854.82	19.508
855.11	21.497
855.41	20.266
855.70	19.568
856.00	19.228
856.30	20.405
856.59	17.914
856.89	18.151
857.18	17.316
857.48	17.111
857.77	17.139
858.07	17.487
858.36	15.737
858.66	17.079
858.95	16.634
859.25	17.912
859.54	18.105
859.84	19.883
860.13	20.660
860.42	20.720
860.72	21.248
861.01	20.059
861.31	19.612
861.60	21.198
861.90	20.929
862.19	21.891
862.49	21.878
862.78	21.829
863.07	20.242
863.37	20.069
863.66	20.627
863.96	20.702
864.25	21.698
864.54	22.422
864.84	21.740
865.13	21.531
865.43	21.750
865.72	21.781
866.01	22.003
866.31	22.295
866.60	15.701
866.89	26.868
>>>>>End Spectral Data<<<<<
