OOIBase32 Version 2.0.0.6 Data File
++++++++++++++++++++++++++++++++++++
Date: 01-20-2012, 22:30:26
User: Valued Ocean Optics Customer
Spectrometer Serial Number: USB2E2917
Spectrometer Channel: Master
Integration Time (msec): 4
Spectra Averaged: 10
Boxcar Smoothing: 5
Correct for Electrical Dark: Enabled
Time Normalized: Disabled
Dual-beam Reference: Disabled
Reference Channel: Master
Temperature: Not acquired
Spectrometer Type: S2000
ADC Type: USB2000
Number of Pixels in File: 2048
Graph Title: 
>>>>>Begin Spectral Data<<<<<
180.30	0.000
180.67	0.000
181.03	219.300
181.40	37.978
181.77	66.391
182.14	47.174
182.51	68.757
182.88	133.919
183.25	80.594
183.62	67.409
183.99	-7.584
184.36	82.113
184.73	109.860
185.10	-0.411
185.46	151.139
185.83	54.883
186.20	-222.711
186.57	96.750
186.94	59.798
187.31	40.955
187.68	-2329.354
188.05	-257.776
188.42	-158.284
188.78	-18.995
189.15	-20.736
189.52	-20.408
189.89	-36.063
190.26	-14.921
190.63	6.456
191.00	-1.666
191.37	-5.736
191.73	-11.166
192.10	-43.362
192.47	14.550
192.84	12.534
193.21	35.215
193.58	46.784
193.94	37.831
194.31	61.845
194.68	65.378
195.05	56.563
195.42	53.098
195.79	61.281
196.15	66.546
196.52	44.328
196.89	15.331
197.26	-7.966
197.63	-1.872
198.00	3.991
198.36	-19.521
198.73	-28.657
199.10	-19.266
199.47	-24.100
199.84	-30.866
200.20	-21.379
200.57	-13.010
200.94	-8.553
201.31	-8.689
201.68	-22.575
202.04	-20.851
202.41	-22.474
202.78	-25.426
203.15	-26.695
203.51	-30.473
203.88	-18.978
204.25	-18.180
204.62	-16.131
204.98	-10.234
205.35	-8.528
205.72	-8.516
206.09	-22.941
206.46	-25.927
206.82	-35.900
207.19	-18.856
207.56	-8.593
207.92	-4.406
208.29	-11.344
208.66	-19.173
209.03	-22.718
209.39	-25.561
209.76	-15.504
210.13	0.156
210.50	5.129
210.86	4.069
211.23	-10.614
211.60	-25.583
211.96	-35.043
212.33	-20.583
212.70	-22.372
213.07	-15.706
213.43	-32.165
213.80	-28.815
214.17	-26.326
214.53	-25.671
214.90	-32.231
215.27	-18.181
215.63	-9.791
216.00	-18.242
216.37	-22.020
216.74	-15.838
217.10	-15.312
217.47	-9.142
217.84	-24.211
218.20	-22.632
218.57	-18.615
218.94	-12.993
219.30	-19.540
219.67	-16.729
220.04	-9.334
220.40	-2.642
220.77	-6.821
221.13	-7.248
221.50	4.752
221.87	15.811
222.23	12.506
222.60	10.716
222.97	15.846
223.33	19.273
223.70	18.275
224.07	17.690
224.43	16.211
224.80	17.452
225.16	14.108
225.53	12.951
225.90	11.533
226.26	11.535
226.63	10.976
226.99	9.144
227.36	8.967
227.73	8.520
228.09	8.495
228.46	7.549
228.82	6.287
229.19	6.546
229.56	5.626
229.92	4.792
230.29	4.781
230.65	6.218
231.02	6.938
231.38	5.740
231.75	4.084
232.12	3.082
232.48	3.259
232.85	4.273
233.21	5.983
233.58	5.587
233.94	6.369
234.31	6.661
234.68	6.107
235.04	6.583
235.41	6.246
235.77	8.144
236.14	8.286
236.50	7.602
236.87	7.423
237.23	6.350
237.60	6.652
237.96	6.517
238.33	6.159
238.69	5.898
239.06	5.512
239.42	5.964
239.79	6.196
240.15	6.275
240.52	6.399
240.88	6.227
241.25	6.442
241.61	6.282
241.98	6.039
242.34	5.888
242.71	5.682
243.07	5.595
243.44	5.357
243.80	5.304
244.17	5.098
244.53	5.031
244.90	5.014
245.26	5.022
245.63	5.257
245.99	5.384
246.36	5.571
246.72	5.637
247.09	5.712
247.45	5.510
247.81	5.212
248.18	5.336
248.54	5.110
248.91	4.878
249.27	4.763
249.64	4.800
250.00	4.895
250.36	4.701
250.73	4.415
251.09	4.439
251.46	5.134
251.82	5.275
252.19	5.237
252.55	5.768
252.91	6.255
253.28	6.548
253.64	5.861
254.01	5.492
254.37	5.329
254.73	5.302
255.10	5.362
255.46	4.856
255.83	4.901
256.19	5.033
256.55	5.016
256.92	5.311
257.28	5.029
257.65	5.060
258.01	5.016
258.37	4.850
258.74	4.852
259.10	4.706
259.46	5.003
259.83	4.906
260.19	4.699
260.55	4.722
260.92	4.345
261.28	4.502
261.64	4.613
262.01	4.735
262.37	5.032
262.73	5.093
263.10	5.218
263.46	4.919
263.82	5.041
264.19	5.111
264.55	5.105
264.91	5.184
265.28	4.974
265.64	4.915
266.00	5.000
266.37	5.055
266.73	5.097
267.09	5.141
267.46	5.215
267.82	5.345
268.18	5.338
268.54	5.134
268.91	5.029
269.27	4.997
269.63	5.022
270.00	4.580
270.36	4.335
270.72	4.339
271.08	4.284
271.45	4.077
271.81	3.833
272.17	3.871
272.53	4.132
272.90	4.305
273.26	4.490
273.62	4.496
273.98	4.774
274.35	4.876
274.71	4.914
275.07	4.873
275.43	4.753
275.80	5.024
276.16	4.970
276.52	4.847
276.88	4.399
277.25	4.326
277.61	4.161
277.97	4.155
278.33	4.141
278.69	4.243
279.06	4.229
279.42	4.396
279.78	4.299
280.14	4.443
280.50	4.415
280.87	4.565
281.23	4.709
281.59	4.819
281.95	4.662
282.31	4.784
282.68	4.674
283.04	4.693
283.40	4.833
283.76	4.857
284.12	4.831
284.48	4.821
284.85	4.788
285.21	4.707
285.57	4.562
285.93	4.651
286.29	4.687
286.65	4.672
287.02	4.630
287.38	4.421
287.74	4.294
288.10	4.137
288.46	4.149
288.82	4.318
289.18	4.271
289.54	4.472
289.91	4.369
290.27	4.091
290.63	4.247
290.99	4.454
291.35	4.530
291.71	4.661
292.07	4.935
292.43	4.862
292.79	4.613
293.16	4.541
293.52	4.281
293.88	4.354
294.24	4.558
294.60	4.402
294.96	4.308
295.32	4.427
295.68	4.391
296.04	4.283
296.40	4.211
296.76	4.325
297.12	4.491
297.49	4.564
297.85	4.607
298.21	4.537
298.57	4.723
298.93	4.772
299.29	4.840
299.65	4.869
300.01	4.823
300.37	4.973
300.73	4.925
301.09	4.698
301.45	4.847
301.81	5.028
302.17	5.056
302.53	4.936
302.89	4.805
303.25	4.591
303.61	4.607
303.97	4.702
304.33	4.606
304.69	4.770
305.05	4.879
305.41	4.852
305.77	4.772
306.13	4.847
306.49	4.913
306.85	5.039
307.21	5.165
307.57	5.155
307.93	5.201
308.29	5.285
308.65	5.331
309.01	5.403
309.37	5.510
309.73	5.456
310.09	5.367
310.45	5.356
310.81	5.375
311.17	5.279
311.53	5.284
311.89	5.227
312.25	5.262
312.61	5.139
312.96	5.085
313.32	4.961
313.68	4.995
314.04	5.036
314.40	4.875
314.76	4.780
315.12	4.799
315.48	4.773
315.84	4.935
316.20	4.753
316.56	4.740
316.92	4.843
317.27	4.790
317.63	4.856
317.99	4.929
318.35	5.083
318.71	5.155
319.07	5.267
319.43	5.353
319.79	5.233
320.15	5.323
320.50	5.442
320.86	5.423
321.22	5.556
321.58	5.417
321.94	5.325
322.30	5.239
322.66	5.238
323.01	5.210
323.37	5.173
323.73	5.151
324.09	5.121
324.45	5.071
324.81	5.044
325.17	4.968
325.52	5.148
325.88	5.176
326.24	5.269
326.60	5.284
326.96	5.311
327.31	5.325
327.67	5.462
328.03	5.636
328.39	5.735
328.75	5.728
329.11	5.796
329.46	5.817
329.82	5.846
330.18	5.885
330.54	5.853
330.90	5.820
331.25	5.724
331.61	5.626
331.97	5.607
332.33	5.516
332.68	5.498
333.04	5.484
333.40	5.413
333.76	5.386
334.11	5.265
334.47	5.288
334.83	5.305
335.19	5.373
335.54	5.451
335.90	5.400
336.26	5.390
336.62	5.417
336.97	5.402
337.33	5.432
337.69	5.477
338.05	5.505
338.40	5.537
338.76	5.493
339.12	5.527
339.48	5.462
339.83	5.464
340.19	5.462
340.55	5.509
340.90	5.520
341.26	5.465
341.62	5.383
341.97	5.491
342.33	5.414
342.69	5.505
343.04	5.388
343.40	5.372
343.76	5.418
344.12	5.428
344.47	5.395
344.83	5.333
345.19	5.349
345.54	5.428
345.90	5.365
346.26	5.445
346.61	5.410
346.97	5.569
347.32	5.597
347.68	5.576
348.04	5.608
348.39	5.570
348.75	5.640
349.11	5.686
349.46	5.600
349.82	5.626
350.18	5.588
350.53	5.556
350.89	5.521
351.24	5.497
351.60	5.469
351.96	5.333
352.31	5.334
352.67	5.344
353.02	5.281
353.38	5.273
353.74	5.234
354.09	5.246
354.45	5.292
354.80	5.267
355.16	5.310
355.52	5.289
355.87	5.425
356.23	5.412
356.58	5.436
356.94	5.472
357.29	5.586
357.65	5.595
358.00	5.583
358.36	5.580
358.72	5.573
359.07	5.551
359.43	5.550
359.78	5.559
360.14	5.547
360.49	5.499
360.85	5.463
361.20	5.379
361.56	5.393
361.91	5.363
362.27	5.337
362.62	5.308
362.98	5.332
363.33	5.347
363.69	5.336
364.04	5.364
364.40	5.419
364.75	5.480
365.11	5.544
365.46	5.530
365.82	5.572
366.17	5.583
366.53	5.601
366.88	5.530
367.24	5.502
367.59	5.470
367.95	5.460
368.30	5.495
368.66	5.508
369.01	5.531
369.37	5.578
369.72	5.608
370.08	5.673
370.43	5.720
370.78	5.767
371.14	5.882
371.49	5.924
371.85	5.962
372.20	5.905
372.56	5.893
372.91	5.855
373.26	5.890
373.62	5.928
373.97	5.874
374.33	5.872
374.68	5.897
375.03	5.864
375.39	5.844
375.74	5.863
376.10	5.959
376.45	5.994
376.80	6.034
377.16	6.024
377.51	6.023
377.87	6.051
378.22	6.126
378.57	6.159
378.93	6.213
379.28	6.343
379.63	6.424
379.99	6.461
380.34	6.535
380.70	6.631
381.05	6.685
381.40	6.785
381.76	6.883
382.11	6.965
382.46	7.022
382.82	7.065
383.17	7.090
383.52	7.135
383.88	7.191
384.23	7.186
384.58	7.210
384.94	7.261
385.29	7.252
385.64	7.273
385.99	7.304
386.35	7.376
386.70	7.412
387.05	7.448
387.41	7.498
387.76	7.526
388.11	7.627
388.47	7.688
388.82	7.756
389.17	7.875
389.52	7.947
389.88	8.029
390.23	8.110
390.58	8.191
390.93	8.266
391.29	8.348
391.64	8.388
391.99	8.411
392.34	8.483
392.70	8.526
393.05	8.513
393.40	8.552
393.75	8.541
394.11	8.529
394.46	8.576
394.81	8.620
395.16	8.649
395.52	8.678
395.87	8.729
396.22	8.716
396.57	8.745
396.92	8.780
397.28	8.847
397.63	8.893
397.98	8.932
398.33	8.944
398.68	8.986
399.04	8.992
399.39	9.020
399.74	9.041
400.09	9.095
400.44	9.156
400.80	9.221
401.15	9.270
401.50	9.360
401.85	9.415
402.20	9.511
402.55	9.593
402.90	9.613
403.26	9.698
403.61	9.752
403.96	9.833
404.31	9.898
404.66	9.966
405.01	10.008
405.36	10.025
405.72	10.114
406.07	10.120
406.42	10.166
406.77	10.283
407.12	10.329
407.47	10.429
407.82	10.476
408.17	10.509
408.53	10.575
408.88	10.626
409.23	10.686
409.58	10.691
409.93	10.774
410.28	10.799
410.63	10.853
410.98	10.938
411.33	10.956
411.68	11.023
412.03	11.117
412.38	11.175
412.73	11.273
413.09	11.372
413.44	11.501
413.79	11.639
414.14	11.765
414.49	11.839
414.84	11.932
415.19	12.044
415.54	12.159
415.89	12.276
416.24	12.365
416.59	12.437
416.94	12.514
417.29	12.590
417.64	12.644
417.99	12.692
418.34	12.781
418.69	12.850
419.04	12.917
419.39	12.979
419.74	13.045
420.09	13.113
420.44	13.187
420.79	13.248
421.14	13.293
421.49	13.338
421.84	13.379
422.19	13.400
422.54	13.443
422.89	13.497
423.24	13.529
423.59	13.534
423.94	13.560
424.29	13.589
424.64	13.634
424.99	13.676
425.34	13.706
425.68	13.740
426.03	13.814
426.38	13.820
426.73	13.859
427.08	13.895
427.43	13.935
427.78	13.983
428.13	14.027
428.48	14.081
428.83	14.119
429.18	14.205
429.53	14.268
429.87	14.300
430.22	14.345
430.57	14.363
430.92	14.389
431.27	14.443
431.62	14.490
431.97	14.500
432.32	14.528
432.67	14.556
433.01	14.578
433.36	14.610
433.71	14.655
434.06	14.705
434.41	14.767
434.76	14.829
435.11	14.883
435.45	14.934
435.80	15.029
436.15	15.061
436.50	15.122
436.85	15.170
437.20	15.215
437.54	15.251
437.89	15.301
438.24	15.333
438.59	15.373
438.94	15.404
439.29	15.431
439.63	15.441
439.98	15.474
440.33	15.493
440.68	15.526
441.03	15.552
441.37	15.577
441.72	15.611
442.07	15.662
442.42	15.697
442.76	15.706
443.11	15.759
443.46	15.798
443.81	15.828
444.16	15.869
444.50	15.873
444.85	15.885
445.20	15.904
445.55	15.899
445.89	15.883
446.24	15.873
446.59	15.877
446.94	15.848
447.28	15.805
447.63	15.784
447.98	15.753
448.32	15.738
448.67	15.738
449.02	15.724
449.37	15.725
449.71	15.731
450.06	15.750
450.41	15.754
450.75	15.770
451.10	15.819
451.45	15.817
451.79	15.829
452.14	15.843
452.49	15.850
452.84	15.879
453.18	15.891
453.53	15.889
453.88	15.928
454.22	15.986
454.57	16.015
454.92	16.054
455.26	16.100
455.61	16.190
455.95	16.249
456.30	16.319
456.65	16.365
456.99	16.420
457.34	16.486
457.69	16.516
458.03	16.560
458.38	16.598
458.73	16.620
459.07	16.652
459.42	16.641
459.76	16.655
460.11	16.640
460.46	16.650
460.80	16.661
461.15	16.638
461.49	16.646
461.84	16.633
462.19	16.653
462.53	16.689
462.88	16.733
463.22	16.737
463.57	16.748
463.91	16.820
464.26	16.852
464.61	16.879
464.95	16.941
465.30	16.955
465.64	16.993
465.99	16.993
466.33	17.009
466.68	17.011
467.02	17.066
467.37	17.107
467.71	17.095
468.06	17.120
468.41	17.148
468.75	17.192
469.10	17.221
469.44	17.229
469.79	17.252
470.13	17.256
470.48	17.252
470.82	17.276
471.17	17.305
471.51	17.339
471.86	17.346
472.20	17.375
472.55	17.393
472.89	17.417
473.23	17.425
473.58	17.439
473.92	17.463
474.27	17.514
474.61	17.528
474.96	17.542
475.30	17.574
475.65	17.596
475.99	17.629
476.34	17.640
476.68	17.653
477.02	17.672
477.37	17.714
477.71	17.767
478.06	17.844
478.40	17.965
478.75	18.176
479.09	18.396
479.43	18.669
479.78	18.988
480.12	19.324
480.47	19.706
480.81	20.095
481.15	20.476
481.50	20.852
481.84	21.282
482.19	21.756
482.53	22.157
482.87	22.445
483.22	22.530
483.56	22.396
483.90	22.140
484.25	21.746
484.59	21.294
484.94	20.950
485.28	20.668
485.62	20.297
485.97	19.838
486.31	19.430
486.65	19.141
487.00	19.017
487.34	19.068
487.68	19.195
488.03	19.424
488.37	19.689
488.71	19.810
489.06	19.802
489.40	19.767
489.74	19.773
490.09	19.759
490.43	19.723
490.77	19.691
491.11	19.667
491.46	19.650
491.80	19.631
492.14	19.615
492.49	19.577
492.83	19.562
493.17	19.561
493.51	19.546
493.86	19.548
494.20	19.561
494.54	19.598
494.88	19.638
495.23	19.712
495.57	19.750
495.91	19.801
496.25	19.860
496.60	19.930
496.94	19.990
497.28	20.053
497.62	20.098
497.97	20.144
498.31	20.205
498.65	20.265
498.99	20.316
499.33	20.416
499.68	20.495
500.02	20.585
500.36	20.650
500.70	20.748
501.04	20.842
501.39	20.936
501.73	21.031
502.07	21.141
502.41	21.218
502.75	21.312
503.09	21.385
503.44	21.487
503.78	21.570
504.12	21.658
504.46	21.752
504.80	21.840
505.14	21.943
505.49	22.059
505.83	22.114
506.17	22.210
506.51	22.323
506.85	22.428
507.19	22.499
507.53	22.590
507.87	22.698
508.22	22.785
508.56	22.869
508.90	22.936
509.24	23.008
509.58	23.118
509.92	23.211
510.26	23.271
510.60	23.333
510.94	23.406
511.28	23.474
511.63	23.545
511.97	23.624
512.31	23.699
512.65	23.780
512.99	23.857
513.33	23.968
513.67	24.065
514.01	24.196
514.35	24.323
514.69	24.460
515.03	24.578
515.37	24.706
515.71	24.806
516.05	24.906
516.39	25.018
516.73	25.077
517.07	25.157
517.41	25.201
517.75	25.234
518.09	25.289
518.43	25.331
518.77	25.365
519.11	25.352
519.45	25.372
519.79	25.397
520.13	25.422
520.47	25.493
520.81	25.552
521.15	25.620
521.49	25.710
521.83	25.764
522.17	25.808
522.51	25.922
522.85	26.057
523.19	26.235
523.53	26.417
523.87	26.669
524.21	26.920
524.55	27.143
524.89	27.392
525.23	27.568
525.57	27.745
525.91	27.890
526.25	28.014
526.58	28.138
526.92	28.225
527.26	28.308
527.60	28.324
527.94	28.299
528.28	28.277
528.62	28.220
528.96	28.166
529.30	28.091
529.64	28.054
529.97	27.971
530.31	27.882
530.65	27.811
530.99	27.732
531.33	27.660
531.67	27.646
532.01	27.628
532.35	27.596
532.68	27.575
533.02	27.564
533.36	27.535
533.70	27.514
534.04	27.471
534.38	27.445
534.71	27.418
535.05	27.389
535.39	27.351
535.73	27.293
536.07	27.281
536.41	27.284
536.74	27.326
537.08	27.385
537.42	27.470
537.76	27.564
538.10	27.621
538.43	27.699
538.77	27.783
539.11	27.868
539.45	27.939
539.79	28.003
540.12	28.054
540.46	28.081
540.80	28.059
541.14	28.031
541.47	27.994
541.81	27.971
542.15	27.913
542.49	27.866
542.82	27.786
543.16	27.708
543.50	27.618
543.84	27.536
544.17	27.451
544.51	27.404
544.85	27.378
545.18	27.357
545.52	27.296
545.86	27.279
546.20	27.236
546.53	27.191
546.87	27.142
547.21	27.089
547.54	27.079
547.88	27.086
548.22	27.093
548.55	27.038
548.89	27.003
549.23	27.006
549.56	26.972
549.90	26.975
550.24	26.965
550.57	26.967
550.91	27.004
551.25	26.999
551.58	26.961
551.92	26.913
552.26	26.938
552.59	26.943
552.93	26.943
553.27	26.904
553.60	26.888
553.94	26.894
554.27	26.905
554.61	26.858
554.95	26.814
555.28	26.808
555.62	26.823
555.95	26.801
556.29	26.778
556.63	26.778
556.96	26.820
557.30	26.809
557.63	26.809
557.97	26.800
558.31	26.798
558.64	26.798
558.98	26.770
559.31	26.796
559.65	26.820
559.98	26.840
560.32	26.844
560.65	26.861
560.99	26.840
561.33	26.841
561.66	26.864
562.00	26.914
562.33	26.947
562.67	26.971
563.00	26.953
563.34	26.970
563.67	26.962
564.01	26.968
564.34	26.917
564.68	26.922
565.01	26.930
565.35	26.905
565.68	26.881
566.02	26.851
566.35	26.890
566.69	26.899
567.02	26.876
567.36	26.853
567.69	26.812
568.03	26.846
568.36	26.836
568.69	26.825
569.03	26.835
569.36	26.821
569.70	26.831
570.03	26.779
570.37	26.748
570.70	26.728
571.04	26.727
571.37	26.755
571.70	26.721
572.04	26.719
572.37	26.696
572.71	26.665
573.04	26.650
573.37	26.631
573.71	26.597
574.04	26.572
574.38	26.584
574.71	26.584
575.04	26.541
575.38	26.535
575.71	26.502
576.05	26.450
576.38	26.418
576.71	26.379
577.05	26.339
577.38	26.345
577.71	26.314
578.05	26.224
578.38	26.156
578.71	26.093
579.05	26.047
579.38	26.051
579.71	26.043
580.05	26.024
580.38	26.013
580.71	26.003
581.05	25.978
581.38	25.987
581.71	25.997
582.05	25.973
582.38	26.032
582.71	26.020
583.04	25.989
583.38	25.964
583.71	25.924
584.04	25.931
584.38	25.882
584.71	25.869
585.04	25.850
585.37	25.818
585.71	25.840
586.04	25.793
586.37	25.774
586.70	25.770
587.04	25.790
587.37	25.801
587.70	25.771
588.03	25.768
588.37	25.744
588.70	25.707
589.03	25.710
589.36	25.697
589.69	25.643
590.03	25.630
590.36	25.616
590.69	25.562
591.02	25.517
591.35	25.502
591.69	25.491
592.02	25.479
592.35	25.481
592.68	25.455
593.01	25.438
593.35	25.440
593.68	25.440
594.01	25.410
594.34	25.409
594.67	25.419
595.00	25.398
595.34	25.384
595.67	25.341
596.00	25.301
596.33	25.309
596.66	25.251
596.99	25.236
597.32	25.234
597.65	25.210
597.99	25.214
598.32	25.190
598.65	25.140
598.98	25.126
599.31	25.085
599.64	25.059
599.97	24.962
600.30	24.974
600.63	24.943
600.96	24.823
601.30	24.796
601.63	24.773
601.96	24.776
602.29	24.743
602.62	24.719
602.95	24.739
603.28	24.727
603.61	24.724
603.94	24.698
604.27	24.686
604.60	24.726
604.93	24.695
605.26	24.646
605.59	24.600
605.92	24.591
606.25	24.511
606.58	24.432
606.91	24.433
607.24	24.415
607.57	24.400
607.90	24.335
608.23	24.273
608.56	24.257
608.89	24.216
609.22	24.179
609.55	24.148
609.88	24.182
610.21	24.183
610.54	24.086
610.87	24.017
611.20	23.934
611.53	23.899
611.86	23.884
612.19	23.866
612.52	23.827
612.85	23.777
613.18	23.761
613.51	23.700
613.84	23.627
614.17	23.627
614.49	23.646
614.82	23.634
615.15	23.641
615.48	23.583
615.81	23.519
616.14	23.488
616.47	23.456
616.80	23.411
617.13	23.391
617.46	23.402
617.78	23.355
618.11	23.292
618.44	23.242
618.77	23.164
619.10	23.188
619.43	23.150
619.76	23.127
620.09	23.133
620.41	23.084
620.74	23.040
621.07	22.998
621.40	23.000
621.73	22.982
622.06	22.994
622.38	23.009
622.71	22.987
623.04	23.016
623.37	22.999
623.70	22.972
624.02	23.010
624.35	23.007
624.68	23.000
625.01	23.000
625.34	22.950
625.66	22.914
625.99	22.903
626.32	22.893
626.65	22.829
626.98	22.825
627.30	22.778
627.63	22.695
627.96	22.655
628.29	22.636
628.61	22.597
628.94	22.584
629.27	22.522
629.60	22.495
629.92	22.417
630.25	22.350
630.58	22.300
630.91	22.261
631.23	22.251
631.56	22.221
631.89	22.175
632.21	22.164
632.54	22.192
632.87	22.189
633.19	22.134
633.52	22.123
633.85	22.154
634.18	22.153
634.50	22.132
634.83	22.039
635.16	22.020
635.48	21.983
635.81	21.867
636.14	21.786
636.46	21.770
636.79	21.752
637.11	21.720
637.44	21.659
637.77	21.573
638.09	21.540
638.42	21.538
638.75	21.504
639.07	21.468
639.40	21.476
639.73	21.423
640.05	21.374
640.38	21.314
640.70	21.218
641.03	21.181
641.36	21.205
641.68	21.143
642.01	21.120
642.33	21.039
642.66	20.999
642.98	20.942
643.31	20.932
643.64	20.917
643.96	20.933
644.29	20.975
644.61	20.985
644.94	20.894
645.26	20.931
645.59	20.909
645.91	20.961
646.24	20.936
646.56	20.956
646.89	20.933
647.22	20.941
647.54	20.886
647.87	20.823
648.19	20.797
648.52	20.791
648.84	20.733
649.17	20.731
649.49	20.650
649.82	20.647
650.14	20.585
650.47	20.606
650.79	20.526
651.11	20.503
651.44	20.533
651.76	20.503
652.09	20.531
652.41	20.536
652.74	20.520
653.06	20.491
653.39	20.435
653.71	20.391
654.04	20.345
654.36	20.342
654.68	20.322
655.01	20.271
655.33	20.192
655.66	20.094
655.98	20.037
656.30	20.032
656.63	20.023
656.95	20.077
657.28	20.091
657.60	20.000
657.92	19.983
658.25	19.973
658.57	19.933
658.90	19.859
659.22	19.810
659.54	19.747
659.87	19.613
660.19	19.542
660.51	19.418
660.84	19.306
661.16	19.246
661.48	19.113
661.81	18.998
662.13	18.847
662.45	18.838
662.78	18.732
663.10	18.683
663.42	18.688
663.75	18.652
664.07	18.540
664.39	18.484
664.72	18.472
665.04	18.491
665.36	18.423
665.69	18.497
666.01	18.423
666.33	18.491
666.65	18.399
666.98	18.362
667.30	18.330
667.62	18.355
667.94	18.337
668.27	18.270
668.59	18.211
668.91	18.161
669.23	18.038
669.56	17.912
669.88	17.873
670.20	17.815
670.52	17.736
670.85	17.682
671.17	17.635
671.49	17.575
671.81	17.495
672.13	17.427
672.46	17.409
672.78	17.416
673.10	17.459
673.42	17.373
673.74	17.430
674.07	17.448
674.39	17.416
674.71	17.381
675.03	17.339
675.35	17.281
675.67	17.306
676.00	17.269
676.32	17.245
676.64	17.213
676.96	17.189
677.28	17.153
677.60	17.086
677.92	17.088
678.25	17.080
678.57	17.142
678.89	17.262
679.21	17.201
679.53	17.118
679.85	17.040
680.17	17.005
680.49	17.008
680.81	16.964
681.13	16.995
681.46	16.901
681.78	16.861
682.10	16.717
682.42	16.601
682.74	16.596
683.06	16.676
683.38	16.658
683.70	16.704
684.02	16.680
684.34	16.766
684.66	16.731
684.98	16.742
685.30	16.711
685.62	16.785
685.94	16.771
686.26	16.700
686.58	16.677
686.90	16.653
687.22	16.695
687.54	16.626
687.86	16.477
688.18	16.348
688.50	16.255
688.82	16.195
689.14	16.113
689.46	15.959
689.78	15.911
690.10	15.817
690.42	15.786
690.74	15.667
691.06	15.537
691.38	15.480
691.70	15.530
692.02	15.482
692.34	15.414
692.66	15.321
692.98	15.277
693.30	15.269
693.62	15.241
693.94	15.188
694.26	15.168
694.57	15.323
694.89	15.380
695.21	15.412
695.53	15.481
695.85	15.561
696.17	15.620
696.49	15.787
696.81	15.834
697.13	15.917
697.44	15.957
697.76	15.928
698.08	15.796
698.40	15.718
698.72	15.553
699.04	15.453
699.36	15.219
699.67	15.021
699.99	14.644
700.31	14.343
700.63	13.945
700.95	13.616
701.27	13.291
701.58	12.921
701.90	12.505
702.22	12.326
702.54	12.023
702.86	11.947
703.17	11.797
703.49	11.875
703.81	11.693
704.13	11.634
704.45	11.561
704.76	11.490
705.08	11.496
705.40	11.573
705.72	11.515
706.03	11.492
706.35	11.366
706.67	11.218
706.99	11.074
707.30	11.095
707.62	11.018
707.94	10.976
708.26	10.983
708.57	11.057
708.89	11.005
709.21	10.968
709.53	10.932
709.84	10.843
710.16	10.905
710.48	10.882
710.79	10.865
711.11	10.991
711.43	10.996
711.74	11.046
712.06	11.082
712.38	11.137
712.69	11.269
713.01	11.327
713.33	11.619
713.64	11.746
713.96	11.967
714.28	12.207
714.59	12.365
714.91	12.683
715.23	12.874
715.54	13.075
715.86	13.285
716.17	13.361
716.49	13.481
716.81	13.350
717.12	13.350
717.44	13.302
717.76	13.061
718.07	12.923
718.39	12.574
718.70	12.286
719.02	11.952
719.33	11.582
719.65	11.276
719.97	11.027
720.28	11.001
720.60	10.878
720.91	10.804
721.23	10.910
721.54	10.869
721.86	10.925
722.17	11.005
722.49	11.216
722.81	11.395
723.12	11.543
723.44	11.700
723.75	11.636
724.07	11.614
724.38	11.534
724.70	11.369
725.01	11.220
725.33	11.330
725.64	11.412
725.96	11.249
726.27	11.277
726.59	11.237
726.90	11.278
727.22	11.384
727.53	11.512
727.84	11.501
728.16	11.452
728.47	11.617
728.79	11.380
729.10	11.127
729.42	10.972
729.73	10.656
730.05	10.321
730.36	10.040
730.67	9.543
730.99	9.169
731.30	8.928
731.62	8.594
731.93	8.083
732.24	7.692
732.56	7.217
732.87	6.740
733.19	6.390
733.50	6.068
733.81	5.654
734.13	5.442
734.44	4.877
734.76	4.440
735.07	4.101
735.38	3.825
735.70	3.549
736.01	3.247
736.32	3.233
736.64	3.164
736.95	3.046
737.26	2.726
737.58	2.435
737.89	2.263
738.20	1.741
738.52	1.513
738.83	1.090
739.14	0.766
739.45	0.438
739.77	0.086
740.08	-0.599
740.39	-1.126
740.71	-1.610
741.02	-2.062
741.33	-2.505
741.64	-2.838
741.96	-3.519
742.27	-3.880
742.58	-4.419
742.90	-4.690
743.21	-5.360
743.52	-5.652
743.83	-5.882
744.14	-5.888
744.46	-6.270
744.77	-6.421
745.08	-6.622
745.39	-6.225
745.71	-6.253
746.02	-6.040
746.33	-5.916
746.64	-5.924
746.95	-5.962
747.27	-5.984
747.58	-5.818
747.89	-5.772
748.20	-5.761
748.51	-5.635
748.82	-6.031
749.14	-6.257
749.45	-6.436
749.76	-7.010
750.07	-7.076
750.38	-7.181
750.69	-7.266
751.01	-7.483
751.32	-7.339
751.63	-7.534
751.94	-7.494
752.25	-7.348
752.56	-7.584
752.87	-7.848
753.18	-7.359
753.49	-7.397
753.81	-7.400
754.12	-7.256
754.43	-7.258
754.74	-6.604
755.05	-5.420
755.36	-4.310
755.67	-3.356
755.98	-1.848
756.29	-0.360
756.60	0.933
756.91	2.608
757.22	4.254
757.53	5.853
757.84	7.558
758.15	9.013
758.46	10.173
758.77	11.116
759.09	12.153
759.40	13.057
759.71	13.758
760.02	14.193
760.33	14.398
760.64	14.536
760.95	14.662
761.26	14.715
761.57	14.445
761.88	14.109
762.18	13.814
762.49	13.459
762.80	12.843
763.11	12.112
763.42	11.409
763.73	10.438
764.04	9.628
764.35	8.372
764.66	7.061
764.97	5.663
765.28	4.149
765.59	2.285
765.90	0.148
766.21	-1.787
766.52	-3.613
766.83	-5.157
767.14	-6.423
767.44	-7.938
767.75	-9.536
768.06	-11.089
768.37	-12.076
768.68	-13.504
768.99	-14.280
769.30	-15.209
769.61	-16.472
769.91	-17.080
770.22	-18.067
770.53	-18.635
770.84	-19.557
771.15	-19.378
771.46	-20.059
771.77	-20.802
772.07	-20.604
772.38	-21.156
772.69	-21.598
773.00	-21.376
773.31	-21.875
773.61	-22.538
773.92	-23.004
774.23	-22.903
774.54	-23.755
774.85	-23.510
775.15	-23.835
775.46	-24.423
775.77	-23.726
776.08	-23.113
776.39	-23.007
776.69	-23.003
777.00	-22.535
777.31	-22.141
777.62	-22.145
777.92	-22.016
778.23	-22.531
778.54	-21.832
778.85	-21.679
779.15	-22.526
779.46	-22.734
779.77	-23.181
780.07	-23.228
780.38	-23.867
780.69	-23.892
781.00	-24.033
781.30	-23.897
781.61	-23.729
781.92	-24.771
782.22	-24.996
782.53	-24.628
782.84	-24.026
783.14	-22.745
783.45	-22.126
783.76	-20.860
784.06	-20.513
784.37	-19.071
784.68	-17.726
784.98	-16.206
785.29	-14.263
785.60	-12.945
785.90	-11.505
786.21	-10.955
786.51	-9.455
786.82	-8.098
787.13	-7.758
787.43	-7.075
787.74	-6.614
788.04	-6.876
788.35	-7.402
788.66	-7.657
788.96	-7.844
789.27	-8.372
789.57	-8.563
789.88	-10.308
790.19	-10.950
790.49	-11.269
790.80	-12.057
791.10	-13.099
791.41	-12.020
791.71	-11.428
792.02	-11.464
792.32	-11.278
792.63	-10.865
792.93	-10.023
793.24	-9.163
793.54	-9.607
793.85	-8.599
794.15	-7.611
794.46	-6.950
794.76	-7.305
795.07	-7.258
795.37	-6.848
795.68	-5.792
795.98	-5.938
796.29	-6.246
796.59	-6.280
796.90	-6.093
797.20	-6.391
797.51	-6.548
797.81	-6.746
798.12	-7.476
798.42	-7.373
798.72	-7.556
799.03	-8.612
799.33	-8.590
799.64	-8.594
799.94	-8.752
800.25	-8.269
800.55	-8.289
800.85	-8.085
801.16	-8.486
801.46	-7.899
801.77	-7.942
802.07	-8.292
802.37	-8.062
802.68	-8.145
802.98	-8.349
803.28	-8.554
803.59	-8.873
803.89	-8.781
804.20	-8.851
804.50	-8.590
804.80	-8.932
805.11	-8.958
805.41	-8.394
805.71	-8.501
806.02	-7.623
806.32	-7.879
806.62	-7.548
806.93	-7.384
807.23	-7.523
807.53	-8.121
807.83	-7.698
808.14	-7.539
808.44	-6.881
808.74	-7.192
809.05	-6.296
809.35	-6.481
809.65	-5.999
809.95	-5.285
810.26	-4.289
810.56	-3.707
810.86	-2.253
811.16	-2.207
811.47	-1.457
811.77	-0.886
812.07	-0.318
812.37	0.761
812.68	1.468
812.98	2.871
813.28	2.957
813.58	3.289
813.88	3.861
814.19	4.507
814.49	6.243
814.79	6.820
815.09	7.599
815.39	8.402
815.70	8.001
816.00	8.361
816.30	8.310
816.60	9.320
816.90	9.631
817.20	10.327
817.50	10.892
817.81	11.648
818.11	13.029
818.41	14.019
818.71	14.934
819.01	15.778
819.31	16.402
819.61	16.873
819.92	17.239
820.22	17.595
820.52	17.961
820.82	18.181
821.12	18.372
821.42	18.475
821.72	18.471
822.02	18.527
822.32	18.536
822.62	18.401
822.92	18.265
823.22	18.193
823.52	18.089
823.83	17.987
824.13	17.927
824.43	17.766
824.73	17.644
825.03	17.594
825.33	17.280
825.63	17.033
825.93	17.103
826.23	17.110
826.53	17.008
826.83	16.934
827.13	16.689
827.43	16.311
827.73	16.034
828.03	15.718
828.33	15.171
828.63	14.983
828.93	14.329
829.23	13.728
829.53	13.597
829.83	12.756
830.13	12.357
830.42	11.753
830.72	12.087
831.02	12.270
831.32	12.346
831.62	12.988
831.92	13.243
832.22	13.710
832.52	13.685
832.82	13.416
833.12	13.784
833.42	13.906
833.72	13.868
834.01	13.432
834.31	13.403
834.61	12.723
834.91	11.875
835.21	11.419
835.51	10.800
835.81	9.936
836.11	9.043
836.40	7.508
836.70	6.105
837.00	4.435
837.30	4.012
837.60	2.491
837.90	2.670
838.19	1.763
838.49	0.880
838.79	0.559
839.09	0.985
839.39	0.822
839.68	0.177
839.98	-0.395
840.28	-0.532
840.58	-3.855
840.88	-5.752
841.17	-8.149
841.47	-10.391
841.77	-12.571
842.07	-16.698
842.36	-20.230
842.66	-23.081
842.96	-25.529
843.26	-28.216
843.55	-30.251
843.85	-29.803
844.15	-30.746
844.45	-29.075
844.74	-29.851
845.04	-30.633
845.34	-29.683
845.63	-29.759
845.93	-32.807
846.23	-37.432
846.53	-40.950
846.82	-43.024
847.12	-43.565
847.42	-41.710
847.71	-45.457
848.01	-44.150
848.31	-44.268
848.60	-41.986
848.90	-42.042
849.19	-39.866
849.49	-39.089
849.79	-38.910
850.08	-42.692
850.38	-41.914
850.68	-43.519
850.97	-41.418
851.27	-39.952
851.56	-39.703
851.86	-41.075
852.16	-43.741
852.45	-45.116
852.75	-40.094
853.04	-42.180
853.34	-36.994
853.64	-34.904
853.93	-31.811
854.23	-36.872
854.52	-39.110
854.82	-38.240
855.11	-37.944
855.41	-37.904
855.70	-31.636
856.00	-34.608
856.30	-33.160
856.59	-32.808
856.89	-34.380
857.18	-39.863
857.48	-38.764
857.77	-37.935
858.07	-40.065
858.36	-42.520
858.66	-42.987
858.95	-49.968
859.25	-47.077
859.54	-46.377
859.84	-47.257
860.13	-45.518
860.42	-41.349
860.72	-38.154
861.01	-39.256
861.31	-37.126
861.60	-34.223
861.90	-33.120
862.19	-31.054
862.49	-32.153
862.78	-30.742
863.07	-28.607
863.37	-27.616
863.66	-28.388
863.96	-27.915
864.25	-24.807
864.54	-26.699
864.84	-28.244
865.13	-26.232
865.43	-25.362
865.72	-21.418
866.01	-48.932
866.31	-51.307
866.60	-17.803
866.89	-10.815
>>>>>End Spectral Data<<<<<
