OOIBase32 Version 2.0.0.6 Data File
++++++++++++++++++++++++++++++++++++
Date: 01-20-2012, 22:31:16
User: Valued Ocean Optics Customer
Spectrometer Serial Number: USB2E2917
Spectrometer Channel: Master
Integration Time (msec): 4
Spectra Averaged: 10
Boxcar Smoothing: 5
Correct for Electrical Dark: Enabled
Time Normalized: Disabled
Dual-beam Reference: Disabled
Reference Channel: Master
Temperature: Not acquired
Spectrometer Type: S2000
ADC Type: USB2000
Number of Pixels in File: 2048
Graph Title: 
>>>>>Begin Spectral Data<<<<<
180.30	0.000
180.67	0.000
181.03	150.692
181.40	30.340
181.77	44.989
182.14	196.233
182.51	90.388
182.88	-64.555
183.25	72.142
183.62	78.097
183.99	190.347
184.36	109.056
184.73	175.921
185.10	139.842
185.46	-167.388
185.83	-81.774
186.20	-98.589
186.57	15.842
186.94	185.174
187.31	109.056
187.68	1652.738
188.05	-92.904
188.42	-131.812
188.78	-31.785
189.15	-50.505
189.52	-32.149
189.89	-21.924
190.26	-1.690
190.63	24.854
191.00	16.706
191.37	-13.111
191.73	-18.274
192.10	18.395
192.47	84.587
192.84	89.729
193.21	103.510
193.58	79.835
193.94	46.804
194.31	62.415
194.68	35.067
195.05	34.078
195.42	38.832
195.79	38.267
196.15	18.204
196.52	7.491
196.89	-2.083
197.26	2.500
197.63	15.680
198.00	23.210
198.36	1.810
198.73	4.823
199.10	15.827
199.47	22.051
199.84	13.340
200.20	14.581
200.57	13.255
200.94	4.062
201.31	-1.756
201.68	-1.129
202.04	-4.050
202.41	1.729
202.78	3.916
203.15	0.238
203.51	-2.035
203.88	20.777
204.25	21.841
204.62	22.955
204.98	30.526
205.35	33.090
205.72	30.086
206.09	31.988
206.46	40.183
206.82	29.045
207.19	24.140
207.56	18.694
207.92	14.552
208.29	30.672
208.66	24.546
209.03	21.903
209.39	38.821
209.76	57.578
210.13	61.195
210.50	51.797
210.86	63.296
211.23	59.043
211.60	60.864
211.96	54.103
212.33	38.007
212.70	41.928
213.07	40.639
213.43	28.222
213.80	19.628
214.17	23.999
214.53	15.855
214.90	3.304
215.27	12.323
215.63	3.389
216.00	6.945
216.37	20.893
216.74	14.852
217.10	13.472
217.47	2.433
217.84	-1.087
218.20	-29.512
218.57	-20.129
218.94	-16.645
219.30	-22.143
219.67	-10.417
220.04	-5.318
220.40	-15.036
220.77	-16.659
221.13	-15.213
221.50	-2.625
221.87	1.687
222.23	9.471
222.60	6.456
222.97	9.388
223.33	15.206
223.70	12.049
224.07	8.953
224.43	11.250
224.80	13.128
225.16	13.087
225.53	11.922
225.90	11.400
226.26	10.683
226.63	10.299
226.99	8.560
227.36	7.420
227.73	7.711
228.09	8.660
228.46	8.227
228.82	6.842
229.19	6.398
229.56	5.594
229.92	4.793
230.29	3.977
230.65	5.147
231.02	5.901
231.38	5.617
231.75	4.307
232.12	3.766
232.48	3.703
232.85	4.973
233.21	5.321
233.58	6.064
233.94	7.549
234.31	7.926
234.68	7.410
235.04	8.211
235.41	8.249
235.77	9.440
236.14	8.790
236.50	7.946
236.87	8.286
237.23	8.596
237.60	8.830
237.96	8.035
238.33	8.603
238.69	8.387
239.06	7.952
239.42	7.840
239.79	7.736
240.15	7.544
240.52	7.806
240.88	7.610
241.25	7.421
241.61	6.821
241.98	6.975
242.34	6.428
242.71	6.386
243.07	6.351
243.44	6.102
243.80	6.124
244.17	6.104
244.53	5.849
244.90	5.812
245.26	6.009
245.63	6.275
245.99	6.308
246.36	6.544
246.72	6.435
247.09	6.402
247.45	6.375
247.81	6.327
248.18	6.274
248.54	6.419
248.91	6.540
249.27	6.308
249.64	6.058
250.00	6.106
250.36	6.046
250.73	5.853
251.09	5.780
251.46	6.121
251.82	5.808
252.19	6.219
252.55	6.386
252.91	6.222
253.28	6.113
253.64	6.600
254.01	6.421
254.37	6.279
254.73	6.604
255.10	6.535
255.46	6.258
255.83	6.490
256.19	6.330
256.55	6.280
256.92	6.454
257.28	6.503
257.65	6.241
258.01	6.188
258.37	6.040
258.74	6.040
259.10	5.965
259.46	5.994
259.83	5.884
260.19	5.774
260.55	5.852
260.92	5.760
261.28	5.744
261.64	6.032
262.01	6.044
262.37	6.295
262.73	6.040
263.10	6.066
263.46	6.273
263.82	6.576
264.19	6.727
264.55	6.729
264.91	6.764
265.28	6.617
265.64	6.384
266.00	6.309
266.37	6.339
266.73	6.647
267.09	6.817
267.46	6.680
267.82	6.615
268.18	6.409
268.54	6.144
268.91	5.826
269.27	5.776
269.63	5.893
270.00	5.803
270.36	5.636
270.72	5.477
271.08	5.271
271.45	5.239
271.81	5.121
272.17	5.530
272.53	5.787
272.90	5.888
273.26	5.823
273.62	5.707
273.98	5.888
274.35	6.052
274.71	6.047
275.07	6.050
275.43	5.960
275.80	6.054
276.16	5.411
276.52	5.161
276.88	4.906
277.25	4.968
277.61	5.116
277.97	4.943
278.33	4.739
278.69	4.765
279.06	4.917
279.42	4.878
279.78	4.833
280.14	5.209
280.50	5.378
280.87	5.694
281.23	5.805
281.59	5.523
281.95	5.699
282.31	5.847
282.68	5.946
283.04	6.038
283.40	6.199
283.76	6.301
284.12	6.243
284.48	6.095
284.85	6.031
285.21	5.997
285.57	6.190
285.93	6.168
286.29	6.248
286.65	6.270
287.02	6.194
287.38	6.221
287.74	6.223
288.10	6.258
288.46	6.397
288.82	6.660
289.18	6.916
289.54	7.173
289.91	7.312
290.27	7.342
290.63	7.600
290.99	8.033
291.35	8.296
291.71	8.528
292.07	9.130
292.43	9.416
292.79	9.523
293.16	9.760
293.52	9.947
293.88	10.347
294.24	10.840
294.60	11.176
294.96	11.530
295.32	11.915
295.68	12.219
296.04	12.337
296.40	12.718
296.76	13.078
297.12	13.552
297.49	13.974
297.85	14.367
298.21	14.622
298.57	15.167
298.93	15.579
299.29	16.191
299.65	16.694
300.01	17.302
300.37	18.034
300.73	18.636
301.09	19.090
301.45	19.630
301.81	20.058
302.17	20.589
302.53	20.950
302.89	21.287
303.25	21.473
303.61	21.878
303.97	22.099
304.33	22.243
304.69	22.459
305.05	22.668
305.41	22.636
305.77	22.727
306.13	23.028
306.49	23.038
306.85	23.274
307.21	23.519
307.57	23.774
307.93	23.850
308.29	23.889
308.65	24.069
309.01	24.137
309.37	24.465
309.73	24.539
310.09	24.601
310.45	24.669
310.81	24.648
311.17	24.570
311.53	24.502
311.89	24.522
312.25	24.654
312.61	24.688
312.96	24.788
313.32	24.703
313.68	24.829
314.04	24.790
314.40	24.924
314.76	24.908
315.12	24.957
315.48	24.984
315.84	25.140
316.20	25.003
316.56	25.009
316.92	24.866
317.27	24.877
317.63	24.775
317.99	24.730
318.35	24.722
318.71	24.787
319.07	24.878
319.43	24.714
319.79	24.542
320.15	24.568
320.50	24.399
320.86	24.428
321.22	24.288
321.58	24.250
321.94	24.233
322.30	23.998
322.66	23.808
323.01	23.682
323.37	23.649
323.73	23.768
324.09	23.695
324.45	23.648
324.81	23.643
325.17	23.648
325.52	23.713
325.88	23.654
326.24	23.733
326.60	23.843
326.96	23.856
327.31	23.843
327.67	23.744
328.03	23.809
328.39	23.917
328.75	23.890
329.11	23.996
329.46	24.019
329.82	23.998
330.18	23.961
330.54	23.928
330.90	23.765
331.25	23.605
331.61	23.623
331.97	23.503
332.33	23.427
332.68	23.213
333.04	23.031
333.40	22.819
333.76	22.774
334.11	22.638
334.47	22.550
334.83	22.616
335.19	22.693
335.54	22.586
335.90	22.552
336.26	22.522
336.62	22.662
336.97	22.692
337.33	22.758
337.69	22.612
338.05	22.609
338.40	22.578
338.76	22.426
339.12	22.394
339.48	22.361
339.83	22.230
340.19	22.103
340.55	21.992
340.90	21.942
341.26	21.831
341.62	21.848
341.97	21.884
342.33	21.821
342.69	21.875
343.04	21.742
343.40	21.647
343.76	21.742
344.12	21.669
344.47	21.641
344.83	21.506
345.19	21.527
345.54	21.429
345.90	21.426
346.26	21.456
346.61	21.359
346.97	21.448
347.32	21.499
347.68	21.394
348.04	21.422
348.39	21.318
348.75	21.297
349.11	21.171
349.46	21.102
349.82	21.018
350.18	20.896
350.53	20.853
350.89	20.769
351.24	20.653
351.60	20.682
351.96	20.568
352.31	20.586
352.67	20.588
353.02	20.571
353.38	20.571
353.74	20.571
354.09	20.472
354.45	20.524
354.80	20.575
355.16	20.550
355.52	20.464
355.87	20.524
356.23	20.449
356.58	20.384
356.94	20.360
357.29	20.363
357.65	20.294
358.00	20.290
358.36	20.178
358.72	20.110
359.07	20.056
359.43	19.982
359.78	19.933
360.14	19.850
360.49	19.778
360.85	19.737
361.20	19.676
361.56	19.659
361.91	19.593
362.27	19.520
362.62	19.428
362.98	19.383
363.33	19.336
363.69	19.255
364.04	19.230
364.40	19.228
364.75	19.200
365.11	19.212
365.46	19.132
365.82	19.175
366.17	19.267
366.53	19.264
366.88	19.278
367.24	19.234
367.59	19.200
367.95	19.183
368.30	19.138
368.66	19.149
369.01	19.080
369.37	19.058
369.72	19.021
370.08	18.940
370.43	18.921
370.78	18.865
371.14	18.912
371.49	18.852
371.85	18.843
372.20	18.811
372.56	18.739
372.91	18.709
373.26	18.708
373.62	18.695
373.97	18.636
374.33	18.620
374.68	18.562
375.03	18.490
375.39	18.473
375.74	18.431
376.10	18.430
376.45	18.362
376.80	18.353
377.16	18.239
377.51	18.209
377.87	18.188
378.22	18.137
378.57	18.122
378.93	18.152
379.28	18.167
379.63	18.139
379.99	18.103
380.34	18.114
380.70	18.066
381.05	18.062
381.40	17.995
381.76	17.937
382.11	17.888
382.46	17.902
382.82	17.814
383.17	17.810
383.52	17.819
383.88	17.817
384.23	17.807
384.58	17.787
384.94	17.752
385.29	17.676
385.64	17.662
385.99	17.633
386.35	17.514
386.70	17.438
387.05	17.360
387.41	17.279
387.76	17.221
388.11	17.153
388.47	17.100
388.82	17.093
389.17	17.089
389.52	17.025
389.88	17.019
390.23	17.024
390.58	17.007
390.93	16.982
391.29	16.947
391.64	16.893
391.99	16.877
392.34	16.847
392.70	16.823
393.05	16.787
393.40	16.791
393.75	16.682
394.11	16.640
394.46	16.586
394.81	16.499
395.16	16.444
395.52	16.391
395.87	16.320
396.22	16.243
396.57	16.165
396.92	16.063
397.28	15.996
397.63	15.963
397.98	15.866
398.33	15.783
398.68	15.724
399.04	15.695
399.39	15.621
399.74	15.530
400.09	15.485
400.44	15.430
400.80	15.439
401.15	15.415
401.50	15.366
401.85	15.366
402.20	15.358
402.55	15.361
402.90	15.293
403.26	15.288
403.61	15.280
403.96	15.260
404.31	15.225
404.66	15.153
405.01	15.069
405.36	15.007
405.72	14.943
406.07	14.892
406.42	14.857
406.77	14.837
407.12	14.794
407.47	14.763
407.82	14.715
408.17	14.660
408.53	14.644
408.88	14.614
409.23	14.614
409.58	14.569
409.93	14.526
410.28	14.457
410.63	14.429
410.98	14.425
411.33	14.357
411.68	14.296
412.03	14.275
412.38	14.259
412.73	14.270
413.09	14.235
413.44	14.239
413.79	14.297
414.14	14.303
414.49	14.279
414.84	14.251
415.19	14.281
415.54	14.314
415.89	14.321
416.24	14.310
416.59	14.302
416.94	14.308
417.29	14.310
417.64	14.273
417.99	14.263
418.34	14.278
418.69	14.274
419.04	14.260
419.39	14.255
419.74	14.258
420.09	14.277
420.44	14.273
420.79	14.281
421.14	14.257
421.49	14.267
421.84	14.259
422.19	14.225
422.54	14.227
422.89	14.221
423.24	14.207
423.59	14.161
423.94	14.113
424.29	14.073
424.64	14.030
424.99	14.008
425.34	13.967
425.68	13.950
426.03	13.922
426.38	13.862
426.73	13.816
427.08	13.778
427.43	13.782
427.78	13.775
428.13	13.790
428.48	13.766
428.83	13.747
429.18	13.735
429.53	13.717
429.87	13.738
430.22	13.726
430.57	13.741
430.92	13.711
431.27	13.707
431.62	13.696
431.97	13.671
432.32	13.667
432.67	13.675
433.01	13.653
433.36	13.641
433.71	13.601
434.06	13.592
434.41	13.549
434.76	13.569
435.11	13.563
435.45	13.567
435.80	13.579
436.15	13.588
436.50	13.593
436.85	13.616
437.20	13.616
437.54	13.634
437.89	13.643
438.24	13.657
438.59	13.638
438.94	13.609
439.29	13.601
439.63	13.586
439.98	13.561
440.33	13.546
440.68	13.521
441.03	13.499
441.37	13.456
441.72	13.448
442.07	13.441
442.42	13.428
442.76	13.443
443.11	13.436
443.46	13.425
443.81	13.426
444.16	13.406
444.50	13.395
444.85	13.382
445.20	13.398
445.55	13.345
445.89	13.311
446.24	13.284
446.59	13.243
446.94	13.189
447.28	13.124
447.63	13.061
447.98	13.028
448.32	12.981
448.67	12.914
449.02	12.840
449.37	12.822
449.71	12.792
450.06	12.770
450.41	12.743
450.75	12.732
451.10	12.736
451.45	12.727
451.79	12.691
452.14	12.661
452.49	12.657
452.84	12.649
453.18	12.633
453.53	12.610
453.88	12.591
454.22	12.578
454.57	12.561
454.92	12.576
455.26	12.572
455.61	12.594
455.95	12.605
456.30	12.638
456.65	12.653
456.99	12.649
457.34	12.663
457.69	12.671
458.03	12.667
458.38	12.660
458.73	12.621
459.07	12.627
459.42	12.598
459.76	12.578
460.11	12.524
460.46	12.480
460.80	12.451
461.15	12.382
461.49	12.347
461.84	12.311
462.19	12.301
462.53	12.289
462.88	12.243
463.22	12.217
463.57	12.203
463.91	12.185
464.26	12.158
464.61	12.142
464.95	12.131
465.30	12.107
465.64	12.086
465.99	12.049
466.33	12.022
466.68	11.989
467.02	11.977
467.37	11.947
467.71	11.923
468.06	11.920
468.41	11.904
468.75	11.895
469.10	11.841
469.44	11.832
469.79	11.809
470.13	11.771
470.48	11.734
470.82	11.689
471.17	11.655
471.51	11.649
471.86	11.609
472.20	11.588
472.55	11.571
472.89	11.578
473.23	11.518
473.58	11.485
473.92	11.471
474.27	11.466
474.61	11.460
474.96	11.456
475.30	11.421
475.65	11.398
475.99	11.389
476.34	11.381
476.68	11.360
477.02	11.377
477.37	11.387
477.71	11.405
478.06	11.433
478.40	11.504
478.75	11.610
479.09	11.744
479.43	11.915
479.78	12.103
480.12	12.313
480.47	12.544
480.81	12.779
481.15	13.012
481.50	13.251
481.84	13.520
482.19	13.811
482.53	14.070
482.87	14.232
483.22	14.255
483.56	14.136
483.90	13.923
484.25	13.646
484.59	13.329
484.94	13.075
485.28	12.849
485.62	12.566
485.97	12.228
486.31	11.908
486.65	11.682
487.00	11.572
487.34	11.566
487.68	11.624
488.03	11.716
488.37	11.833
488.71	11.862
489.06	11.820
489.40	11.772
489.74	11.735
490.09	11.687
490.43	11.612
490.77	11.555
491.11	11.496
491.46	11.432
491.80	11.366
492.14	11.296
492.49	11.212
492.83	11.126
493.17	11.047
493.51	10.940
493.86	10.865
494.20	10.810
494.54	10.749
494.88	10.722
495.23	10.719
495.57	10.717
495.91	10.711
496.25	10.692
496.60	10.681
496.94	10.666
497.28	10.665
497.62	10.634
497.97	10.601
498.31	10.565
498.65	10.546
498.99	10.525
499.33	10.485
499.68	10.456
500.02	10.452
500.36	10.443
500.70	10.428
501.04	10.406
501.39	10.404
501.73	10.403
502.07	10.399
502.41	10.379
502.75	10.335
503.09	10.347
503.44	10.343
503.78	10.335
504.12	10.324
504.46	10.321
504.80	10.323
505.14	10.322
505.49	10.329
505.83	10.328
506.17	10.331
506.51	10.347
506.85	10.347
507.19	10.328
507.53	10.322
507.87	10.312
508.22	10.320
508.56	10.310
508.90	10.295
509.24	10.290
509.58	10.293
509.92	10.274
510.26	10.258
510.60	10.221
510.94	10.207
511.28	10.173
511.63	10.172
511.97	10.140
512.31	10.135
512.65	10.110
512.99	10.095
513.33	10.110
513.67	10.137
514.01	10.146
514.35	10.192
514.69	10.230
515.03	10.284
515.37	10.300
515.71	10.322
516.05	10.346
516.39	10.379
516.73	10.373
517.07	10.374
517.41	10.364
517.75	10.346
518.09	10.326
518.43	10.290
518.77	10.245
519.11	10.197
519.45	10.166
519.79	10.138
520.13	10.100
520.47	10.079
520.81	10.044
521.15	10.029
521.49	10.029
521.83	10.028
522.17	10.043
522.51	10.066
522.85	10.122
523.19	10.177
523.53	10.240
523.87	10.347
524.21	10.464
524.55	10.568
524.89	10.647
525.23	10.724
525.57	10.778
525.91	10.838
526.25	10.896
526.58	10.931
526.92	10.964
527.26	10.986
527.60	10.970
527.94	10.933
528.28	10.878
528.62	10.842
528.96	10.794
529.30	10.743
529.64	10.692
529.97	10.621
530.31	10.556
530.65	10.483
530.99	10.412
531.33	10.361
531.67	10.333
532.01	10.317
532.35	10.287
532.68	10.258
533.02	10.232
533.36	10.192
533.70	10.162
534.04	10.121
534.38	10.097
534.71	10.065
535.05	10.038
535.39	9.997
535.73	9.957
536.07	9.916
536.41	9.912
536.74	9.917
537.08	9.934
537.42	9.951
537.76	9.985
538.10	10.006
538.43	10.021
538.77	10.046
539.11	10.085
539.45	10.110
539.79	10.128
540.12	10.131
540.46	10.145
540.80	10.133
541.14	10.125
541.47	10.100
541.81	10.073
542.15	10.046
542.49	10.003
542.82	9.930
543.16	9.890
543.50	9.856
543.84	9.801
544.17	9.752
544.51	9.700
544.85	9.642
545.18	9.626
545.52	9.581
545.86	9.552
546.20	9.510
546.53	9.471
546.87	9.437
547.21	9.378
547.54	9.330
547.88	9.283
548.22	9.276
548.55	9.275
548.89	9.229
549.23	9.195
549.56	9.178
549.90	9.163
550.24	9.194
550.57	9.170
550.91	9.154
551.25	9.158
551.58	9.138
551.92	9.100
552.26	9.065
552.59	9.026
552.93	9.020
553.27	9.001
553.60	8.989
553.94	8.961
554.27	8.948
554.61	8.956
554.95	8.939
555.28	8.928
555.62	8.947
555.95	8.945
556.29	8.970
556.63	8.968
556.96	8.945
557.30	8.947
557.63	8.933
557.97	8.922
558.31	8.879
558.64	8.873
558.98	8.879
559.31	8.860
559.65	8.875
559.98	8.873
560.32	8.864
560.65	8.870
560.99	8.848
561.33	8.844
561.66	8.866
562.00	8.911
562.33	8.926
562.67	8.939
563.00	8.953
563.34	8.946
563.67	8.939
564.01	8.956
564.34	8.979
564.68	9.009
565.01	9.017
565.35	8.997
565.68	8.981
566.02	8.956
566.35	8.932
566.69	8.928
567.02	8.949
567.36	8.952
567.69	8.929
568.03	8.914
568.36	8.900
568.69	8.891
569.03	8.880
569.36	8.866
569.70	8.893
570.03	8.914
570.37	8.902
570.70	8.897
571.04	8.901
571.37	8.910
571.70	8.909
572.04	8.918
572.37	8.917
572.71	8.919
573.04	8.941
573.37	8.944
573.71	8.901
574.04	8.903
574.38	8.879
574.71	8.881
575.04	8.860
575.38	8.848
575.71	8.799
576.05	8.769
576.38	8.736
576.71	8.701
577.05	8.660
577.38	8.650
577.71	8.602
578.05	8.573
578.38	8.515
578.71	8.515
579.05	8.461
579.38	8.467
579.71	8.467
580.05	8.488
580.38	8.460
580.71	8.434
581.05	8.442
581.38	8.456
581.71	8.450
582.05	8.463
582.38	8.469
582.71	8.500
583.04	8.502
583.38	8.500
583.71	8.467
584.04	8.479
584.38	8.511
584.71	8.499
585.04	8.521
585.37	8.562
585.71	8.558
586.04	8.543
586.37	8.564
586.70	8.571
587.04	8.594
587.37	8.619
587.70	8.617
588.03	8.594
588.37	8.625
588.70	8.608
589.03	8.599
589.36	8.611
589.69	8.624
590.03	8.634
590.36	8.613
590.69	8.582
591.02	8.583
591.35	8.591
591.69	8.607
592.02	8.595
592.35	8.609
592.68	8.598
593.01	8.616
593.35	8.628
593.68	8.611
594.01	8.641
594.34	8.660
594.67	8.669
595.00	8.675
595.34	8.672
595.67	8.659
596.00	8.650
596.33	8.633
596.66	8.594
596.99	8.567
597.32	8.567
597.65	8.543
597.99	8.534
598.32	8.522
598.65	8.496
598.98	8.497
599.31	8.495
599.64	8.505
599.97	8.520
600.30	8.540
600.63	8.552
600.96	8.567
601.30	8.561
601.63	8.575
601.96	8.588
602.29	8.624
602.62	8.628
602.95	8.630
603.28	8.631
603.61	8.630
603.94	8.635
604.27	8.616
604.60	8.610
604.93	8.611
605.26	8.596
605.59	8.581
605.92	8.557
606.25	8.536
606.58	8.532
606.91	8.537
607.24	8.520
607.57	8.501
607.90	8.522
608.23	8.504
608.56	8.500
608.89	8.495
609.22	8.500
609.55	8.471
609.88	8.447
610.21	8.440
610.54	8.415
610.87	8.411
611.20	8.383
611.53	8.319
611.86	8.306
612.19	8.275
612.52	8.240
612.85	8.191
613.18	8.196
613.51	8.218
613.84	8.193
614.17	8.175
614.49	8.193
614.82	8.245
615.15	8.274
615.48	8.227
615.81	8.251
616.14	8.257
616.47	8.241
616.80	8.233
617.13	8.204
617.46	8.209
617.78	8.188
618.11	8.176
618.44	8.121
618.77	8.080
619.10	8.136
619.43	8.137
619.76	8.143
620.09	8.156
620.41	8.143
620.74	8.142
621.07	8.136
621.40	8.151
621.73	8.158
622.06	8.165
622.38	8.215
622.71	8.222
623.04	8.223
623.37	8.238
623.70	8.256
624.02	8.316
624.35	8.332
624.68	8.366
625.01	8.362
625.34	8.336
625.66	8.334
625.99	8.318
626.32	8.280
626.65	8.262
626.98	8.262
627.30	8.259
627.63	8.203
627.96	8.162
628.29	8.130
628.61	8.118
628.94	8.115
629.27	8.109
629.60	8.131
629.92	8.118
630.25	8.101
630.58	8.039
630.91	8.018
631.23	7.996
631.56	8.026
631.89	7.958
632.21	7.963
632.54	7.935
632.87	7.949
633.19	7.906
633.52	7.914
633.85	7.888
634.18	7.924
634.50	7.889
634.83	7.890
635.16	7.845
635.48	7.873
635.81	7.842
636.14	7.794
636.46	7.743
636.79	7.720
637.11	7.683
637.44	7.681
637.77	7.643
638.09	7.620
638.42	7.605
638.75	7.658
639.07	7.619
639.40	7.615
639.73	7.632
640.05	7.599
640.38	7.567
640.70	7.525
641.03	7.516
641.36	7.512
641.68	7.532
642.01	7.525
642.33	7.423
642.66	7.428
642.98	7.383
643.31	7.394
643.64	7.422
643.96	7.441
644.29	7.468
644.61	7.523
644.94	7.544
645.26	7.551
645.59	7.546
645.91	7.617
646.24	7.630
646.56	7.599
646.89	7.580
647.22	7.580
647.54	7.599
647.87	7.642
648.19	7.562
648.52	7.523
648.84	7.509
649.17	7.498
649.49	7.431
649.82	7.446
650.14	7.459
650.47	7.477
650.79	7.444
651.11	7.366
651.44	7.290
651.76	7.314
652.09	7.295
652.41	7.254
652.74	7.257
653.06	7.258
653.39	7.194
653.71	7.210
654.04	7.205
654.36	7.198
654.68	7.224
655.01	7.230
655.33	7.199
655.66	7.169
655.98	7.140
656.30	7.087
656.63	7.095
656.95	7.127
657.28	7.088
657.60	7.064
657.92	7.056
658.25	7.035
658.57	7.006
658.90	6.954
659.22	6.878
659.54	6.858
659.87	6.772
660.19	6.710
660.51	6.627
660.84	6.584
661.16	6.479
661.48	6.333
661.81	6.220
662.13	6.135
662.45	6.060
662.78	6.069
663.10	6.021
663.42	6.053
663.75	6.009
664.07	5.926
664.39	5.881
664.72	5.867
665.04	5.946
665.36	5.956
665.69	5.977
666.01	5.948
666.33	5.902
666.65	5.904
666.98	5.848
667.30	5.815
667.62	5.822
667.94	5.799
668.27	5.757
668.59	5.677
668.91	5.589
669.23	5.497
669.56	5.460
669.88	5.397
670.20	5.282
670.52	5.251
670.85	5.189
671.17	5.130
671.49	5.015
671.81	4.906
672.13	4.821
672.46	4.765
672.78	4.693
673.10	4.630
673.42	4.633
673.74	4.625
674.07	4.553
674.39	4.496
674.71	4.447
675.03	4.462
675.35	4.535
675.67	4.581
676.00	4.638
676.32	4.678
676.64	4.703
676.96	4.734
677.28	4.771
677.60	4.786
677.92	4.890
678.25	4.944
678.57	4.951
678.89	4.919
679.21	4.899
679.53	4.835
679.85	4.858
680.17	4.817
680.49	4.731
680.81	4.705
681.13	4.708
681.46	4.606
681.78	4.526
682.10	4.518
682.42	4.498
682.74	4.461
683.06	4.518
683.38	4.428
683.70	4.461
684.02	4.526
684.34	4.515
684.66	4.595
684.98	4.602
685.30	4.644
685.62	4.674
685.94	4.628
686.26	4.634
686.58	4.621
686.90	4.616
687.22	4.614
687.54	4.479
687.86	4.371
688.18	4.171
688.50	4.037
688.82	3.931
689.14	3.816
689.46	3.752
689.78	3.646
690.10	3.494
690.42	3.381
690.74	3.197
691.06	3.098
691.38	3.004
691.70	2.980
692.02	2.911
692.34	2.872
692.66	2.695
692.98	2.589
693.30	2.582
693.62	2.580
693.94	2.632
694.26	2.653
694.57	2.717
694.89	2.885
695.21	2.970
695.53	3.110
695.85	3.237
696.17	3.395
696.49	3.526
696.81	3.558
697.13	3.643
697.44	3.618
697.76	3.680
698.08	3.624
698.40	3.478
698.72	3.312
699.04	3.127
699.36	2.849
699.67	2.633
699.99	2.274
700.31	1.936
700.63	1.511
700.95	1.186
701.27	0.766
701.58	0.411
701.90	0.038
702.22	-0.191
702.54	-0.358
702.86	-0.564
703.17	-0.764
703.49	-0.855
703.81	-0.994
704.13	-1.076
704.45	-1.187
704.76	-1.284
705.08	-1.241
705.40	-1.151
705.72	-1.234
706.03	-1.351
706.35	-1.390
706.67	-1.465
706.99	-1.539
707.30	-1.508
707.62	-1.626
707.94	-1.661
708.26	-1.646
708.57	-1.615
708.89	-1.740
709.21	-1.732
709.53	-1.736
709.84	-1.774
710.16	-1.755
710.48	-1.643
710.79	-1.723
711.11	-1.441
711.43	-1.343
711.74	-1.285
712.06	-1.253
712.38	-1.032
712.69	-0.949
713.01	-0.708
713.33	-0.506
713.64	-0.336
713.96	-0.192
714.28	0.086
714.59	0.241
714.91	0.514
715.23	0.848
715.54	1.084
715.86	1.204
716.17	1.333
716.49	1.251
716.81	1.318
717.12	1.313
717.44	1.255
717.76	1.089
718.07	0.952
718.39	0.605
718.70	0.118
719.02	-0.352
719.33	-0.697
719.65	-0.832
719.97	-1.078
720.28	-1.333
720.60	-1.502
720.91	-1.488
721.23	-1.448
721.54	-1.575
721.86	-1.589
722.17	-1.422
722.49	-1.308
722.81	-1.192
723.12	-1.301
723.44	-1.120
723.75	-1.107
724.07	-1.108
724.38	-1.281
724.70	-1.411
725.01	-1.498
725.33	-1.408
725.64	-1.393
725.96	-1.286
726.27	-1.380
726.59	-1.367
726.90	-1.320
727.22	-1.283
727.53	-1.230
727.84	-1.137
728.16	-1.180
728.47	-1.064
728.79	-1.178
729.10	-1.388
729.42	-1.557
729.73	-1.847
730.05	-2.137
730.36	-2.533
730.67	-2.934
730.99	-3.401
731.30	-3.792
731.62	-4.140
731.93	-4.756
732.24	-5.195
732.56	-5.704
732.87	-6.241
733.19	-6.640
733.50	-6.998
733.81	-7.480
734.13	-7.827
734.44	-8.333
734.76	-8.815
735.07	-9.188
735.38	-9.631
735.70	-10.010
736.01	-10.289
736.32	-10.373
736.64	-10.402
736.95	-10.572
737.26	-10.799
737.58	-11.291
737.89	-11.238
738.20	-11.616
738.52	-11.805
738.83	-12.070
739.14	-12.543
739.45	-12.901
739.77	-13.488
740.08	-14.387
740.39	-14.886
740.71	-15.358
741.02	-15.889
741.33	-16.668
741.64	-17.232
741.96	-18.015
742.27	-18.628
742.58	-19.104
742.90	-19.598
743.21	-20.303
743.52	-20.336
743.83	-21.013
744.14	-21.206
744.46	-21.339
744.77	-21.354
745.08	-21.598
745.39	-21.375
745.71	-21.286
746.02	-21.200
746.33	-21.089
746.64	-21.009
746.95	-21.092
747.27	-20.626
747.58	-20.524
747.89	-20.736
748.20	-20.972
748.51	-20.654
748.82	-20.895
749.14	-20.889
749.45	-20.992
749.76	-21.410
750.07	-21.383
750.38	-21.728
750.69	-22.168
751.01	-22.484
751.32	-22.348
751.63	-22.299
751.94	-22.648
752.25	-22.509
752.56	-22.703
752.87	-22.925
753.18	-22.742
753.49	-22.857
753.81	-22.545
754.12	-22.134
754.43	-21.932
754.74	-21.251
755.05	-20.294
755.36	-18.856
755.67	-17.726
755.98	-16.028
756.29	-14.360
756.60	-12.513
756.91	-10.854
757.22	-8.937
757.53	-7.255
757.84	-5.310
758.15	-3.527
758.46	-2.123
758.77	-1.013
759.09	0.210
759.40	1.016
759.71	1.765
760.02	2.229
760.33	2.714
760.64	2.730
760.95	2.768
761.26	2.838
761.57	2.632
761.88	2.324
762.18	2.109
762.49	1.634
762.80	1.051
763.11	0.257
763.42	-0.597
763.73	-1.619
764.04	-2.628
764.35	-3.822
764.66	-5.335
764.97	-7.018
765.28	-8.934
765.59	-11.244
765.90	-13.692
766.21	-16.068
766.52	-18.044
766.83	-20.063
767.14	-21.962
767.44	-23.714
767.75	-25.621
768.06	-27.329
768.37	-28.690
768.68	-30.128
768.99	-30.899
769.30	-32.257
769.61	-33.390
769.91	-34.430
770.22	-35.394
770.53	-35.689
770.84	-36.698
771.15	-36.939
771.46	-37.779
771.77	-38.684
772.07	-38.045
772.38	-38.831
772.69	-38.796
773.00	-38.899
773.31	-39.115
773.61	-39.626
773.92	-40.258
774.23	-39.473
774.54	-40.337
774.85	-39.817
775.15	-39.770
775.46	-40.385
775.77	-39.683
776.08	-39.178
776.39	-38.794
776.69	-38.558
777.00	-37.908
777.31	-37.748
777.62	-37.928
777.92	-37.124
778.23	-38.310
778.54	-37.555
778.85	-37.433
779.15	-37.943
779.46	-38.088
779.77	-38.669
780.07	-38.783
780.38	-39.754
780.69	-40.014
781.00	-40.614
781.30	-40.547
781.61	-39.397
781.92	-40.070
782.22	-39.931
782.53	-39.881
782.84	-39.909
783.14	-39.014
783.45	-38.462
783.76	-36.863
784.06	-35.880
784.37	-34.521
784.68	-33.476
784.98	-32.245
785.29	-30.821
785.60	-29.839
785.90	-28.418
786.21	-27.161
786.51	-25.559
786.82	-23.797
787.13	-23.521
787.43	-22.822
787.74	-22.129
788.04	-21.978
788.35	-22.541
788.66	-22.413
788.96	-22.980
789.27	-23.436
789.57	-24.082
789.88	-25.682
790.19	-27.389
790.49	-27.838
790.80	-28.662
791.10	-29.576
791.41	-29.342
791.71	-28.727
792.02	-28.344
792.32	-27.353
792.63	-26.394
792.93	-25.337
793.24	-24.674
793.54	-24.036
793.85	-23.065
794.15	-21.802
794.46	-21.154
794.76	-21.312
795.07	-21.077
795.37	-21.799
795.68	-21.151
795.98	-21.687
796.29	-21.587
796.59	-20.815
796.90	-20.938
797.20	-21.071
797.51	-21.290
797.81	-21.043
798.12	-21.193
798.42	-21.327
798.72	-20.467
799.03	-21.322
799.33	-20.927
799.64	-21.316
799.94	-21.863
800.25	-21.486
800.55	-21.281
800.85	-21.398
801.16	-21.679
801.46	-21.372
801.77	-21.146
802.07	-21.677
802.37	-21.395
802.68	-21.898
802.98	-22.311
803.28	-22.426
803.59	-22.370
803.89	-22.631
804.20	-22.781
804.50	-22.997
804.80	-23.196
805.11	-23.547
805.41	-22.946
805.71	-22.910
806.02	-22.109
806.32	-21.891
806.62	-22.152
806.93	-22.321
807.23	-22.309
807.53	-22.308
807.83	-22.143
808.14	-22.267
808.44	-21.748
808.74	-22.296
809.05	-20.924
809.35	-20.839
809.65	-20.309
809.95	-19.015
810.26	-18.282
810.56	-17.479
810.86	-16.568
811.16	-16.088
811.47	-14.827
811.77	-13.902
812.07	-12.980
812.37	-12.976
812.68	-12.454
812.98	-12.048
813.28	-11.568
813.58	-10.999
813.88	-10.448
814.19	-9.382
814.49	-8.265
814.79	-7.503
815.09	-6.629
815.39	-5.286
815.70	-5.460
816.00	-4.798
816.30	-4.030
816.60	-3.350
816.90	-2.683
817.20	-1.746
817.50	-0.963
817.81	0.280
818.11	1.619
818.41	2.514
818.71	3.239
819.01	4.257
819.31	5.027
819.61	5.669
819.92	6.124
820.22	6.497
820.52	6.836
820.82	7.018
821.12	7.278
821.42	7.391
821.72	7.456
822.02	7.548
822.32	7.546
822.62	7.478
822.92	7.358
823.22	7.192
823.52	7.042
823.83	6.885
824.13	6.768
824.43	6.548
824.73	6.268
825.03	6.121
825.33	5.838
825.63	5.605
825.93	5.527
826.23	5.437
826.53	5.475
826.83	5.318
827.13	5.105
827.43	4.980
827.73	4.610
828.03	4.441
828.33	4.137
828.63	3.866
828.93	3.242
829.23	2.424
829.53	1.739
829.83	0.798
830.13	0.513
830.42	0.315
830.72	0.090
831.02	0.089
831.32	0.101
831.62	0.256
831.92	0.292
832.22	0.778
832.52	1.037
832.82	1.173
833.12	1.488
833.42	1.383
833.72	0.966
834.01	0.570
834.31	0.501
834.61	-0.112
834.91	-0.899
835.21	-1.098
835.51	-2.105
835.81	-3.248
836.11	-4.751
836.40	-7.094
836.70	-8.858
837.00	-10.201
837.30	-11.119
837.60	-12.873
837.90	-12.745
838.19	-13.905
838.49	-15.468
838.79	-15.913
839.09	-17.099
839.39	-17.286
839.68	-17.256
839.98	-17.522
840.28	-18.487
840.58	-19.944
840.88	-22.735
841.17	-25.309
841.47	-27.744
841.77	-29.799
842.07	-33.999
842.36	-36.263
842.66	-39.875
842.96	-42.508
843.26	-44.790
843.55	-45.999
843.85	-48.687
844.15	-48.371
844.45	-46.960
844.74	-46.152
845.04	-48.311
845.34	-47.691
845.63	-46.094
845.93	-45.400
846.23	-47.732
846.53	-50.689
846.82	-57.860
847.12	-59.221
847.42	-56.747
847.71	-61.661
848.01	-62.897
848.31	-58.824
848.60	-56.583
848.90	-57.015
849.19	-54.616
849.49	-56.337
849.79	-59.075
850.08	-59.358
850.38	-56.889
850.68	-57.963
850.97	-57.639
851.27	-57.448
851.56	-61.438
851.86	-59.871
852.16	-59.543
852.45	-65.096
852.75	-61.671
853.04	-61.214
853.34	-56.164
853.64	-56.371
853.93	-52.213
854.23	-53.083
854.52	-50.474
854.82	-48.583
855.11	-51.274
855.41	-52.182
855.70	-46.532
856.00	-47.761
856.30	-48.721
856.59	-47.607
856.89	-51.020
857.18	-58.547
857.48	-58.672
857.77	-61.948
858.07	-62.994
858.36	-63.944
858.66	-66.951
858.95	-71.287
859.25	-69.420
859.54	-67.206
859.84	-68.779
860.13	-63.584
860.42	-59.572
860.72	-59.112
861.01	-59.220
861.31	-57.043
861.60	-52.873
861.90	-50.966
862.19	-48.017
862.49	-48.998
862.78	-45.067
863.07	-41.487
863.37	-38.337
863.66	-40.969
863.96	-41.883
864.25	-35.479
864.54	-35.855
864.84	-37.445
865.13	-37.526
865.43	-37.464
865.72	-19.676
866.01	-40.649
866.31	-52.269
866.60	-54.801
866.89	-20.155
>>>>>End Spectral Data<<<<<
