OOIBase32 Version 2.0.0.6 Data File
++++++++++++++++++++++++++++++++++++
Date: 01-20-2012, 22:31:06
User: Valued Ocean Optics Customer
Spectrometer Serial Number: USB2E2917
Spectrometer Channel: Master
Integration Time (msec): 4
Spectra Averaged: 10
Boxcar Smoothing: 5
Correct for Electrical Dark: Enabled
Time Normalized: Disabled
Dual-beam Reference: Disabled
Reference Channel: Master
Temperature: Not acquired
Spectrometer Type: S2000
ADC Type: USB2000
Number of Pixels in File: 2048
Graph Title: 
>>>>>Begin Spectral Data<<<<<
180.30	0.000
180.67	0.000
181.03	174.630
181.40	9.957
181.77	50.078
182.14	126.447
182.51	74.375
182.88	-172.445
183.25	63.059
183.62	64.688
183.99	201.354
184.36	57.483
184.73	-9.030
185.10	139.580
185.46	-120.731
185.83	59.650
186.20	-221.294
186.57	15.788
186.94	-65.837
187.31	-4.252
187.68	1666.084
188.05	-153.261
188.42	-78.760
188.78	-5.193
189.15	-20.502
189.52	-19.658
189.89	-30.578
190.26	-34.954
190.63	-19.684
191.00	-13.808
191.37	-52.355
191.73	-57.217
192.10	-80.732
192.47	-68.647
192.84	-97.242
193.21	-65.163
193.58	-55.045
193.94	-78.666
194.31	-23.569
194.68	-28.148
195.05	-55.575
195.42	-36.178
195.79	-32.601
196.15	-41.026
196.52	-58.907
196.89	-81.457
197.26	-88.037
197.63	-76.343
198.00	-44.339
198.36	-85.290
198.73	-78.167
199.10	-38.845
199.47	-21.140
199.84	-29.497
200.20	-24.678
200.57	-22.532
200.94	-37.709
201.31	-33.366
201.68	-39.152
202.04	-35.001
202.41	-13.072
202.78	-18.083
203.15	-52.076
203.51	-55.741
203.88	-22.241
204.25	-19.209
204.62	-1.644
204.98	21.444
205.35	23.759
205.72	27.520
206.09	5.746
206.46	1.695
206.82	4.021
207.19	28.058
207.56	24.714
207.92	23.447
208.29	25.705
208.66	14.244
209.03	20.825
209.39	27.673
209.76	15.406
210.13	43.179
210.50	47.164
210.86	44.704
211.23	27.368
211.60	17.821
211.96	2.315
212.33	4.250
212.70	4.906
213.07	1.234
213.43	-15.334
213.80	-6.321
214.17	-6.531
214.53	-22.045
214.90	-31.479
215.27	-14.056
215.63	-5.141
216.00	-0.715
216.37	8.922
216.74	8.558
217.10	10.178
217.47	15.000
217.84	2.504
218.20	-4.863
218.57	5.240
218.94	13.586
219.30	9.296
219.67	8.802
220.04	20.507
220.40	17.035
220.77	11.418
221.13	9.618
221.50	15.598
221.87	19.823
222.23	21.179
222.60	23.453
222.97	26.734
223.33	29.853
223.70	27.060
224.07	25.166
224.43	23.322
224.80	23.974
225.16	23.686
225.53	22.301
225.90	22.021
226.26	21.120
226.63	19.931
226.99	18.323
227.36	17.465
227.73	17.323
228.09	16.419
228.46	17.204
228.82	16.151
229.19	14.768
229.56	14.444
229.92	13.975
230.29	13.599
230.65	14.388
231.02	14.131
231.38	12.886
231.75	12.019
232.12	12.070
232.48	10.993
232.85	11.449
233.21	12.334
233.58	11.417
233.94	10.046
234.31	8.773
234.68	7.599
235.04	8.390
235.41	8.237
235.77	9.301
236.14	9.620
236.50	9.986
236.87	11.227
237.23	11.998
237.60	12.746
237.96	13.536
238.33	14.108
238.69	14.041
239.06	13.222
239.42	13.406
239.79	13.115
240.15	12.924
240.52	12.671
240.88	12.337
241.25	12.024
241.61	11.958
241.98	12.274
242.34	12.272
242.71	12.068
243.07	12.341
243.44	12.107
243.80	12.072
244.17	11.900
244.53	11.730
244.90	11.666
245.26	11.724
245.63	11.724
245.99	11.404
246.36	11.385
246.72	11.207
247.09	11.095
247.45	11.149
247.81	10.891
248.18	10.776
248.54	10.663
248.91	10.807
249.27	10.923
249.64	10.991
250.00	11.131
250.36	11.369
250.73	11.486
251.09	11.442
251.46	11.809
251.82	12.083
252.19	12.351
252.55	12.683
252.91	12.334
253.28	11.782
253.64	11.229
254.01	11.284
254.37	10.585
254.73	10.804
255.10	10.695
255.46	10.366
255.83	10.345
256.19	10.341
256.55	10.264
256.92	10.399
257.28	10.421
257.65	10.486
258.01	10.474
258.37	10.473
258.74	10.505
259.10	10.489
259.46	10.580
259.83	10.552
260.19	10.423
260.55	10.544
260.92	10.522
261.28	10.557
261.64	10.471
262.01	10.294
262.37	10.293
262.73	9.969
263.10	9.828
263.46	9.708
263.82	9.866
264.19	9.862
264.55	9.790
264.91	9.740
265.28	9.613
265.64	9.824
266.00	9.895
266.37	10.034
266.73	10.255
267.09	10.334
267.46	10.412
267.82	10.254
268.18	10.311
268.54	10.081
268.91	9.904
269.27	10.021
269.63	9.965
270.00	9.857
270.36	9.782
270.72	9.537
271.08	9.555
271.45	9.332
271.81	9.281
272.17	9.426
272.53	9.419
272.90	9.427
273.26	9.437
273.62	9.357
273.98	9.426
274.35	9.459
274.71	9.832
275.07	9.719
275.43	9.733
275.80	9.843
276.16	9.496
276.52	9.610
276.88	9.450
277.25	9.323
277.61	9.419
277.97	9.492
278.33	9.579
278.69	9.285
279.06	9.156
279.42	9.058
279.78	8.944
280.14	9.159
280.50	8.964
280.87	8.999
281.23	9.089
281.59	9.050
281.95	8.831
282.31	8.631
282.68	8.701
283.04	8.893
283.40	8.968
283.76	9.040
284.12	8.837
284.48	8.770
284.85	8.956
285.21	8.922
285.57	8.772
285.93	8.774
286.29	8.830
286.65	8.783
287.02	8.634
287.38	8.465
287.74	8.376
288.10	8.443
288.46	8.564
288.82	8.541
289.18	8.460
289.54	8.729
289.91	8.860
290.27	8.614
290.63	8.742
290.99	8.830
291.35	8.857
291.71	8.782
292.07	9.063
292.43	9.060
292.79	8.865
293.16	8.894
293.52	8.750
293.88	8.762
294.24	9.125
294.60	8.997
294.96	9.052
295.32	9.311
295.68	9.375
296.04	9.278
296.40	9.233
296.76	9.334
297.12	9.478
297.49	9.479
297.85	9.538
298.21	9.476
298.57	9.742
298.93	10.015
299.29	10.261
299.65	10.508
300.01	10.680
300.37	11.130
300.73	11.416
301.09	11.554
301.45	11.815
301.81	12.095
302.17	12.417
302.53	12.525
302.89	12.677
303.25	12.597
303.61	12.741
303.97	12.879
304.33	12.947
304.69	13.293
305.05	13.562
305.41	13.743
305.77	13.953
306.13	14.113
306.49	14.303
306.85	14.369
307.21	14.644
307.57	14.755
307.93	14.861
308.29	15.033
308.65	15.043
309.01	15.001
309.37	15.149
309.73	15.109
310.09	15.052
310.45	15.131
310.81	15.201
311.17	15.223
311.53	15.382
311.89	15.501
312.25	15.669
312.61	15.710
312.96	15.886
313.32	15.913
313.68	16.137
314.04	16.281
314.40	16.258
314.76	16.236
315.12	16.226
315.48	16.119
315.84	16.044
316.20	15.876
316.56	15.783
316.92	15.786
317.27	15.795
317.63	15.714
317.99	15.737
318.35	15.729
318.71	15.814
319.07	16.003
319.43	16.002
319.79	15.956
320.15	15.943
320.50	15.928
320.86	15.912
321.22	15.837
321.58	15.608
321.94	15.504
322.30	15.414
322.66	15.339
323.01	15.197
323.37	15.208
323.73	15.179
324.09	15.091
324.45	15.197
324.81	15.089
325.17	15.021
325.52	15.148
325.88	15.097
326.24	15.136
326.60	15.102
326.96	15.012
327.31	14.950
327.67	14.936
328.03	14.897
328.39	14.739
328.75	14.801
329.11	14.792
329.46	14.737
329.82	14.857
330.18	14.871
330.54	14.742
330.90	14.681
331.25	14.567
331.61	14.463
331.97	14.371
332.33	14.422
332.68	14.328
333.04	14.262
333.40	14.266
333.76	14.198
334.11	14.137
334.47	14.240
334.83	14.197
335.19	14.210
335.54	14.225
335.90	14.254
336.26	14.157
336.62	14.071
336.97	14.097
337.33	14.103
337.69	13.943
338.05	13.857
338.40	13.741
338.76	13.644
339.12	13.694
339.48	13.672
339.83	13.652
340.19	13.524
340.55	13.503
340.90	13.422
341.26	13.221
341.62	13.163
341.97	13.138
342.33	13.020
342.69	13.088
343.04	12.882
343.40	12.868
343.76	12.823
344.12	12.791
344.47	12.771
344.83	12.698
345.19	12.724
345.54	12.772
345.90	12.789
346.26	12.928
346.61	12.855
346.97	12.899
347.32	12.884
347.68	12.856
348.04	12.826
348.39	12.763
348.75	12.672
349.11	12.650
349.46	12.462
349.82	12.435
350.18	12.284
350.53	12.202
350.89	12.187
351.24	12.086
351.60	12.040
351.96	11.952
352.31	11.915
352.67	11.947
353.02	11.825
353.38	11.878
353.74	11.794
354.09	11.755
354.45	11.791
354.80	11.749
355.16	11.752
355.52	11.665
355.87	11.732
356.23	11.632
356.58	11.572
356.94	11.609
357.29	11.552
357.65	11.457
358.00	11.428
358.36	11.296
358.72	11.208
359.07	11.081
359.43	11.012
359.78	10.965
360.14	10.939
360.49	10.892
360.85	10.807
361.20	10.731
361.56	10.717
361.91	10.575
362.27	10.535
362.62	10.476
362.98	10.535
363.33	10.492
363.69	10.415
364.04	10.398
364.40	10.377
364.75	10.360
365.11	10.395
365.46	10.349
365.82	10.364
366.17	10.359
366.53	10.328
366.88	10.219
367.24	10.167
367.59	10.113
367.95	10.048
368.30	10.059
368.66	10.031
369.01	9.960
369.37	9.939
369.72	9.956
370.08	9.983
370.43	9.995
370.78	10.001
371.14	10.065
371.49	10.032
371.85	10.008
372.20	9.971
372.56	9.933
372.91	9.833
373.26	9.785
373.62	9.717
373.97	9.629
374.33	9.551
374.68	9.484
375.03	9.408
375.39	9.403
375.74	9.380
376.10	9.353
376.45	9.301
376.80	9.324
377.16	9.304
377.51	9.279
377.87	9.253
378.22	9.282
378.57	9.283
378.93	9.274
379.28	9.312
379.63	9.291
379.99	9.190
380.34	9.188
380.70	9.187
381.05	9.187
381.40	9.216
381.76	9.189
382.11	9.117
382.46	9.115
382.82	9.102
383.17	9.030
383.52	9.013
383.88	9.035
384.23	8.991
384.58	8.952
384.94	8.911
385.29	8.780
385.64	8.778
385.99	8.745
386.35	8.662
386.70	8.608
387.05	8.543
387.41	8.504
387.76	8.498
388.11	8.484
388.47	8.478
388.82	8.473
389.17	8.502
389.52	8.470
389.88	8.463
390.23	8.528
390.58	8.515
390.93	8.551
391.29	8.539
391.64	8.511
391.99	8.507
392.34	8.471
392.70	8.442
393.05	8.359
393.40	8.339
393.75	8.306
394.11	8.218
394.46	8.159
394.81	8.104
395.16	8.038
395.52	7.923
395.87	7.836
396.22	7.760
396.57	7.679
396.92	7.644
397.28	7.587
397.63	7.493
397.98	7.409
398.33	7.361
398.68	7.321
399.04	7.308
399.39	7.318
399.74	7.290
400.09	7.285
400.44	7.258
400.80	7.291
401.15	7.243
401.50	7.265
401.85	7.294
402.20	7.304
402.55	7.277
402.90	7.254
403.26	7.234
403.61	7.236
403.96	7.213
404.31	7.210
404.66	7.163
405.01	7.167
405.36	7.099
405.72	7.043
406.07	6.982
406.42	6.934
406.77	6.921
407.12	6.921
407.47	6.888
407.82	6.833
408.17	6.795
408.53	6.773
408.88	6.702
409.23	6.745
409.58	6.691
409.93	6.663
410.28	6.643
410.63	6.581
410.98	6.513
411.33	6.484
411.68	6.486
412.03	6.492
412.38	6.488
412.73	6.538
413.09	6.506
413.44	6.545
413.79	6.584
414.14	6.625
414.49	6.654
414.84	6.684
415.19	6.720
415.54	6.767
415.89	6.786
416.24	6.792
416.59	6.811
416.94	6.838
417.29	6.866
417.64	6.896
417.99	6.911
418.34	6.935
418.69	6.963
419.04	6.967
419.39	6.975
419.74	6.992
420.09	7.023
420.44	7.029
420.79	7.041
421.14	7.027
421.49	7.023
421.84	7.010
422.19	6.988
422.54	6.985
422.89	6.980
423.24	6.968
423.59	6.925
423.94	6.890
424.29	6.847
424.64	6.806
424.99	6.786
425.34	6.743
425.68	6.707
426.03	6.679
426.38	6.627
426.73	6.565
427.08	6.515
427.43	6.487
427.78	6.501
428.13	6.511
428.48	6.513
428.83	6.495
429.18	6.497
429.53	6.520
429.87	6.545
430.22	6.550
430.57	6.585
430.92	6.596
431.27	6.624
431.62	6.619
431.97	6.605
432.32	6.607
432.67	6.589
433.01	6.590
433.36	6.557
433.71	6.515
434.06	6.480
434.41	6.451
434.76	6.444
435.11	6.451
435.45	6.461
435.80	6.493
436.15	6.509
436.50	6.547
436.85	6.571
437.20	6.606
437.54	6.650
437.89	6.694
438.24	6.719
438.59	6.717
438.94	6.700
439.29	6.684
439.63	6.677
439.98	6.676
440.33	6.682
440.68	6.675
441.03	6.670
441.37	6.648
441.72	6.672
442.07	6.704
442.42	6.728
442.76	6.772
443.11	6.799
443.46	6.804
443.81	6.831
444.16	6.846
444.50	6.854
444.85	6.853
445.20	6.874
445.55	6.841
445.89	6.807
446.24	6.781
446.59	6.742
446.94	6.703
447.28	6.657
447.63	6.590
447.98	6.531
448.32	6.480
448.67	6.435
449.02	6.389
449.37	6.367
449.71	6.359
450.06	6.350
450.41	6.350
450.75	6.363
451.10	6.386
451.45	6.404
451.79	6.427
452.14	6.439
452.49	6.436
452.84	6.445
453.18	6.443
453.53	6.433
453.88	6.459
454.22	6.469
454.57	6.487
454.92	6.525
455.26	6.540
455.61	6.569
455.95	6.599
456.30	6.651
456.65	6.697
456.99	6.753
457.34	6.789
457.69	6.801
458.03	6.824
458.38	6.831
458.73	6.829
459.07	6.833
459.42	6.810
459.76	6.782
460.11	6.755
460.46	6.705
460.80	6.665
461.15	6.630
461.49	6.607
461.84	6.564
462.19	6.520
462.53	6.506
462.88	6.500
463.22	6.505
463.57	6.525
463.91	6.532
464.26	6.550
464.61	6.552
464.95	6.552
465.30	6.554
465.64	6.572
465.99	6.577
466.33	6.567
466.68	6.551
467.02	6.540
467.37	6.518
467.71	6.495
468.06	6.504
468.41	6.480
468.75	6.461
469.10	6.428
469.44	6.412
469.79	6.381
470.13	6.361
470.48	6.337
470.82	6.322
471.17	6.322
471.51	6.319
471.86	6.286
472.20	6.266
472.55	6.259
472.89	6.250
473.23	6.206
473.58	6.207
473.92	6.196
474.27	6.193
474.61	6.184
474.96	6.185
475.30	6.173
475.65	6.175
475.99	6.180
476.34	6.193
476.68	6.204
477.02	6.226
477.37	6.239
477.71	6.263
478.06	6.311
478.40	6.391
478.75	6.509
479.09	6.652
479.43	6.806
479.78	6.975
480.12	7.139
480.47	7.325
480.81	7.503
481.15	7.674
481.50	7.845
481.84	8.029
482.19	8.224
482.53	8.391
482.87	8.501
483.22	8.532
483.56	8.468
483.90	8.350
484.25	8.179
484.59	7.989
484.94	7.846
485.28	7.711
485.62	7.546
485.97	7.348
486.31	7.164
486.65	7.023
487.00	6.938
487.34	6.930
487.68	6.956
488.03	7.008
488.37	7.076
488.71	7.090
489.06	7.080
489.40	7.047
489.74	7.023
490.09	6.987
490.43	6.945
490.77	6.917
491.11	6.881
491.46	6.830
491.80	6.787
492.14	6.739
492.49	6.676
492.83	6.593
493.17	6.522
493.51	6.462
493.86	6.411
494.20	6.382
494.54	6.352
494.88	6.352
495.23	6.384
495.57	6.395
495.91	6.402
496.25	6.407
496.60	6.434
496.94	6.459
497.28	6.444
497.62	6.436
497.97	6.416
498.31	6.410
498.65	6.404
498.99	6.402
499.33	6.417
499.68	6.427
500.02	6.441
500.36	6.457
500.70	6.479
501.04	6.516
501.39	6.531
501.73	6.561
502.07	6.590
502.41	6.614
502.75	6.628
503.09	6.661
503.44	6.693
503.78	6.737
504.12	6.767
504.46	6.807
504.80	6.860
505.14	6.929
505.49	7.001
505.83	7.047
506.17	7.098
506.51	7.152
506.85	7.196
507.19	7.249
507.53	7.302
507.87	7.347
508.22	7.375
508.56	7.402
508.90	7.423
509.24	7.428
509.58	7.465
509.92	7.474
510.26	7.494
510.60	7.509
510.94	7.515
511.28	7.510
511.63	7.520
511.97	7.538
512.31	7.551
512.65	7.569
512.99	7.633
513.33	7.705
513.67	7.786
514.01	7.862
514.35	7.946
514.69	8.037
515.03	8.138
515.37	8.206
515.71	8.269
516.05	8.354
516.39	8.418
516.73	8.437
517.07	8.448
517.41	8.450
517.75	8.459
518.09	8.446
518.43	8.426
518.77	8.408
519.11	8.388
519.45	8.373
519.79	8.349
520.13	8.333
520.47	8.329
520.81	8.352
521.15	8.389
521.49	8.402
521.83	8.441
522.17	8.478
522.51	8.516
522.85	8.590
523.19	8.691
523.53	8.794
523.87	8.921
524.21	9.059
524.55	9.165
524.89	9.269
525.23	9.364
525.57	9.446
525.91	9.526
526.25	9.588
526.58	9.648
526.92	9.686
527.26	9.704
527.60	9.705
527.94	9.688
528.28	9.652
528.62	9.619
528.96	9.579
529.30	9.532
529.64	9.479
529.97	9.440
530.31	9.373
530.65	9.310
530.99	9.276
531.33	9.227
531.67	9.201
532.01	9.201
532.35	9.169
532.68	9.145
533.02	9.117
533.36	9.087
533.70	9.038
534.04	9.008
534.38	8.976
534.71	8.927
535.05	8.897
535.39	8.857
535.73	8.807
536.07	8.784
536.41	8.782
536.74	8.790
537.08	8.804
537.42	8.837
537.76	8.864
538.10	8.908
538.43	8.931
538.77	8.977
539.11	9.002
539.45	9.021
539.79	9.051
540.12	9.061
540.46	9.073
540.80	9.068
541.14	9.059
541.47	9.035
541.81	9.002
542.15	8.967
542.49	8.898
542.82	8.853
543.16	8.808
543.50	8.746
543.84	8.691
544.17	8.624
544.51	8.576
544.85	8.517
545.18	8.489
545.52	8.435
545.86	8.408
546.20	8.392
546.53	8.334
546.87	8.280
547.21	8.230
547.54	8.185
547.88	8.176
548.22	8.138
548.55	8.128
548.89	8.105
549.23	8.099
549.56	8.076
549.90	8.050
550.24	8.062
550.57	8.071
550.91	8.079
551.25	8.080
551.58	8.059
551.92	8.062
552.26	8.054
552.59	8.036
552.93	8.036
553.27	8.031
553.60	8.038
553.94	8.036
554.27	8.028
554.61	8.019
554.95	8.033
555.28	8.038
555.62	8.066
555.95	8.057
556.29	8.067
556.63	8.061
556.96	8.057
557.30	8.072
557.63	8.061
557.97	8.077
558.31	8.074
558.64	8.062
558.98	8.057
559.31	8.041
559.65	8.053
559.98	8.080
560.32	8.103
560.65	8.136
560.99	8.139
561.33	8.177
561.66	8.184
562.00	8.217
562.33	8.254
562.67	8.297
563.00	8.307
563.34	8.331
563.67	8.337
564.01	8.361
564.34	8.382
564.68	8.416
565.01	8.414
565.35	8.415
565.68	8.433
566.02	8.429
566.35	8.439
566.69	8.469
567.02	8.482
567.36	8.495
567.69	8.526
568.03	8.555
568.36	8.559
568.69	8.590
569.03	8.617
569.36	8.619
569.70	8.647
570.03	8.672
570.37	8.677
570.70	8.712
571.04	8.728
571.37	8.724
571.70	8.723
572.04	8.731
572.37	8.740
572.71	8.729
573.04	8.747
573.37	8.737
573.71	8.728
574.04	8.744
574.38	8.734
574.71	8.747
575.04	8.751
575.38	8.747
575.71	8.749
576.05	8.743
576.38	8.757
576.71	8.742
577.05	8.761
577.38	8.762
577.71	8.746
578.05	8.725
578.38	8.685
578.71	8.675
579.05	8.667
579.38	8.674
579.71	8.680
580.05	8.710
580.38	8.724
580.71	8.732
581.05	8.738
581.38	8.770
581.71	8.804
582.05	8.867
582.38	8.929
582.71	8.960
583.04	8.985
583.38	9.008
583.71	9.010
584.04	9.077
584.38	9.122
584.71	9.176
585.04	9.227
585.37	9.285
585.71	9.313
586.04	9.324
586.37	9.389
586.70	9.440
587.04	9.482
587.37	9.562
587.70	9.598
588.03	9.596
588.37	9.609
588.70	9.612
589.03	9.634
589.36	9.669
589.69	9.696
590.03	9.716
590.36	9.747
590.69	9.787
591.02	9.776
591.35	9.777
591.69	9.846
592.02	9.924
592.35	9.983
592.68	10.033
593.01	10.106
593.35	10.167
593.68	10.205
594.01	10.261
594.34	10.325
594.67	10.401
595.00	10.448
595.34	10.483
595.67	10.496
596.00	10.533
596.33	10.568
596.66	10.574
596.99	10.586
597.32	10.648
597.65	10.659
597.99	10.697
598.32	10.732
598.65	10.789
598.98	10.859
599.31	10.899
599.64	10.959
599.97	10.980
600.30	11.042
600.63	11.091
600.96	11.103
601.30	11.182
601.63	11.234
601.96	11.290
602.29	11.335
602.62	11.368
602.95	11.419
603.28	11.446
603.61	11.490
603.94	11.519
604.27	11.573
604.60	11.609
604.93	11.615
605.26	11.607
605.59	11.611
605.92	11.633
606.25	11.625
606.58	11.655
606.91	11.677
607.24	11.704
607.57	11.744
607.90	11.731
608.23	11.756
608.56	11.774
608.89	11.804
609.22	11.826
609.55	11.825
609.88	11.870
610.21	11.862
610.54	11.863
610.87	11.866
611.20	11.824
611.53	11.831
611.86	11.843
612.19	11.823
612.52	11.796
612.85	11.804
613.18	11.833
613.51	11.829
613.84	11.846
614.17	11.884
614.49	11.929
614.82	11.991
615.15	11.995
615.48	11.962
615.81	11.965
616.14	11.989
616.47	11.977
616.80	11.938
617.13	11.955
617.46	11.962
617.78	11.983
618.11	11.973
618.44	11.904
618.77	11.910
619.10	11.981
619.43	12.025
619.76	12.042
620.09	12.019
620.41	12.030
620.74	12.000
621.07	12.000
621.40	11.997
621.73	12.024
622.06	12.058
622.38	12.085
622.71	12.099
623.04	12.123
623.37	12.152
623.70	12.167
624.02	12.227
624.35	12.217
624.68	12.241
625.01	12.258
625.34	12.237
625.66	12.242
625.99	12.255
626.32	12.209
626.65	12.186
626.98	12.176
627.30	12.205
627.63	12.157
627.96	12.183
628.29	12.177
628.61	12.131
628.94	12.153
629.27	12.166
629.60	12.153
629.92	12.148
630.25	12.098
630.58	12.084
630.91	12.075
631.23	12.074
631.56	12.088
631.89	12.077
632.21	12.109
632.54	12.086
632.87	12.059
633.19	12.076
633.52	12.103
633.85	12.149
634.18	12.133
634.50	12.172
634.83	12.171
635.16	12.118
635.48	12.098
635.81	12.053
636.14	11.967
636.46	11.947
636.79	11.895
637.11	11.868
637.44	11.811
637.77	11.803
638.09	11.720
638.42	11.710
638.75	11.717
639.07	11.703
639.40	11.648
639.73	11.687
640.05	11.709
640.38	11.684
640.70	11.656
641.03	11.676
641.36	11.700
641.68	11.740
642.01	11.722
642.33	11.729
642.66	11.721
642.98	11.765
643.31	11.801
643.64	11.772
643.96	11.744
644.29	11.775
644.61	11.812
644.94	11.764
645.26	11.772
645.59	11.750
645.91	11.717
646.24	11.740
646.56	11.755
646.89	11.707
647.22	11.715
647.54	11.749
647.87	11.690
648.19	11.674
648.52	11.653
648.84	11.605
649.17	11.606
649.49	11.575
649.82	11.556
650.14	11.489
650.47	11.494
650.79	11.449
651.11	11.394
651.44	11.384
651.76	11.327
652.09	11.359
652.41	11.348
652.74	11.339
653.06	11.359
653.39	11.286
653.71	11.327
654.04	11.300
654.36	11.329
654.68	11.340
655.01	11.389
655.33	11.382
655.66	11.299
655.98	11.300
656.30	11.278
656.63	11.297
656.95	11.352
657.28	11.310
657.60	11.312
657.92	11.249
658.25	11.218
658.57	11.160
658.90	11.095
659.22	11.057
659.54	11.008
659.87	10.936
660.19	10.828
660.51	10.701
660.84	10.667
661.16	10.585
661.48	10.490
661.81	10.417
662.13	10.321
662.45	10.289
662.78	10.304
663.10	10.217
663.42	10.198
663.75	10.169
664.07	10.154
664.39	10.056
664.72	9.965
665.04	10.030
665.36	10.017
665.69	9.996
666.01	9.982
666.33	9.893
666.65	9.817
666.98	9.779
667.30	9.774
667.62	9.713
667.94	9.710
668.27	9.676
668.59	9.627
668.91	9.529
669.23	9.495
669.56	9.391
669.88	9.320
670.20	9.265
670.52	9.228
670.85	9.203
671.17	9.169
671.49	9.065
671.81	9.046
672.13	8.952
672.46	9.006
672.78	8.960
673.10	8.929
673.42	8.912
673.74	8.893
674.07	8.839
674.39	8.743
674.71	8.738
675.03	8.736
675.35	8.704
675.67	8.761
676.00	8.770
676.32	8.768
676.64	8.824
676.96	8.803
677.28	8.865
677.60	8.901
677.92	8.937
678.25	8.969
678.57	8.996
678.89	9.025
679.21	8.956
679.53	8.839
679.85	8.840
680.17	8.791
680.49	8.821
680.81	8.768
681.13	8.787
681.46	8.733
681.78	8.681
682.10	8.615
682.42	8.574
682.74	8.579
683.06	8.698
683.38	8.658
683.70	8.700
684.02	8.715
684.34	8.740
684.66	8.758
684.98	8.799
685.30	8.797
685.62	8.824
685.94	8.849
686.26	8.846
686.58	8.784
686.90	8.793
687.22	8.762
687.54	8.695
687.86	8.608
688.18	8.462
688.50	8.372
688.82	8.285
689.14	8.205
689.46	8.098
689.78	8.019
690.10	7.933
690.42	7.839
690.74	7.684
691.06	7.576
691.38	7.521
691.70	7.477
692.02	7.286
692.34	7.193
692.66	7.101
692.98	6.964
693.30	6.954
693.62	6.991
693.94	6.990
694.26	7.036
694.57	7.136
694.89	7.201
695.21	7.269
695.53	7.436
695.85	7.532
696.17	7.642
696.49	7.795
696.81	7.803
697.13	7.820
697.44	7.840
697.76	7.795
698.08	7.720
698.40	7.595
698.72	7.407
699.04	7.226
699.36	7.038
699.67	6.777
699.99	6.439
700.31	6.135
700.63	5.778
700.95	5.383
701.27	5.113
701.58	4.687
701.90	4.357
702.22	4.157
702.54	3.918
702.86	3.726
703.17	3.625
703.49	3.543
703.81	3.387
704.13	3.243
704.45	3.165
704.76	3.026
705.08	3.100
705.40	3.100
705.72	3.116
706.03	3.145
706.35	3.018
706.67	2.912
706.99	2.796
707.30	2.858
707.62	2.797
707.94	2.742
708.26	2.749
708.57	2.758
708.89	2.799
709.21	2.779
709.53	2.711
709.84	2.698
710.16	2.735
710.48	2.860
710.79	2.671
711.11	2.830
711.43	2.914
711.74	3.033
712.06	3.121
712.38	3.185
712.69	3.250
713.01	3.460
713.33	3.627
713.64	3.831
713.96	3.862
714.28	4.314
714.59	4.407
714.91	4.661
715.23	4.863
715.54	5.011
715.86	5.210
716.17	5.269
716.49	5.315
716.81	5.319
717.12	5.263
717.44	5.272
717.76	5.024
718.07	4.910
718.39	4.508
718.70	4.086
719.02	3.629
719.33	3.199
719.65	2.935
719.97	2.463
720.28	2.332
720.60	2.148
720.91	2.094
721.23	2.007
721.54	1.860
721.86	2.028
722.17	2.158
722.49	2.442
722.81	2.603
723.12	2.718
723.44	2.971
723.75	3.135
724.07	3.116
724.38	3.030
724.70	2.885
725.01	2.970
725.33	2.927
725.64	3.058
725.96	3.090
726.27	3.013
726.59	2.970
726.90	3.053
727.22	2.936
727.53	2.917
727.84	2.881
728.16	2.927
728.47	2.907
728.79	2.833
729.10	2.506
729.42	2.210
729.73	1.916
730.05	1.653
730.36	1.199
730.67	0.878
730.99	0.486
731.30	0.297
731.62	-0.142
731.93	-0.596
732.24	-0.985
732.56	-1.402
732.87	-1.885
733.19	-2.170
733.50	-2.484
733.81	-2.758
734.13	-3.081
734.44	-3.478
734.76	-3.913
735.07	-4.187
735.38	-4.633
735.70	-5.161
736.01	-5.537
736.32	-5.590
736.64	-5.759
736.95	-6.018
737.26	-6.277
737.58	-6.744
737.89	-6.850
738.20	-7.298
738.52	-7.704
738.83	-8.028
739.14	-8.378
739.45	-8.847
739.77	-9.606
740.08	-10.364
740.39	-11.025
740.71	-11.850
741.02	-12.459
741.33	-13.195
741.64	-13.832
741.96	-14.240
742.27	-14.872
742.58	-15.388
742.90	-15.566
743.21	-15.930
743.52	-16.100
743.83	-16.342
744.14	-16.289
744.46	-16.512
744.77	-16.626
745.08	-16.715
745.39	-16.614
745.71	-16.264
746.02	-16.188
746.33	-16.188
746.64	-16.090
746.95	-16.174
747.27	-16.235
747.58	-16.119
747.89	-15.982
748.20	-16.093
748.51	-15.861
748.82	-16.088
749.14	-16.245
749.45	-16.379
749.76	-16.892
750.07	-17.182
750.38	-17.390
750.69	-17.519
751.01	-17.876
751.32	-17.797
751.63	-17.932
751.94	-17.916
752.25	-18.023
752.56	-18.238
752.87	-18.238
753.18	-17.772
753.49	-17.463
753.81	-17.420
754.12	-17.220
754.43	-16.851
754.74	-16.270
755.05	-15.190
755.36	-14.118
755.67	-12.985
755.98	-11.490
756.29	-10.054
756.60	-8.536
756.91	-7.006
757.22	-4.933
757.53	-3.005
757.84	-1.208
758.15	0.347
758.46	1.772
758.77	2.803
759.09	3.953
759.40	4.892
759.71	5.538
760.02	6.031
760.33	6.441
760.64	6.396
760.95	6.404
761.26	6.398
761.57	6.202
761.88	5.895
762.18	5.522
762.49	5.158
762.80	4.598
763.11	3.898
763.42	3.071
763.73	1.985
764.04	0.871
764.35	-0.372
764.66	-1.907
764.97	-3.550
765.28	-5.457
765.59	-7.432
765.90	-9.754
766.21	-12.277
766.52	-14.264
766.83	-16.146
767.14	-18.009
767.44	-19.351
767.75	-21.343
768.06	-22.714
768.37	-23.939
768.68	-25.220
768.99	-26.169
769.30	-27.077
769.61	-27.898
769.91	-28.611
770.22	-29.635
770.53	-29.687
770.84	-30.875
771.15	-31.046
771.46	-31.759
771.77	-32.444
772.07	-32.126
772.38	-32.887
772.69	-33.530
773.00	-33.780
773.31	-34.368
773.61	-35.176
773.92	-35.892
774.23	-35.380
774.54	-35.820
774.85	-35.462
775.15	-35.297
775.46	-35.871
775.77	-35.168
776.08	-34.593
776.39	-34.579
776.69	-34.464
777.00	-33.612
777.31	-33.476
777.62	-33.409
777.92	-33.030
778.23	-34.235
778.54	-33.833
778.85	-33.964
779.15	-33.930
779.46	-34.514
779.77	-34.709
780.07	-34.598
780.38	-35.344
780.69	-35.485
781.00	-35.737
781.30	-36.184
781.61	-35.338
781.92	-36.353
782.22	-35.920
782.53	-36.355
782.84	-35.691
783.14	-34.487
783.45	-33.867
783.76	-32.041
784.06	-31.108
784.37	-29.920
784.68	-28.304
784.98	-27.423
785.29	-25.555
785.60	-24.146
785.90	-22.926
786.21	-22.227
786.51	-20.922
786.82	-19.622
787.13	-19.894
787.43	-19.555
787.74	-18.671
788.04	-18.743
788.35	-18.722
788.66	-19.189
788.96	-20.152
789.27	-20.088
789.57	-20.526
789.88	-22.019
790.19	-22.638
790.49	-22.672
790.80	-23.153
791.10	-24.380
791.41	-24.219
791.71	-23.828
792.02	-23.322
792.32	-22.655
792.63	-22.692
792.93	-21.987
793.24	-21.362
793.54	-21.211
793.85	-20.536
794.15	-19.309
794.46	-18.907
794.76	-18.724
795.07	-18.720
795.37	-18.935
795.68	-18.065
795.98	-18.274
796.29	-17.967
796.59	-17.572
796.90	-17.895
797.20	-17.871
797.51	-18.525
797.81	-18.206
798.12	-18.609
798.42	-18.383
798.72	-18.179
799.03	-18.957
799.33	-18.278
799.64	-18.729
799.94	-19.040
800.25	-18.682
800.55	-18.499
800.85	-18.375
801.16	-18.628
801.46	-18.407
801.77	-18.393
802.07	-18.689
802.37	-18.364
802.68	-19.429
802.98	-19.404
803.28	-19.333
803.59	-19.426
803.89	-19.913
804.20	-20.153
804.50	-20.591
804.80	-20.987
805.11	-20.969
805.41	-20.304
805.71	-20.516
806.02	-19.146
806.32	-18.875
806.62	-19.001
806.93	-19.246
807.23	-18.860
807.53	-18.431
807.83	-18.011
808.14	-17.452
808.44	-17.118
808.74	-16.904
809.05	-16.340
809.35	-16.161
809.65	-16.148
809.95	-15.490
810.26	-14.521
810.56	-13.929
810.86	-13.173
811.16	-12.364
811.47	-11.061
811.77	-10.849
812.07	-10.779
812.37	-10.391
812.68	-9.917
812.98	-9.061
813.28	-8.074
813.58	-7.596
813.88	-6.428
814.19	-5.581
814.49	-4.735
814.79	-4.576
815.09	-3.225
815.39	-2.645
815.70	-2.279
816.00	-1.877
816.30	-1.275
816.60	-1.418
816.90	-0.932
817.20	-0.563
817.50	0.448
817.81	1.979
818.11	3.524
818.41	4.698
818.71	5.830
819.01	6.769
819.31	7.494
819.61	8.105
819.92	8.634
820.22	8.982
820.52	9.297
820.82	9.582
821.12	9.790
821.42	9.938
821.72	9.967
822.02	9.995
822.32	9.986
822.62	9.975
822.92	9.881
823.22	9.839
823.52	9.778
823.83	9.690
824.13	9.572
824.43	9.390
824.73	9.086
825.03	8.865
825.33	8.667
825.63	8.540
825.93	8.329
826.23	8.142
826.53	7.891
826.83	7.879
827.13	7.689
827.43	7.311
827.73	6.921
828.03	6.812
828.33	6.511
828.63	6.088
828.93	5.184
829.23	4.445
829.53	4.049
829.83	3.324
830.13	2.561
830.42	2.248
830.72	2.413
831.02	2.404
831.32	2.530
831.62	2.788
831.92	3.112
832.22	3.538
832.52	3.402
832.82	3.440
833.12	3.935
833.42	4.097
833.72	3.879
834.01	3.072
834.31	3.093
834.61	2.179
834.91	1.468
835.21	0.552
835.51	-0.063
835.81	-0.835
836.11	-1.869
836.40	-3.563
836.70	-5.380
837.00	-6.156
837.30	-6.438
837.60	-8.284
837.90	-8.554
838.19	-9.031
838.49	-9.526
838.79	-10.076
839.09	-9.900
839.39	-11.129
839.68	-11.822
839.98	-12.089
840.28	-14.179
840.58	-16.675
840.88	-18.840
841.17	-20.297
841.47	-23.406
841.77	-26.745
842.07	-31.582
842.36	-35.345
842.66	-37.796
842.96	-42.184
843.26	-46.271
843.55	-47.443
843.85	-48.315
844.15	-51.109
844.45	-50.975
844.74	-50.780
845.04	-51.556
845.34	-50.358
845.63	-50.064
845.93	-54.127
846.23	-55.643
846.53	-58.340
846.82	-63.109
847.12	-65.036
847.42	-59.763
847.71	-63.216
848.01	-62.792
848.31	-58.155
848.60	-55.379
848.90	-58.434
849.19	-51.646
849.49	-53.295
849.79	-54.629
850.08	-57.080
850.38	-55.928
850.68	-58.136
850.97	-57.235
851.27	-55.721
851.56	-59.828
851.86	-59.900
852.16	-55.023
852.45	-60.743
852.75	-55.023
853.04	-54.828
853.34	-51.778
853.64	-48.235
853.93	-44.002
854.23	-45.769
854.52	-45.763
854.82	-39.899
855.11	-42.616
855.41	-46.360
855.70	-40.982
856.00	-44.524
856.30	-45.382
856.59	-42.449
856.89	-47.979
857.18	-51.640
857.48	-50.450
857.77	-54.305
858.07	-59.447
858.36	-58.799
858.66	-61.119
858.95	-69.033
859.25	-66.568
859.54	-66.748
859.84	-67.636
860.13	-63.281
860.42	-63.227
860.72	-62.728
861.01	-61.697
861.31	-61.355
861.60	-57.806
861.90	-54.305
862.19	-52.260
862.49	-53.139
862.78	-47.067
863.07	-44.375
863.37	-40.793
863.66	-41.153
863.96	-39.883
864.25	-36.415
864.54	-36.494
864.84	-39.415
865.13	-40.771
865.43	-35.002
865.72	-32.274
866.01	-60.539
866.31	-67.807
866.60	-75.488
866.89	-3.887
>>>>>End Spectral Data<<<<<
