OOIBase32 Version 2.0.0.6 Data File
++++++++++++++++++++++++++++++++++++
Date: 01-20-2012, 22:46:36
User: Valued Ocean Optics Customer
Spectrometer Serial Number: USB2E2917
Spectrometer Channel: Master
Integration Time (msec): 3
Spectra Averaged: 10
Boxcar Smoothing: 5
Correct for Electrical Dark: Enabled
Time Normalized: Disabled
Dual-beam Reference: Disabled
Reference Channel: Master
Temperature: Not acquired
Spectrometer Type: S2000
ADC Type: USB2000
Number of Pixels in File: 2048
Graph Title: 
>>>>>Begin Spectral Data<<<<<
180.30	0.000
180.67	0.000
181.03	172.413
181.40	143.074
181.77	216.270
182.14	248.275
182.51	873.808
182.88	66.815
183.25	8.162
183.62	360.434
183.99	36.234
184.36	42.309
184.73	203.298
185.10	46.280
185.46	133.175
185.83	230.083
186.20	52.877
186.57	-71.177
186.94	-3591.181
187.31	14.055
187.68	3.393
188.05	37.931
188.42	-16.366
188.78	-121.548
189.15	-60.551
189.52	-29.476
189.89	1.717
190.26	17.523
190.63	7.867
191.00	1.168
191.37	2.157
191.73	-15.750
192.10	-68.583
192.47	-264.511
192.84	-88.666
193.21	-14471.898
193.58	516.922
193.94	282.239
194.31	252.709
194.68	305.586
195.05	613.088
195.42	1031.240
195.79	466.093
196.15	221.063
196.52	191.152
196.89	221.287
197.26	1762.689
197.63	-128.900
198.00	-79.129
198.36	-242.622
198.73	-208.809
199.10	-142.478
199.47	-238.505
199.84	-178.017
200.20	-74.399
200.57	-57.393
200.94	-35.185
201.31	-25.032
201.68	-4.105
202.04	6.049
202.41	3.662
202.78	8.511
203.15	21.825
203.51	4.531
203.88	-41.751
204.25	-47.751
204.62	-135.441
204.98	-109.705
205.35	-57.656
205.72	-61.069
206.09	-196.390
206.46	-72.071
206.82	-45.676
207.19	-33.599
207.56	-24.637
207.92	-5.151
208.29	6.009
208.66	19.460
209.03	22.999
209.39	2.735
209.76	-0.935
210.13	-1.820
210.50	-12.692
210.86	1.913
211.23	-13.781
211.60	-8.964
211.96	-31.421
212.33	-35.920
212.70	-50.565
213.07	-95.981
213.43	-44.918
213.80	-38.887
214.17	-19.353
214.53	-17.417
214.90	-18.028
215.27	0.597
215.63	-3.516
216.00	16.087
216.37	22.821
216.74	26.787
217.10	30.940
217.47	17.755
217.84	24.109
218.20	14.971
218.57	17.174
218.94	24.620
219.30	31.724
219.67	39.860
220.04	37.876
220.40	35.454
220.77	37.350
221.13	42.463
221.50	47.736
221.87	37.616
222.23	36.428
222.60	35.724
222.97	28.347
223.33	13.763
223.70	8.265
224.07	4.859
224.43	3.353
224.80	2.984
225.16	2.727
225.53	-0.425
225.90	-0.772
226.26	-1.654
226.63	0.677
226.99	0.752
227.36	1.644
227.73	2.469
228.09	4.666
228.46	4.783
228.82	5.474
229.19	3.893
229.56	4.208
229.92	4.911
230.29	5.107
230.65	3.377
231.02	1.409
231.38	1.510
231.75	0.793
232.12	-1.198
232.48	-0.600
232.85	-1.383
233.21	-0.092
233.58	-0.030
233.94	1.127
234.31	2.924
234.68	3.669
235.04	5.121
235.41	6.315
235.77	6.472
236.14	6.052
236.50	5.515
236.87	5.349
237.23	5.916
237.60	6.270
237.96	4.893
238.33	3.859
238.69	3.822
239.06	3.130
239.42	3.185
239.79	3.499
240.15	3.064
240.52	2.980
240.88	3.390
241.25	3.159
241.61	3.448
241.98	3.875
242.34	3.917
242.71	3.913
243.07	4.031
243.44	3.636
243.80	3.322
244.17	3.711
244.53	3.678
244.90	3.400
245.26	3.246
245.63	2.915
245.99	2.911
246.36	2.965
246.72	2.886
247.09	2.918
247.45	3.049
247.81	3.552
248.18	3.637
248.54	3.799
248.91	4.207
249.27	4.314
249.64	4.336
250.00	4.140
250.36	3.934
250.73	3.999
251.09	4.149
251.46	4.396
251.82	4.122
252.19	3.843
252.55	3.616
252.91	3.197
253.28	3.492
253.64	3.939
254.01	4.297
254.37	4.639
254.73	4.451
255.10	4.086
255.46	4.019
255.83	3.868
256.19	3.795
256.55	3.885
256.92	3.696
257.28	3.590
257.65	3.521
258.01	3.540
258.37	3.527
258.74	3.410
259.10	3.405
259.46	3.423
259.83	3.410
260.19	3.459
260.55	3.354
260.92	3.221
261.28	3.284
261.64	3.111
262.01	2.969
262.37	2.951
262.73	3.196
263.10	3.006
263.46	2.846
263.82	2.887
264.19	2.883
264.55	2.869
264.91	3.261
265.28	3.331
265.64	3.664
266.00	3.754
266.37	3.550
266.73	3.534
267.09	4.062
267.46	4.220
267.82	3.990
268.18	4.117
268.54	4.094
268.91	3.915
269.27	3.629
269.63	3.509
270.00	3.187
270.36	3.165
270.72	3.266
271.08	2.795
271.45	2.585
271.81	2.327
272.17	1.994
272.53	2.019
272.90	2.065
273.26	2.051
273.62	1.973
273.98	2.114
274.35	2.310
274.71	2.076
275.07	2.418
275.43	2.504
275.80	2.759
276.16	2.998
276.52	3.256
276.88	3.069
277.25	2.877
277.61	3.250
277.97	3.710
278.33	3.678
278.69	3.506
279.06	3.465
279.42	3.521
279.78	3.424
280.14	3.316
280.50	3.178
280.87	3.271
281.23	3.604
281.59	3.489
281.95	3.189
282.31	3.044
282.68	3.100
283.04	3.271
283.40	3.130
283.76	3.296
284.12	3.501
284.48	3.589
284.85	3.594
285.21	3.327
285.57	3.159
285.93	3.114
286.29	3.143
286.65	3.323
287.02	3.170
287.38	3.320
287.74	3.269
288.10	3.142
288.46	3.029
288.82	3.062
289.18	3.196
289.54	3.270
289.91	3.280
290.27	3.455
290.63	3.338
290.99	3.386
291.35	3.293
291.71	3.291
292.07	3.380
292.43	3.344
292.79	3.410
293.16	3.394
293.52	3.579
293.88	3.670
294.24	3.642
294.60	3.613
294.96	3.502
295.32	3.574
295.68	3.569
296.04	3.372
296.40	3.352
296.76	3.354
297.12	3.307
297.49	3.060
297.85	2.969
298.21	2.842
298.57	3.017
298.93	3.182
299.29	3.081
299.65	3.120
300.01	3.285
300.37	3.283
300.73	3.232
301.09	3.286
301.45	3.328
301.81	3.640
302.17	3.715
302.53	3.561
302.89	3.618
303.25	3.767
303.61	3.734
303.97	3.766
304.33	3.846
304.69	3.872
305.05	4.065
305.41	4.115
305.77	3.896
306.13	4.046
306.49	4.092
306.85	3.886
307.21	3.871
307.57	3.906
307.93	3.872
308.29	3.894
308.65	3.918
309.01	3.781
309.37	3.759
309.73	3.770
310.09	3.667
310.45	3.694
310.81	3.775
311.17	3.761
311.53	3.771
311.89	3.796
312.25	3.809
312.61	3.731
312.96	3.792
313.32	3.859
313.68	3.881
314.04	4.012
314.40	3.911
314.76	3.864
315.12	3.791
315.48	3.850
315.84	3.730
316.20	3.662
316.56	3.848
316.92	3.834
317.27	3.798
317.63	3.737
317.99	3.597
318.35	3.720
318.71	3.810
319.07	3.955
319.43	3.994
319.79	4.189
320.15	4.174
320.50	4.066
320.86	4.134
321.22	4.264
321.58	4.372
321.94	4.494
322.30	4.555
322.66	4.550
323.01	4.514
323.37	4.484
323.73	4.398
324.09	4.525
324.45	4.579
324.81	4.746
325.17	4.808
325.52	4.907
325.88	4.920
326.24	4.939
326.60	5.104
326.96	5.165
327.31	5.246
327.67	5.348
328.03	5.405
328.39	5.457
328.75	5.367
329.11	5.342
329.46	5.288
329.82	5.397
330.18	5.376
330.54	5.416
330.90	5.560
331.25	5.693
331.61	5.810
331.97	5.900
332.33	6.107
332.68	6.166
333.04	6.286
333.40	6.491
333.76	6.466
334.11	6.540
334.47	6.482
334.83	6.504
335.19	6.528
335.54	6.468
335.90	6.501
336.26	6.491
336.62	6.655
336.97	6.672
337.33	6.618
337.69	6.712
338.05	6.750
338.40	6.804
338.76	6.803
339.12	6.755
339.48	6.828
339.83	6.847
340.19	6.722
340.55	6.618
340.90	6.668
341.26	6.746
341.62	6.627
341.97	6.664
342.33	6.665
342.69	6.575
343.04	6.644
343.40	6.714
343.76	6.711
344.12	6.792
344.47	6.846
344.83	6.852
345.19	6.802
345.54	6.960
345.90	7.021
346.26	7.055
346.61	7.141
346.97	7.095
347.32	7.052
347.68	7.029
348.04	7.048
348.39	6.985
348.75	6.888
349.11	6.882
349.46	6.829
349.82	6.719
350.18	6.677
350.53	6.653
350.89	6.768
351.24	6.782
351.60	6.856
351.96	6.843
352.31	6.920
352.67	6.988
353.02	7.008
353.38	6.990
353.74	7.070
354.09	7.179
354.45	7.174
354.80	7.155
355.16	7.142
355.52	7.131
355.87	7.175
356.23	7.131
356.58	7.159
356.94	7.148
357.29	7.174
357.65	7.152
358.00	7.150
358.36	7.175
358.72	7.139
359.07	7.163
359.43	7.097
359.78	7.089
360.14	7.107
360.49	7.085
360.85	7.048
361.20	7.063
361.56	7.099
361.91	7.068
362.27	7.069
362.62	7.081
362.98	7.100
363.33	7.166
363.69	7.190
364.04	7.200
364.40	7.191
364.75	7.288
365.11	7.354
365.46	7.380
365.82	7.423
366.17	7.424
366.53	7.416
366.88	7.384
367.24	7.416
367.59	7.392
367.95	7.399
368.30	7.455
368.66	7.420
369.01	7.358
369.37	7.361
369.72	7.341
370.08	7.415
370.43	7.417
370.78	7.498
371.14	7.462
371.49	7.500
371.85	7.590
372.20	7.614
372.56	7.658
372.91	7.658
373.26	7.699
373.62	7.761
373.97	7.775
374.33	7.822
374.68	7.774
375.03	7.804
375.39	7.822
375.74	7.780
376.10	7.750
376.45	7.726
376.80	7.755
377.16	7.774
377.51	7.768
377.87	7.754
378.22	7.767
378.57	7.770
378.93	7.778
379.28	7.767
379.63	7.820
379.99	7.860
380.34	7.912
380.70	7.950
381.05	7.926
381.40	7.910
381.76	7.925
382.11	7.939
382.46	8.027
382.82	8.050
383.17	8.122
383.52	8.071
383.88	8.075
384.23	8.060
384.58	8.072
384.94	8.107
385.29	8.119
385.64	8.125
385.99	8.143
386.35	8.135
386.70	8.125
387.05	8.092
387.41	8.148
387.76	8.139
388.11	8.193
388.47	8.193
388.82	8.183
389.17	8.199
389.52	8.220
389.88	8.253
390.23	8.249
390.58	8.278
390.93	8.322
391.29	8.302
391.64	8.339
391.99	8.324
392.34	8.355
392.70	8.365
393.05	8.372
393.40	8.387
393.75	8.340
394.11	8.366
394.46	8.338
394.81	8.293
395.16	8.276
395.52	8.273
395.87	8.267
396.22	8.202
396.57	8.200
396.92	8.210
397.28	8.128
397.63	8.102
397.98	8.038
398.33	8.022
398.68	8.030
399.04	8.058
399.39	8.001
399.74	7.974
400.09	7.984
400.44	7.951
400.80	7.941
401.15	7.964
401.50	8.000
401.85	8.008
402.20	8.015
402.55	8.019
402.90	7.993
403.26	7.988
403.61	7.974
403.96	7.964
404.31	7.967
404.66	7.908
405.01	7.942
405.36	7.909
405.72	7.924
406.07	7.900
406.42	7.853
406.77	7.854
407.12	7.929
407.47	7.941
407.82	7.999
408.17	7.997
408.53	8.039
408.88	7.999
409.23	7.978
409.58	7.955
409.93	7.968
410.28	7.989
410.63	7.955
410.98	7.880
411.33	7.882
411.68	7.841
412.03	7.830
412.38	7.828
412.73	7.803
413.09	7.772
413.44	7.748
413.79	7.738
414.14	7.740
414.49	7.727
414.84	7.745
415.19	7.709
415.54	7.660
415.89	7.616
416.24	7.599
416.59	7.596
416.94	7.591
417.29	7.577
417.64	7.548
417.99	7.510
418.34	7.484
418.69	7.446
419.04	7.426
419.39	7.410
419.74	7.399
420.09	7.345
420.44	7.314
420.79	7.284
421.14	7.272
421.49	7.255
421.84	7.249
422.19	7.233
422.54	7.223
422.89	7.189
423.24	7.169
423.59	7.148
423.94	7.154
424.29	7.132
424.64	7.133
424.99	7.084
425.34	7.085
425.68	7.062
426.03	7.049
426.38	7.034
426.73	7.032
427.08	7.035
427.43	7.040
427.78	7.040
428.13	7.051
428.48	7.032
428.83	7.063
429.18	7.033
429.53	7.025
429.87	7.051
430.22	7.047
430.57	7.055
430.92	7.079
431.27	7.076
431.62	7.060
431.97	7.079
432.32	7.101
432.67	7.090
433.01	7.085
433.36	7.092
433.71	7.057
434.06	7.055
434.41	7.060
434.76	7.036
435.11	7.032
435.45	7.052
435.80	7.035
436.15	7.049
436.50	7.036
436.85	7.045
437.20	7.033
437.54	7.047
437.89	7.060
438.24	7.047
438.59	7.040
438.94	7.035
439.29	7.008
439.63	6.980
439.98	6.935
440.33	6.948
440.68	6.924
441.03	6.887
441.37	6.870
441.72	6.834
442.07	6.805
442.42	6.787
442.76	6.751
443.11	6.734
443.46	6.732
443.81	6.718
444.16	6.686
444.50	6.686
444.85	6.668
445.20	6.641
445.55	6.615
445.89	6.599
446.24	6.561
446.59	6.526
446.94	6.498
447.28	6.456
447.63	6.417
447.98	6.364
448.32	6.300
448.67	6.279
449.02	6.231
449.37	6.187
449.71	6.162
450.06	6.172
450.41	6.163
450.75	6.181
451.10	6.172
451.45	6.170
451.79	6.194
452.14	6.226
452.49	6.217
452.84	6.223
453.18	6.216
453.53	6.229
453.88	6.198
454.22	6.218
454.57	6.193
454.92	6.200
455.26	6.216
455.61	6.219
455.95	6.214
456.30	6.258
456.65	6.291
456.99	6.329
457.34	6.331
457.69	6.355
458.03	6.365
458.38	6.375
458.73	6.404
459.07	6.415
459.42	6.413
459.76	6.447
460.11	6.436
460.46	6.430
460.80	6.458
461.15	6.495
461.49	6.524
461.84	6.581
462.19	6.619
462.53	6.638
462.88	6.677
463.22	6.725
463.57	6.745
463.91	6.805
464.26	6.859
464.61	6.862
464.95	6.902
465.30	6.935
465.64	6.941
465.99	6.988
466.33	7.015
466.68	7.048
467.02	7.088
467.37	7.126
467.71	7.138
468.06	7.168
468.41	7.196
468.75	7.209
469.10	7.225
469.44	7.251
469.79	7.239
470.13	7.261
470.48	7.258
470.82	7.257
471.17	7.240
471.51	7.234
471.86	7.211
472.20	7.211
472.55	7.186
472.89	7.177
473.23	7.153
473.58	7.149
473.92	7.109
474.27	7.091
474.61	7.079
474.96	7.052
475.30	7.027
475.65	7.011
475.99	6.992
476.34	6.984
476.68	6.981
477.02	6.975
477.37	6.967
477.71	6.994
478.06	6.997
478.40	7.013
478.75	7.035
479.09	7.073
479.43	7.121
479.78	7.177
480.12	7.233
480.47	7.307
480.81	7.367
481.15	7.420
481.50	7.464
481.84	7.549
482.19	7.624
482.53	7.689
482.87	7.709
483.22	7.674
483.56	7.648
483.90	7.637
484.25	7.610
484.59	7.597
484.94	7.587
485.28	7.565
485.62	7.508
485.97	7.450
486.31	7.415
486.65	7.426
487.00	7.498
487.34	7.554
487.68	7.601
488.03	7.631
488.37	7.657
488.71	7.685
489.06	7.720
489.40	7.762
489.74	7.805
490.09	7.836
490.43	7.859
490.77	7.900
491.11	7.944
491.46	7.976
491.80	8.036
492.14	8.088
492.49	8.150
492.83	8.216
493.17	8.293
493.51	8.376
493.86	8.484
494.20	8.612
494.54	8.743
494.88	8.879
495.23	9.018
495.57	9.130
495.91	9.267
496.25	9.405
496.60	9.559
496.94	9.678
497.28	9.816
497.62	9.963
497.97	10.120
498.31	10.272
498.65	10.426
498.99	10.585
499.33	10.777
499.68	10.990
500.02	11.167
500.36	11.364
500.70	11.565
501.04	11.777
501.39	11.987
501.73	12.196
502.07	12.417
502.41	12.596
502.75	12.822
503.09	13.044
503.44	13.247
503.78	13.512
504.12	13.750
504.46	14.009
504.80	14.246
505.14	14.484
505.49	14.732
505.83	14.970
506.17	15.234
506.51	15.438
506.85	15.659
507.19	15.898
507.53	16.124
507.87	16.350
508.22	16.562
508.56	16.813
508.90	17.056
509.24	17.262
509.58	17.488
509.92	17.720
510.26	17.976
510.60	18.228
510.94	18.428
511.28	18.660
511.63	18.898
511.97	19.135
512.31	19.358
512.65	19.587
512.99	19.845
513.33	20.119
513.67	20.385
514.01	20.658
514.35	20.891
514.69	21.146
515.03	21.374
515.37	21.570
515.71	21.800
516.05	21.990
516.39	22.152
516.73	22.338
517.07	22.473
517.41	22.634
517.75	22.755
518.09	22.912
518.43	23.075
518.77	23.220
519.11	23.375
519.45	23.512
519.79	23.675
520.13	23.851
520.47	24.027
520.81	24.234
521.15	24.430
521.49	24.646
521.83	24.815
522.17	24.951
522.51	25.115
522.85	25.288
523.19	25.535
523.53	25.799
523.87	26.084
524.21	26.337
524.55	26.594
524.89	26.828
525.23	27.054
525.57	27.260
525.91	27.458
526.25	27.639
526.58	27.833
526.92	27.953
527.26	28.067
527.60	28.160
527.94	28.229
528.28	28.274
528.62	28.315
528.96	28.338
529.30	28.378
529.64	28.398
529.97	28.408
530.31	28.405
530.65	28.436
530.99	28.451
531.33	28.498
531.67	28.548
532.01	28.622
532.35	28.670
532.68	28.734
533.02	28.781
533.36	28.851
533.70	28.912
534.04	28.950
534.38	28.994
534.71	29.077
535.05	29.111
535.39	29.175
535.73	29.219
536.07	29.302
536.41	29.384
536.74	29.477
537.08	29.613
537.42	29.729
537.76	29.854
538.10	29.984
538.43	30.090
538.77	30.213
539.11	30.315
539.45	30.424
539.79	30.498
540.12	30.576
540.46	30.652
540.80	30.679
541.14	30.718
541.47	30.745
541.81	30.767
542.15	30.775
542.49	30.790
542.82	30.816
543.16	30.806
543.50	30.826
543.84	30.847
544.17	30.850
544.51	30.872
544.85	30.882
545.18	30.933
545.52	30.959
545.86	31.005
546.20	31.020
546.53	31.060
546.87	31.133
547.21	31.174
547.54	31.242
547.88	31.323
548.22	31.380
548.55	31.437
548.89	31.498
549.23	31.593
549.56	31.676
549.90	31.753
550.24	31.816
550.57	31.848
550.91	31.914
551.25	31.919
551.58	31.948
551.92	31.985
552.26	32.053
552.59	32.111
552.93	32.141
553.27	32.157
553.60	32.240
553.94	32.302
554.27	32.349
554.61	32.427
554.95	32.500
555.28	32.592
555.62	32.666
555.95	32.722
556.29	32.782
556.63	32.827
556.96	32.889
557.30	32.935
557.63	32.929
557.97	32.982
558.31	32.985
558.64	33.020
558.98	33.006
559.31	33.088
559.65	33.138
559.98	33.158
560.32	33.195
560.65	33.220
560.99	33.229
561.33	33.320
561.66	33.385
562.00	33.449
562.33	33.516
562.67	33.577
563.00	33.581
563.34	33.645
563.67	33.690
564.01	33.743
564.34	33.801
564.68	33.850
565.01	33.854
565.35	33.895
565.68	33.963
566.02	34.011
566.35	34.035
566.69	34.071
567.02	34.059
567.36	34.110
567.69	34.145
568.03	34.147
568.36	34.143
568.69	34.186
569.03	34.189
569.36	34.184
569.70	34.203
570.03	34.247
570.37	34.266
570.70	34.316
571.04	34.301
571.37	34.308
571.70	34.348
572.04	34.403
572.37	34.450
572.71	34.515
573.04	34.534
573.37	34.561
573.71	34.602
574.04	34.627
574.38	34.667
574.71	34.707
575.04	34.748
575.38	34.777
575.71	34.798
576.05	34.840
576.38	34.824
576.71	34.847
577.05	34.843
577.38	34.827
577.71	34.860
578.05	34.860
578.38	34.906
578.71	34.927
579.05	35.003
579.38	35.050
579.71	35.004
580.05	34.997
580.38	35.024
580.71	35.064
581.05	35.089
581.38	35.119
581.71	35.128
582.05	35.194
582.38	35.246
582.71	35.191
583.04	35.204
583.38	35.220
583.71	35.257
584.04	35.295
584.38	35.328
584.71	35.339
585.04	35.353
585.37	35.371
585.71	35.371
586.04	35.388
586.37	35.433
586.70	35.462
587.04	35.562
587.37	35.627
587.70	35.661
588.03	35.653
588.37	35.700
588.70	35.736
589.03	35.740
589.36	35.692
589.69	35.678
590.03	35.708
590.36	35.672
590.69	35.630
591.02	35.654
591.35	35.646
591.69	35.697
592.02	35.659
592.35	35.634
592.68	35.650
593.01	35.669
593.35	35.728
593.68	35.725
594.01	35.726
594.34	35.741
594.67	35.710
595.00	35.697
595.34	35.670
595.67	35.710
596.00	35.738
596.33	35.769
596.66	35.791
596.99	35.806
597.32	35.846
597.65	35.886
597.99	35.865
598.32	35.851
598.65	35.820
598.98	35.826
599.31	35.818
599.64	35.746
599.97	35.752
600.30	35.720
600.63	35.618
600.96	35.557
601.30	35.571
601.63	35.550
601.96	35.556
602.29	35.588
602.62	35.565
602.95	35.544
603.28	35.611
603.61	35.629
603.94	35.627
604.27	35.641
604.60	35.675
604.93	35.646
605.26	35.656
605.59	35.636
605.92	35.614
606.25	35.584
606.58	35.590
606.91	35.529
607.24	35.469
607.57	35.483
607.90	35.455
608.23	35.475
608.56	35.485
608.89	35.507
609.22	35.516
609.55	35.532
609.88	35.567
610.21	35.571
610.54	35.599
610.87	35.587
611.20	35.604
611.53	35.661
611.86	35.617
612.19	35.600
612.52	35.627
612.85	35.617
613.18	35.609
613.51	35.647
613.84	35.609
614.17	35.587
614.49	35.584
614.82	35.505
615.15	35.476
615.48	35.432
615.81	35.383
616.14	35.312
616.47	35.254
616.80	35.212
617.13	35.143
617.46	35.182
617.78	35.187
618.11	35.119
618.44	35.142
618.77	35.077
619.10	35.092
619.43	35.087
619.76	35.070
620.09	35.083
620.41	35.054
620.74	35.055
621.07	35.015
621.40	34.995
621.73	35.037
622.06	35.059
622.38	35.039
622.71	34.989
623.04	34.941
623.37	34.959
623.70	34.909
624.02	34.848
624.35	34.812
624.68	34.766
625.01	34.707
625.34	34.710
625.66	34.658
625.99	34.656
626.32	34.658
626.65	34.641
626.98	34.564
627.30	34.595
627.63	34.616
627.96	34.625
628.29	34.657
628.61	34.622
628.94	34.516
629.27	34.441
629.60	34.446
629.92	34.385
630.25	34.370
630.58	34.333
630.91	34.230
631.23	34.189
631.56	34.109
631.89	34.045
632.21	34.018
632.54	33.975
632.87	33.965
633.19	33.912
633.52	33.848
633.85	33.782
634.18	33.775
634.50	33.751
634.83	33.720
635.16	33.690
635.48	33.599
635.81	33.619
636.14	33.669
636.46	33.629
636.79	33.586
637.11	33.560
637.44	33.553
637.77	33.461
638.09	33.473
638.42	33.441
638.75	33.414
639.07	33.411
639.40	33.370
639.73	33.326
640.05	33.294
640.38	33.249
640.70	33.214
641.03	33.118
641.36	33.087
641.68	33.036
642.01	33.005
642.33	32.976
642.66	32.928
642.98	32.860
643.31	32.761
643.64	32.752
643.96	32.816
644.29	32.816
644.61	32.811
644.94	32.782
645.26	32.708
645.59	32.617
645.91	32.549
646.24	32.557
646.56	32.491
646.89	32.447
647.22	32.338
647.54	32.204
647.87	32.109
648.19	32.042
648.52	32.030
648.84	31.961
649.17	31.935
649.49	31.892
649.82	31.835
650.14	31.815
650.47	31.791
650.79	31.767
651.11	31.664
651.44	31.695
651.76	31.741
652.09	31.637
652.41	31.625
652.74	31.610
653.06	31.543
653.39	31.429
653.71	31.350
654.04	31.236
654.36	31.198
654.68	31.202
655.01	31.137
655.33	31.090
655.66	31.075
655.98	31.048
656.30	31.010
656.63	30.990
656.95	30.976
657.28	30.961
657.60	31.026
657.92	30.958
658.25	30.955
658.57	30.863
658.90	30.779
659.22	30.726
659.54	30.627
659.87	30.567
660.19	30.457
660.51	30.383
660.84	30.367
661.16	30.255
661.48	30.246
661.81	30.096
662.13	30.009
662.45	30.028
662.78	29.996
663.10	29.937
663.42	29.838
663.75	29.886
664.07	29.907
664.39	29.804
664.72	29.775
665.04	29.749
665.36	29.715
665.69	29.729
666.01	29.612
666.33	29.594
666.65	29.678
666.98	29.710
667.30	29.616
667.62	29.564
667.94	29.557
668.27	29.464
668.59	29.358
668.91	29.358
669.23	29.372
669.56	29.334
669.88	29.264
670.20	29.176
670.52	29.099
670.85	29.072
671.17	29.007
671.49	28.921
671.81	28.947
672.13	29.023
672.46	29.026
672.78	28.943
673.10	28.887
673.42	28.845
673.74	28.780
674.07	28.766
674.39	28.750
674.71	28.747
675.03	28.718
675.35	28.672
675.67	28.572
676.00	28.504
676.32	28.468
676.64	28.450
676.96	28.488
677.28	28.513
677.60	28.510
677.92	28.475
678.25	28.427
678.57	28.352
678.89	28.314
679.21	28.233
679.53	28.232
679.85	28.273
680.17	28.235
680.49	28.140
680.81	28.076
681.13	28.026
681.46	27.978
681.78	27.919
682.10	27.918
682.42	27.914
682.74	27.938
683.06	27.878
683.38	27.745
683.70	27.715
684.02	27.684
684.34	27.696
684.66	27.660
684.98	27.661
685.30	27.691
685.62	27.714
685.94	27.721
686.26	27.739
686.58	27.696
686.90	27.707
687.22	27.710
687.54	27.632
687.86	27.470
688.18	27.496
688.50	27.438
688.82	27.317
689.14	27.258
689.46	27.213
689.78	27.189
690.10	27.228
690.42	27.223
690.74	27.150
691.06	27.228
691.38	27.288
691.70	27.171
692.02	27.152
692.34	27.226
692.66	27.257
692.98	27.126
693.30	26.991
693.62	26.891
693.94	26.820
694.26	26.860
694.57	26.781
694.89	26.777
695.21	26.762
695.53	26.756
695.85	26.603
696.17	26.597
696.49	26.644
696.81	26.638
697.13	26.609
697.44	26.612
697.76	26.602
698.08	26.659
698.40	26.622
698.72	26.620
699.04	26.516
699.36	26.589
699.67	26.472
699.99	26.406
700.31	26.333
700.63	26.317
700.95	26.180
701.27	26.048
701.58	25.850
701.90	25.845
702.22	25.735
702.54	25.780
702.86	25.755
703.17	25.756
703.49	25.749
703.81	25.826
704.13	25.738
704.45	25.807
704.76	25.818
705.08	25.828
705.40	25.753
705.72	25.738
706.03	25.750
706.35	25.634
706.67	25.554
706.99	25.525
707.30	25.470
707.62	25.551
707.94	25.471
708.26	25.410
708.57	25.386
708.89	25.272
709.21	25.275
709.53	25.230
709.84	25.195
710.16	25.249
710.48	25.184
710.79	25.140
711.11	24.987
711.43	24.980
711.74	24.912
712.06	24.917
712.38	24.991
712.69	25.076
713.01	25.060
713.33	25.222
713.64	25.265
713.96	25.404
714.28	25.403
714.59	25.670
714.91	25.757
715.23	25.916
715.54	25.943
715.86	26.010
716.17	26.002
716.49	26.143
716.81	26.030
717.12	25.932
717.44	25.870
717.76	25.931
718.07	25.706
718.39	25.706
718.70	25.549
719.02	25.497
719.33	25.461
719.65	25.268
719.97	25.036
720.28	25.042
720.60	24.963
720.91	24.804
721.23	24.776
721.54	24.692
721.86	24.574
722.17	24.691
722.49	24.736
722.81	24.859
723.12	24.909
723.44	25.044
723.75	25.056
724.07	25.214
724.38	25.195
724.70	25.181
725.01	25.144
725.33	25.110
725.64	25.063
725.96	24.896
726.27	24.698
726.59	24.609
726.90	24.516
727.22	24.395
727.53	24.360
727.84	24.383
728.16	24.355
728.47	24.444
728.79	24.332
729.10	24.242
729.42	24.435
729.73	24.349
730.05	24.327
730.36	24.212
730.67	24.193
730.99	23.954
731.30	23.878
731.62	23.774
731.93	23.792
732.24	23.882
732.56	23.999
732.87	23.735
733.19	23.734
733.50	23.853
733.81	23.780
734.13	23.903
734.44	24.041
734.76	24.112
735.07	24.120
735.38	23.923
735.70	23.922
736.01	23.718
736.32	23.759
736.64	23.812
736.95	23.693
737.26	23.817
737.58	23.671
737.89	23.674
738.20	23.593
738.52	23.578
738.83	23.609
739.14	23.446
739.45	23.518
739.77	23.457
740.08	23.302
740.39	23.290
740.71	23.194
741.02	23.042
741.33	22.731
741.64	22.589
741.96	22.533
742.27	22.524
742.58	22.620
742.90	22.588
743.21	22.730
743.52	22.804
743.83	22.736
744.14	22.687
744.46	22.604
744.77	22.749
745.08	22.525
745.39	22.569
745.71	22.464
746.02	22.294
746.33	22.148
746.64	22.107
746.95	22.002
747.27	22.052
747.58	22.018
747.89	21.966
748.20	21.876
748.51	22.106
748.82	22.078
749.14	22.120
749.45	22.057
749.76	22.023
750.07	21.909
750.38	21.994
750.69	21.946
751.01	22.086
751.32	22.045
751.63	22.136
751.94	22.119
752.25	21.964
752.56	21.864
752.87	21.930
753.18	21.703
753.49	21.538
753.81	21.462
754.12	21.704
754.43	21.658
754.74	21.870
755.05	21.982
755.36	22.021
755.67	22.200
755.98	22.236
756.29	22.337
756.60	22.706
756.91	22.836
757.22	22.973
757.53	22.620
757.84	22.635
758.15	22.686
758.46	22.718
758.77	22.825
759.09	22.784
759.40	22.829
759.71	22.937
760.02	22.988
760.33	22.971
760.64	23.047
760.95	23.254
761.26	23.325
761.57	23.292
761.88	23.277
762.18	23.064
762.49	23.076
762.80	23.151
763.11	23.013
763.42	23.004
763.73	22.931
764.04	22.734
764.35	22.632
764.66	22.350
764.97	22.189
765.28	22.016
765.59	22.021
765.90	21.822
766.21	21.639
766.52	21.462
766.83	21.016
767.14	20.871
767.44	20.736
767.75	20.490
768.06	20.500
768.37	20.446
768.68	20.303
768.99	20.015
769.30	20.028
769.61	19.896
769.91	19.888
770.22	19.947
770.53	20.072
770.84	20.059
771.15	19.945
771.46	19.890
771.77	19.982
772.07	20.102
772.38	20.569
772.69	20.305
773.00	20.321
773.31	20.536
773.61	20.663
773.92	20.582
774.23	20.451
774.54	20.320
774.85	20.306
775.15	20.345
775.46	20.090
775.77	19.703
776.08	19.736
776.39	19.297
776.69	19.049
777.00	19.050
777.31	19.056
777.62	19.321
777.92	19.445
778.23	19.269
778.54	19.219
778.85	19.099
779.15	19.268
779.46	19.204
779.77	19.551
780.07	19.697
780.38	19.541
780.69	19.758
781.00	19.625
781.30	19.748
781.61	20.217
781.92	20.411
782.22	20.592
782.53	20.683
782.84	21.045
783.14	20.922
783.45	20.806
783.76	20.685
784.06	20.511
784.37	20.563
784.68	20.807
784.98	20.504
785.29	20.157
785.60	20.103
785.90	20.110
786.21	19.994
786.51	20.334
786.82	20.269
787.13	20.435
787.43	20.733
787.74	20.824
788.04	20.620
788.35	20.681
788.66	20.893
788.96	21.021
789.27	20.784
789.57	20.672
789.88	20.629
790.19	20.556
790.49	20.519
790.80	20.507
791.10	20.278
791.41	20.034
791.71	19.725
792.02	19.228
792.32	18.985
792.63	19.261
792.93	19.261
793.24	19.268
793.54	19.480
793.85	19.262
794.15	19.115
794.46	19.437
794.76	19.544
795.07	20.130
795.37	20.575
795.68	20.255
795.98	20.024
796.29	20.099
796.59	19.856
796.90	19.772
797.20	20.156
797.51	20.050
797.81	19.550
798.12	19.750
798.42	19.131
798.72	18.703
799.03	19.542
799.33	19.869
799.64	19.848
799.94	19.900
800.25	20.031
800.55	19.850
800.85	19.748
801.16	20.032
801.46	19.901
801.77	19.726
802.07	20.284
802.37	19.826
802.68	19.630
802.98	19.504
803.28	19.769
803.59	19.898
803.89	20.097
804.20	20.149
804.50	20.036
804.80	19.496
805.11	19.849
805.41	19.291
805.71	19.250
806.02	19.038
806.32	19.174
806.62	18.957
806.93	18.757
807.23	18.731
807.53	18.604
807.83	18.954
808.14	19.991
808.44	20.183
808.74	20.750
809.05	20.724
809.35	20.681
809.65	20.711
809.95	20.404
810.26	20.392
810.56	20.504
810.86	20.668
811.16	20.591
811.47	20.016
811.77	20.127
812.07	20.099
812.37	20.294
812.68	20.582
812.98	20.833
813.28	21.015
813.58	21.016
813.88	20.458
814.19	20.844
814.49	20.641
814.79	21.092
815.09	20.675
815.39	20.316
815.70	20.630
816.00	20.863
816.30	20.868
816.60	21.250
816.90	21.170
817.20	21.416
817.50	21.132
817.81	20.954
818.11	20.665
818.41	20.725
818.71	20.885
819.01	20.937
819.31	20.922
819.61	20.838
819.92	20.804
820.22	20.876
820.52	20.918
820.82	21.008
821.12	21.132
821.42	21.271
821.72	21.373
822.02	21.336
822.32	21.344
822.62	21.380
822.92	21.474
823.22	21.497
823.52	21.525
823.83	21.480
824.13	21.467
824.43	21.430
824.73	21.384
825.03	21.298
825.33	21.397
825.63	21.369
825.93	21.315
826.23	21.256
826.53	21.323
826.83	21.256
827.13	21.404
827.43	21.458
827.73	21.537
828.03	21.498
828.33	21.658
828.63	21.734
828.93	21.645
829.23	21.656
829.53	21.694
829.83	21.563
830.13	21.545
830.42	21.208
830.72	20.781
831.02	20.610
831.32	20.415
831.62	20.146
831.92	20.124
832.22	20.477
832.52	20.514
832.82	20.656
833.12	20.784
833.42	21.062
833.72	21.067
834.01	21.417
834.31	21.233
834.61	21.621
834.91	21.671
835.21	21.507
835.51	21.363
835.81	21.240
836.11	20.890
836.40	20.390
836.70	19.798
837.00	19.919
837.30	19.694
837.60	19.753
837.90	19.389
838.19	19.535
838.49	19.730
838.79	19.880
839.09	20.128
839.39	20.363
839.68	20.746
839.98	20.713
840.28	21.177
840.58	21.616
840.88	21.931
841.17	21.233
841.47	21.306
841.77	21.152
842.07	20.108
842.36	19.975
842.66	19.676
842.96	19.156
843.26	19.680
843.55	18.572
843.85	16.960
844.15	17.273
844.45	17.508
844.74	16.861
845.04	16.682
845.34	17.612
845.63	17.712
845.93	16.842
846.23	17.129
846.53	15.882
846.82	15.841
847.12	15.721
847.42	14.781
847.71	14.432
848.01	13.841
848.31	12.845
848.60	11.916
848.90	12.768
849.19	14.193
849.49	14.584
849.79	15.637
850.08	14.367
850.38	14.146
850.68	15.280
850.97	15.378
851.27	16.935
851.56	18.487
851.86	18.291
852.16	17.057
852.45	16.751
852.75	17.453
853.04	17.810
853.34	19.337
853.64	19.859
853.93	19.607
854.23	21.115
854.52	19.419
854.82	18.488
855.11	17.782
855.41	18.331
855.70	18.429
856.00	17.247
856.30	16.492
856.59	15.862
856.89	14.521
857.18	12.560
857.48	10.434
857.77	11.663
858.07	12.762
858.36	15.094
858.66	14.199
858.95	13.756
859.25	12.984
859.54	12.903
859.84	14.505
860.13	16.319
860.42	17.325
860.72	17.605
861.01	18.343
861.31	17.963
861.60	17.474
861.90	17.613
862.19	18.624
862.49	18.575
862.78	17.288
863.07	15.616
863.37	15.410
863.66	14.996
863.96	16.045
864.25	16.476
864.54	16.139
864.84	16.806
865.13	17.276
865.43	16.687
865.72	27.852
866.01	16.980
866.31	28.974
866.60	20.448
866.89	23.588
>>>>>End Spectral Data<<<<<
