OOIBase32 Version 2.0.0.6 Data File
++++++++++++++++++++++++++++++++++++
Date: 01-18-2012, 22:45:33
User: Valued Ocean Optics Customer
Spectrometer Serial Number: USB2E2917
Spectrometer Channel: Master
Integration Time (msec): 5
Spectra Averaged: 10
Boxcar Smoothing: 5
Correct for Electrical Dark: Enabled
Time Normalized: Disabled
Dual-beam Reference: Disabled
Reference Channel: Master
Temperature: Not acquired
Spectrometer Type: S2000
ADC Type: USB2000
Number of Pixels in File: 2048
Graph Title: 
>>>>>Begin Spectral Data<<<<<
180.30	0.000
180.67	0.000
181.03	53.054
181.40	11.750
181.77	103.494
182.14	59.620
182.51	41.105
182.88	35.365
183.25	82.995
183.62	66.602
183.99	-97.049
184.36	147.226
184.73	26.818
185.10	864.976
185.46	254.329
185.83	356.878
186.20	34.053
186.57	522.213
186.94	-26.775
187.31	120.412
187.68	-972.586
188.05	28.074
188.42	24.527
188.78	-17.574
189.15	0.665
189.52	-16.117
189.89	5.520
190.26	-4.998
190.63	11.998
191.00	13.234
191.37	18.383
191.73	26.547
192.10	29.065
192.47	40.097
192.84	50.439
193.21	46.923
193.58	52.490
193.94	58.905
194.31	65.802
194.68	52.796
195.05	51.261
195.42	42.522
195.79	47.622
196.15	49.850
196.52	43.762
196.89	35.882
197.26	28.061
197.63	26.963
198.00	12.156
198.36	4.955
198.73	22.486
199.10	9.317
199.47	26.953
199.84	17.193
200.20	5.820
200.57	5.303
200.94	14.567
201.31	21.535
201.68	5.870
202.04	-0.188
202.41	-1.856
202.78	-0.156
203.15	1.346
203.51	-6.663
203.88	-15.417
204.25	-9.099
204.62	3.359
204.98	-6.256
205.35	-2.949
205.72	6.397
206.09	23.724
206.46	24.116
206.82	16.103
207.19	14.335
207.56	20.384
207.92	33.403
208.29	36.563
208.66	12.287
209.03	29.007
209.39	25.549
209.76	20.030
210.13	-7.463
210.50	5.417
210.86	-1.647
211.23	13.407
211.60	-7.743
211.96	-12.006
212.33	9.149
212.70	13.909
213.07	-1.562
213.43	-1.097
213.80	2.747
214.17	6.703
214.53	12.760
214.90	23.743
215.27	22.773
215.63	33.000
216.00	27.108
216.37	25.208
216.74	29.508
217.10	38.835
217.47	39.847
217.84	35.484
218.20	30.996
218.57	21.975
218.94	6.914
219.30	-4.662
219.67	-3.351
220.04	-2.855
220.40	-4.950
220.77	10.403
221.13	15.124
221.50	17.657
221.87	21.310
222.23	26.098
222.60	24.933
222.97	24.603
223.33	25.953
223.70	20.555
224.07	18.044
224.43	15.535
224.80	8.941
225.16	6.834
225.53	2.339
225.90	-0.150
226.26	-1.028
226.63	-1.030
226.99	-1.942
227.36	-2.657
227.73	-1.392
228.09	-0.634
228.46	0.831
228.82	2.194
229.19	1.576
229.56	2.413
229.92	2.411
230.29	2.450
230.65	2.499
231.02	3.818
231.38	3.118
231.75	4.151
232.12	4.707
232.48	3.074
232.85	0.427
233.21	0.944
233.58	0.948
233.94	2.336
234.31	2.346
234.68	2.060
235.04	2.568
235.41	4.257
235.77	2.878
236.14	1.600
236.50	2.202
236.87	3.576
237.23	3.958
237.60	3.885
237.96	4.575
238.33	4.332
238.69	4.255
239.06	3.895
239.42	2.873
239.79	2.684
240.15	2.647
240.52	2.636
240.88	2.615
241.25	2.406
241.61	2.742
241.98	2.170
242.34	2.227
242.71	2.433
243.07	2.568
243.44	2.932
243.80	3.042
244.17	2.898
244.53	3.126
244.90	3.380
245.26	3.540
245.63	3.651
245.99	3.768
246.36	3.750
246.72	3.755
247.09	3.844
247.45	3.857
247.81	3.610
248.18	4.099
248.54	4.271
248.91	4.198
249.27	4.388
249.64	4.228
250.00	4.099
250.36	4.278
250.73	4.666
251.09	4.265
251.46	4.098
251.82	4.376
252.19	3.573
252.55	3.141
252.91	2.487
253.28	1.812
253.64	1.065
254.01	0.832
254.37	1.410
254.73	1.094
255.10	1.785
255.46	2.264
255.83	2.397
256.19	2.446
256.55	2.396
256.92	2.594
257.28	2.994
257.65	3.103
258.01	3.299
258.37	3.062
258.74	3.099
259.10	3.057
259.46	3.038
259.83	3.034
260.19	3.150
260.55	3.219
260.92	3.203
261.28	3.111
261.64	3.036
262.01	3.047
262.37	3.219
262.73	3.182
263.10	3.061
263.46	3.272
263.82	3.486
264.19	3.725
264.55	3.590
264.91	4.127
265.28	4.175
265.64	4.402
266.00	4.346
266.37	4.106
266.73	4.165
267.09	4.259
267.46	3.985
267.82	3.927
268.18	3.893
268.54	4.132
268.91	4.161
269.27	3.792
269.63	3.517
270.00	3.491
270.36	3.571
270.72	3.517
271.08	3.451
271.45	3.444
271.81	3.646
272.17	3.491
272.53	3.303
272.90	2.770
273.26	2.916
273.62	3.174
273.98	3.037
274.35	2.936
274.71	2.994
275.07	2.957
275.43	2.904
275.80	2.554
276.16	2.761
276.52	2.897
276.88	3.263
277.25	3.403
277.61	3.378
277.97	3.495
278.33	3.507
278.69	3.291
279.06	3.413
279.42	3.474
279.78	3.682
280.14	3.513
280.50	3.504
280.87	3.391
281.23	3.071
281.59	3.125
281.95	3.247
282.31	3.056
282.68	3.171
283.04	3.064
283.40	3.011
283.76	2.875
284.12	2.871
284.48	2.637
284.85	2.605
285.21	2.573
285.57	2.606
285.93	2.584
286.29	2.718
286.65	2.507
287.02	2.508
287.38	2.401
287.74	2.325
288.10	2.442
288.46	2.595
288.82	2.581
289.18	2.733
289.54	2.688
289.91	2.680
290.27	2.605
290.63	2.866
290.99	2.720
291.35	2.863
291.71	3.070
292.07	2.969
292.43	3.069
292.79	3.234
293.16	3.252
293.52	3.308
293.88	3.318
294.24	3.429
294.60	3.403
294.96	3.542
295.32	3.519
295.68	3.411
296.04	3.401
296.40	3.460
296.76	3.241
297.12	3.216
297.49	3.272
297.85	3.297
298.21	3.286
298.57	3.289
298.93	3.288
299.29	3.409
299.65	3.395
300.01	3.436
300.37	3.329
300.73	3.309
301.09	3.508
301.45	3.521
301.81	3.448
302.17	3.436
302.53	3.356
302.89	3.460
303.25	3.337
303.61	3.430
303.97	3.472
304.33	3.526
304.69	3.655
305.05	3.501
305.41	3.324
305.77	3.412
306.13	3.352
306.49	3.450
306.85	3.294
307.21	3.351
307.57	3.390
307.93	3.461
308.29	3.511
308.65	3.580
309.01	3.591
309.37	3.584
309.73	3.453
310.09	3.491
310.45	3.494
310.81	3.585
311.17	3.635
311.53	3.776
311.89	3.751
312.25	3.547
312.61	3.396
312.96	3.292
313.32	3.325
313.68	3.368
314.04	3.369
314.40	3.297
314.76	3.200
315.12	3.132
315.48	2.985
315.84	3.017
316.20	3.023
316.56	3.212
316.92	3.243
317.27	3.284
317.63	3.185
317.99	3.454
318.35	3.456
318.71	3.522
319.07	3.496
319.43	3.412
319.79	3.293
320.15	3.409
320.50	3.338
320.86	3.467
321.22	3.451
321.58	3.508
321.94	3.335
322.30	3.443
322.66	3.435
323.01	3.448
323.37	3.545
323.73	3.622
324.09	3.651
324.45	3.726
324.81	3.745
325.17	3.766
325.52	3.901
325.88	3.846
326.24	3.858
326.60	3.983
326.96	4.048
327.31	3.937
327.67	3.839
328.03	3.716
328.39	3.696
328.75	3.694
329.11	3.671
329.46	3.535
329.82	3.512
330.18	3.415
330.54	3.235
330.90	3.186
331.25	3.162
331.61	3.238
331.97	3.438
332.33	3.414
332.68	3.363
333.04	3.449
333.40	3.486
333.76	3.619
334.11	3.514
334.47	3.593
334.83	3.670
335.19	3.672
335.54	3.632
335.90	3.640
336.26	3.655
336.62	3.583
336.97	3.543
337.33	3.615
337.69	3.448
338.05	3.570
338.40	3.529
338.76	3.455
339.12	3.500
339.48	3.581
339.83	3.505
340.19	3.569
340.55	3.711
340.90	3.697
341.26	3.650
341.62	3.681
341.97	3.797
342.33	3.777
342.69	3.771
343.04	3.745
343.40	3.744
343.76	3.692
344.12	3.671
344.47	3.669
344.83	3.700
345.19	3.731
345.54	3.815
345.90	3.762
346.26	3.762
346.61	3.735
346.97	3.750
347.32	3.680
347.68	3.727
348.04	3.695
348.39	3.619
348.75	3.568
349.11	3.558
349.46	3.533
349.82	3.508
350.18	3.580
350.53	3.652
350.89	3.655
351.24	3.676
351.60	3.719
351.96	3.747
352.31	3.791
352.67	3.834
353.02	3.824
353.38	3.819
353.74	3.833
354.09	3.860
354.45	3.843
354.80	3.850
355.16	3.864
355.52	3.805
355.87	3.709
356.23	3.657
356.58	3.621
356.94	3.614
357.29	3.555
357.65	3.536
358.00	3.473
358.36	3.489
358.72	3.499
359.07	3.541
359.43	3.559
359.78	3.703
360.14	3.766
360.49	3.766
360.85	3.762
361.20	3.834
361.56	3.810
361.91	3.813
362.27	3.771
362.62	3.753
362.98	3.728
363.33	3.705
363.69	3.632
364.04	3.589
364.40	3.674
364.75	3.628
365.11	3.655
365.46	3.655
365.82	3.693
366.17	3.686
366.53	3.691
366.88	3.713
367.24	3.754
367.59	3.763
367.95	3.763
368.30	3.706
368.66	3.750
369.01	3.704
369.37	3.722
369.72	3.691
370.08	3.690
370.43	3.670
370.78	3.674
371.14	3.656
371.49	3.690
371.85	3.750
372.20	3.733
372.56	3.773
372.91	3.763
373.26	3.834
373.62	3.828
373.97	3.872
374.33	3.935
374.68	3.928
375.03	3.991
375.39	4.005
375.74	4.081
376.10	4.102
376.45	4.118
376.80	4.146
377.16	4.102
377.51	4.122
377.87	4.177
378.22	4.152
378.57	4.168
378.93	4.156
379.28	4.163
379.63	4.133
379.99	4.196
380.34	4.221
380.70	4.231
381.05	4.266
381.40	4.332
381.76	4.369
382.11	4.457
382.46	4.462
382.82	4.483
383.17	4.499
383.52	4.541
383.88	4.544
384.23	4.534
384.58	4.577
384.94	4.631
385.29	4.610
385.64	4.618
385.99	4.642
386.35	4.730
386.70	4.792
387.05	4.809
387.41	4.828
387.76	4.859
388.11	4.901
388.47	4.921
388.82	4.925
389.17	4.990
389.52	5.042
389.88	5.066
390.23	5.064
390.58	5.092
390.93	5.128
391.29	5.140
391.64	5.155
391.99	5.210
392.34	5.274
392.70	5.347
393.05	5.355
393.40	5.352
393.75	5.380
394.11	5.453
394.46	5.485
394.81	5.554
395.16	5.615
395.52	5.670
395.87	5.699
396.22	5.743
396.57	5.758
396.92	5.832
397.28	5.855
397.63	5.926
397.98	5.948
398.33	5.956
398.68	5.942
399.04	5.976
399.39	6.019
399.74	6.078
400.09	6.156
400.44	6.184
400.80	6.187
401.15	6.246
401.50	6.302
401.85	6.379
402.20	6.467
402.55	6.539
402.90	6.565
403.26	6.619
403.61	6.685
403.96	6.714
404.31	6.814
404.66	6.882
405.01	6.940
405.36	6.998
405.72	7.027
406.07	7.093
406.42	7.191
406.77	7.279
407.12	7.353
407.47	7.434
407.82	7.524
408.17	7.547
408.53	7.648
408.88	7.724
409.23	7.774
409.58	7.860
409.93	7.905
410.28	7.915
410.63	8.000
410.98	8.093
411.33	8.138
411.68	8.183
412.03	8.280
412.38	8.367
412.73	8.465
413.09	8.529
413.44	8.588
413.79	8.669
414.14	8.780
414.49	8.847
414.84	8.925
415.19	8.990
415.54	9.060
415.89	9.121
416.24	9.201
416.59	9.259
416.94	9.326
417.29	9.388
417.64	9.475
417.99	9.540
418.34	9.598
418.69	9.630
419.04	9.690
419.39	9.773
419.74	9.839
420.09	9.876
420.44	9.937
420.79	10.002
421.14	10.063
421.49	10.125
421.84	10.174
422.19	10.251
422.54	10.306
422.89	10.362
423.24	10.403
423.59	10.483
423.94	10.546
424.29	10.613
424.64	10.710
424.99	10.744
425.34	10.811
425.68	10.910
426.03	10.959
426.38	11.082
426.73	11.180
427.08	11.236
427.43	11.282
427.78	11.343
428.13	11.417
428.48	11.470
428.83	11.571
429.18	11.630
429.53	11.686
429.87	11.769
430.22	11.804
430.57	11.851
430.92	11.910
431.27	11.977
431.62	12.051
431.97	12.098
432.32	12.124
432.67	12.169
433.01	12.204
433.36	12.265
433.71	12.303
434.06	12.357
434.41	12.426
434.76	12.492
435.11	12.545
435.45	12.610
435.80	12.686
436.15	12.749
436.50	12.842
436.85	12.914
437.20	12.958
437.54	13.021
437.89	13.099
438.24	13.148
438.59	13.216
438.94	13.272
439.29	13.332
439.63	13.371
439.98	13.417
440.33	13.461
440.68	13.507
441.03	13.572
441.37	13.626
441.72	13.641
442.07	13.718
442.42	13.751
442.76	13.785
443.11	13.805
443.46	13.850
443.81	13.881
444.16	13.906
444.50	13.923
444.85	13.927
445.20	13.946
445.55	13.985
445.89	13.981
446.24	14.026
446.59	14.057
446.94	14.077
447.28	14.094
447.63	14.131
447.98	14.179
448.32	14.199
448.67	14.256
449.02	14.308
449.37	14.357
449.71	14.391
450.06	14.401
450.41	14.462
450.75	14.527
451.10	14.560
451.45	14.606
451.79	14.646
452.14	14.707
452.49	14.738
452.84	14.772
453.18	14.799
453.53	14.853
453.88	14.908
454.22	14.963
454.57	14.997
454.92	15.060
455.26	15.104
455.61	15.152
455.95	15.176
456.30	15.219
456.65	15.252
456.99	15.289
457.34	15.335
457.69	15.362
458.03	15.370
458.38	15.391
458.73	15.419
459.07	15.458
459.42	15.470
459.76	15.530
460.11	15.555
460.46	15.595
460.80	15.648
461.15	15.667
461.49	15.720
461.84	15.751
462.19	15.813
462.53	15.854
462.88	15.899
463.22	15.944
463.57	15.978
463.91	16.024
464.26	16.058
464.61	16.048
464.95	16.081
465.30	16.092
465.64	16.115
465.99	16.128
466.33	16.138
466.68	16.184
467.02	16.200
467.37	16.191
467.71	16.226
468.06	16.271
468.41	16.322
468.75	16.384
469.10	16.439
469.44	16.475
469.79	16.510
470.13	16.563
470.48	16.563
470.82	16.602
471.17	16.681
471.51	16.707
471.86	16.703
472.20	16.722
472.55	16.735
472.89	16.729
473.23	16.770
473.58	16.801
473.92	16.800
474.27	16.818
474.61	16.826
474.96	16.831
475.30	16.835
475.65	16.862
475.99	16.879
476.34	16.864
476.68	16.897
477.02	16.905
477.37	16.904
477.71	16.920
478.06	16.943
478.40	17.010
478.75	17.073
479.09	17.154
479.43	17.274
479.78	17.395
480.12	17.514
480.47	17.609
480.81	17.720
481.15	17.817
481.50	17.907
481.84	18.002
482.19	18.087
482.53	18.164
482.87	18.212
483.22	18.230
483.56	18.230
483.90	18.229
484.25	18.218
484.59	18.192
484.94	18.169
485.28	18.140
485.62	18.090
485.97	18.031
486.31	17.981
486.65	17.955
487.00	17.947
487.34	17.956
487.68	17.960
488.03	17.970
488.37	17.970
488.71	17.983
489.06	18.004
489.40	18.044
489.74	18.054
490.09	18.040
490.43	18.055
490.77	18.051
491.11	18.043
491.46	18.037
491.80	18.042
492.14	18.046
492.49	18.047
492.83	18.047
493.17	18.005
493.51	18.000
493.86	18.033
494.20	18.038
494.54	18.049
494.88	18.086
495.23	18.125
495.57	18.137
495.91	18.172
496.25	18.186
496.60	18.205
496.94	18.240
497.28	18.307
497.62	18.347
497.97	18.376
498.31	18.427
498.65	18.460
498.99	18.496
499.33	18.532
499.68	18.573
500.02	18.624
500.36	18.682
500.70	18.723
501.04	18.748
501.39	18.777
501.73	18.831
502.07	18.844
502.41	18.883
502.75	18.912
503.09	18.975
503.44	19.010
503.78	19.030
504.12	19.059
504.46	19.099
504.80	19.120
505.14	19.177
505.49	19.211
505.83	19.256
506.17	19.250
506.51	19.277
506.85	19.316
507.19	19.335
507.53	19.372
507.87	19.426
508.22	19.462
508.56	19.497
508.90	19.504
509.24	19.517
509.58	19.564
509.92	19.628
510.26	19.696
510.60	19.689
510.94	19.742
511.28	19.774
511.63	19.764
511.97	19.799
512.31	19.827
512.65	19.889
512.99	19.922
513.33	19.941
513.67	19.979
514.01	20.001
514.35	20.061
514.69	20.098
515.03	20.136
515.37	20.183
515.71	20.204
516.05	20.210
516.39	20.210
516.73	20.263
517.07	20.298
517.41	20.329
517.75	20.350
518.09	20.369
518.43	20.363
518.77	20.392
519.11	20.415
519.45	20.422
519.79	20.464
520.13	20.494
520.47	20.513
520.81	20.510
521.15	20.512
521.49	20.508
521.83	20.535
522.17	20.577
522.51	20.585
522.85	20.614
523.19	20.685
523.53	20.778
523.87	20.857
524.21	20.955
524.55	21.080
524.89	21.192
525.23	21.301
525.57	21.393
525.91	21.489
526.25	21.572
526.58	21.650
526.92	21.700
527.26	21.747
527.60	21.776
527.94	21.787
528.28	21.779
528.62	21.764
528.96	21.739
529.30	21.713
529.64	21.664
529.97	21.636
530.31	21.600
530.65	21.574
530.99	21.519
531.33	21.508
531.67	21.494
532.01	21.480
532.35	21.463
532.68	21.462
533.02	21.431
533.36	21.447
533.70	21.425
534.04	21.422
534.38	21.409
534.71	21.408
535.05	21.389
535.39	21.367
535.73	21.361
536.07	21.378
536.41	21.419
536.74	21.464
537.08	21.483
537.42	21.534
537.76	21.556
538.10	21.603
538.43	21.646
538.77	21.691
539.11	21.741
539.45	21.786
539.79	21.820
540.12	21.817
540.46	21.826
540.80	21.829
541.14	21.828
541.47	21.807
541.81	21.790
542.15	21.765
542.49	21.738
542.82	21.708
543.16	21.679
543.50	21.623
543.84	21.611
544.17	21.599
544.51	21.588
544.85	21.569
545.18	21.572
545.52	21.561
545.86	21.576
546.20	21.589
546.53	21.596
546.87	21.598
547.21	21.614
547.54	21.613
547.88	21.607
548.22	21.611
548.55	21.604
548.89	21.595
549.23	21.595
549.56	21.624
549.90	21.604
550.24	21.605
550.57	21.617
550.91	21.607
551.25	21.603
551.58	21.614
551.92	21.607
552.26	21.633
552.59	21.676
552.93	21.697
553.27	21.679
553.60	21.701
553.94	21.723
554.27	21.739
554.61	21.783
554.95	21.792
555.28	21.825
555.62	21.858
555.95	21.863
556.29	21.829
556.63	21.822
556.96	21.796
557.30	21.789
557.63	21.772
557.97	21.750
558.31	21.740
558.64	21.729
558.98	21.695
559.31	21.679
559.65	21.656
559.98	21.684
560.32	21.692
560.65	21.722
560.99	21.727
561.33	21.675
561.66	21.673
562.00	21.660
562.33	21.658
562.67	21.667
563.00	21.643
563.34	21.651
563.67	21.642
564.01	21.631
564.34	21.608
564.68	21.594
565.01	21.638
565.35	21.645
565.68	21.638
566.02	21.649
566.35	21.633
566.69	21.667
567.02	21.674
567.36	21.688
567.69	21.683
568.03	21.672
568.36	21.668
568.69	21.640
569.03	21.611
569.36	21.587
569.70	21.569
570.03	21.579
570.37	21.566
570.70	21.551
571.04	21.501
571.37	21.517
571.70	21.532
572.04	21.546
572.37	21.560
572.71	21.580
573.04	21.593
573.37	21.576
573.71	21.553
574.04	21.532
574.38	21.517
574.71	21.503
575.04	21.475
575.38	21.460
575.71	21.411
576.05	21.373
576.38	21.373
576.71	21.370
577.05	21.367
577.38	21.344
577.71	21.341
578.05	21.354
578.38	21.349
578.71	21.329
579.05	21.320
579.38	21.336
579.71	21.300
580.05	21.243
580.38	21.191
580.71	21.164
581.05	21.143
581.38	21.134
581.71	21.072
582.05	21.088
582.38	21.060
582.71	21.067
583.04	21.049
583.38	21.047
583.71	21.043
584.04	21.098
584.38	21.061
584.71	21.075
585.04	21.045
585.37	21.047
585.71	21.021
586.04	21.021
586.37	20.982
586.70	20.942
587.04	20.959
587.37	20.956
587.70	20.910
588.03	20.926
588.37	20.917
588.70	20.891
589.03	20.877
589.36	20.861
589.69	20.833
590.03	20.814
590.36	20.808
590.69	20.819
591.02	20.783
591.35	20.758
591.69	20.700
592.02	20.635
592.35	20.620
592.68	20.605
593.01	20.594
593.35	20.581
593.68	20.532
594.01	20.503
594.34	20.416
594.67	20.408
595.00	20.415
595.34	20.407
595.67	20.406
596.00	20.382
596.33	20.345
596.66	20.325
596.99	20.281
597.32	20.289
597.65	20.261
597.99	20.253
598.32	20.207
598.65	20.150
598.98	20.134
599.31	20.115
599.64	20.085
599.97	20.058
600.30	20.011
600.63	20.014
600.96	20.001
601.30	19.971
601.63	19.962
601.96	19.920
602.29	19.925
602.62	19.906
602.95	19.866
603.28	19.854
603.61	19.861
603.94	19.870
604.27	19.850
604.60	19.849
604.93	19.831
605.26	19.796
605.59	19.787
605.92	19.746
606.25	19.731
606.58	19.739
606.91	19.713
607.24	19.655
607.57	19.623
607.90	19.606
608.23	19.551
608.56	19.558
608.89	19.553
609.22	19.544
609.55	19.511
609.88	19.505
610.21	19.478
610.54	19.456
610.87	19.463
611.20	19.460
611.53	19.402
611.86	19.342
612.19	19.308
612.52	19.292
612.85	19.256
613.18	19.249
613.51	19.229
613.84	19.215
614.17	19.161
614.49	19.109
614.82	19.043
615.15	19.064
615.48	19.113
615.81	19.123
616.14	19.103
616.47	19.071
616.80	19.021
617.13	18.994
617.46	18.958
617.78	18.961
618.11	18.971
618.44	18.988
618.77	18.933
619.10	18.897
619.43	18.837
619.76	18.802
620.09	18.792
620.41	18.760
620.74	18.707
621.07	18.682
621.40	18.691
621.73	18.659
622.06	18.596
622.38	18.609
622.71	18.583
623.04	18.588
623.37	18.583
623.70	18.542
624.02	18.544
624.35	18.545
624.68	18.504
625.01	18.427
625.34	18.383
625.66	18.364
625.99	18.312
626.32	18.260
626.65	18.205
626.98	18.159
627.30	18.165
627.63	18.148
627.96	18.078
628.29	18.042
628.61	18.029
628.94	18.004
629.27	17.969
629.60	17.984
629.92	17.920
630.25	17.899
630.58	17.883
630.91	17.840
631.23	17.789
631.56	17.814
631.89	17.790
632.21	17.796
632.54	17.772
632.87	17.770
633.19	17.742
633.52	17.776
633.85	17.731
634.18	17.726
634.50	17.730
634.83	17.735
635.16	17.715
635.48	17.702
635.81	17.677
636.14	17.680
636.46	17.653
636.79	17.605
637.11	17.577
637.44	17.620
637.77	17.595
638.09	17.540
638.42	17.491
638.75	17.423
639.07	17.440
639.40	17.405
639.73	17.391
640.05	17.356
640.38	17.332
640.70	17.255
641.03	17.226
641.36	17.174
641.68	17.166
642.01	17.143
642.33	17.094
642.66	17.053
642.98	17.000
643.31	16.964
643.64	16.903
643.96	16.876
644.29	16.900
644.61	16.887
644.94	16.856
645.26	16.819
645.59	16.798
645.91	16.786
646.24	16.728
646.56	16.734
646.89	16.719
647.22	16.713
647.54	16.641
647.87	16.579
648.19	16.539
648.52	16.556
648.84	16.579
649.17	16.541
649.49	16.553
649.82	16.605
650.14	16.546
650.47	16.481
650.79	16.439
651.11	16.449
651.44	16.453
651.76	16.394
652.09	16.278
652.41	16.209
652.74	16.204
653.06	16.195
653.39	16.044
653.71	16.030
654.04	16.059
654.36	16.090
654.68	16.051
655.01	15.991
655.33	15.967
655.66	16.018
655.98	16.000
656.30	15.990
656.63	15.946
656.95	16.042
657.28	16.074
657.60	16.061
657.92	15.991
658.25	15.974
658.57	15.968
658.90	15.970
659.22	15.928
659.54	15.881
659.87	15.831
660.19	15.794
660.51	15.701
660.84	15.618
661.16	15.542
661.48	15.516
661.81	15.462
662.13	15.400
662.45	15.333
662.78	15.296
663.10	15.269
663.42	15.262
663.75	15.276
664.07	15.260
664.39	15.234
664.72	15.214
665.04	15.232
665.36	15.241
665.69	15.200
666.01	15.185
666.33	15.188
666.65	15.141
666.98	15.084
667.30	15.043
667.62	15.001
667.94	14.982
668.27	14.994
668.59	14.967
668.91	14.919
669.23	14.944
669.56	14.851
669.88	14.813
670.20	14.775
670.52	14.806
670.85	14.769
671.17	14.738
671.49	14.686
671.81	14.610
672.13	14.549
672.46	14.538
672.78	14.554
673.10	14.528
673.42	14.496
673.74	14.551
674.07	14.473
674.39	14.491
674.71	14.425
675.03	14.449
675.35	14.444
675.67	14.484
676.00	14.489
676.32	14.445
676.64	14.484
676.96	14.487
677.28	14.459
677.60	14.486
677.92	14.441
678.25	14.499
678.57	14.462
678.89	14.406
679.21	14.394
679.53	14.368
679.85	14.358
680.17	14.379
680.49	14.331
680.81	14.296
681.13	14.264
681.46	14.207
681.78	14.264
682.10	14.273
682.42	14.284
682.74	14.268
683.06	14.315
683.38	14.339
683.70	14.333
684.02	14.363
684.34	14.377
684.66	14.433
684.98	14.506
685.30	14.458
685.62	14.479
685.94	14.546
686.26	14.588
686.58	14.584
686.90	14.592
687.22	14.636
687.54	14.685
687.86	14.653
688.18	14.595
688.50	14.600
688.82	14.593
689.14	14.557
689.46	14.457
689.78	14.382
690.10	14.315
690.42	14.279
690.74	14.165
691.06	14.067
691.38	14.105
691.70	14.121
692.02	14.068
692.34	14.038
692.66	14.020
692.98	14.025
693.30	14.082
693.62	14.136
693.94	14.086
694.26	14.090
694.57	14.104
694.89	14.041
695.21	13.969
695.53	14.061
695.85	14.077
696.17	14.174
696.49	14.197
696.81	14.180
697.13	14.167
697.44	14.227
697.76	14.230
698.08	14.211
698.40	14.275
698.72	14.267
699.04	14.130
699.36	14.011
699.67	13.844
699.99	13.828
700.31	13.659
700.63	13.537
700.95	13.380
701.27	13.265
701.58	13.244
701.90	13.099
702.22	13.080
702.54	13.102
702.86	13.157
703.17	13.129
703.49	13.056
703.81	13.120
704.13	13.126
704.45	13.207
704.76	13.287
705.08	13.286
705.40	13.237
705.72	13.240
706.03	13.230
706.35	13.226
706.67	13.240
706.99	13.205
707.30	13.211
707.62	13.295
707.94	13.227
708.26	13.193
708.57	13.071
708.89	13.194
709.21	13.189
709.53	13.238
709.84	13.222
710.16	13.206
710.48	13.173
710.79	13.187
711.11	13.038
711.43	13.094
711.74	13.170
712.06	13.188
712.38	13.077
712.69	13.214
713.01	13.181
713.33	13.187
713.64	13.268
713.96	13.416
714.28	13.445
714.59	13.644
714.91	13.605
715.23	13.638
715.54	13.733
715.86	13.817
716.17	13.716
716.49	13.669
716.81	13.668
717.12	13.684
717.44	13.712
717.76	13.649
718.07	13.480
718.39	13.527
718.70	13.395
719.02	13.300
719.33	13.239
719.65	13.110
719.97	13.030
720.28	12.996
720.60	12.934
720.91	12.862
721.23	12.818
721.54	12.884
721.86	12.890
722.17	12.900
722.49	13.042
722.81	13.121
723.12	13.153
723.44	13.325
723.75	13.454
724.07	13.528
724.38	13.443
724.70	13.462
725.01	13.417
725.33	13.407
725.64	13.400
725.96	13.261
726.27	13.288
726.59	13.409
726.90	13.347
727.22	13.223
727.53	13.194
727.84	13.107
728.16	13.166
728.47	13.118
728.79	12.983
729.10	13.037
729.42	13.067
729.73	12.897
730.05	12.908
730.36	12.856
730.67	12.770
730.99	12.656
731.30	12.630
731.62	12.470
731.93	12.334
732.24	12.360
732.56	12.200
732.87	12.077
733.19	12.089
733.50	11.940
733.81	11.783
734.13	11.875
734.44	11.872
734.76	12.081
735.07	11.956
735.38	12.043
735.70	11.986
736.01	11.947
736.32	11.982
736.64	12.041
736.95	12.021
737.26	11.971
737.58	11.839
737.89	11.785
738.20	11.499
738.52	11.580
738.83	11.464
739.14	11.393
739.45	11.376
739.77	11.296
740.08	11.141
740.39	11.102
740.71	11.130
741.02	10.907
741.33	10.768
741.64	10.806
741.96	10.971
742.27	10.974
742.58	10.995
742.90	10.936
743.21	10.942
743.52	10.915
743.83	10.696
744.14	10.736
744.46	10.844
744.77	10.703
745.08	10.758
745.39	10.467
745.71	10.488
746.02	10.538
746.33	10.416
746.64	10.290
746.95	10.202
747.27	10.258
747.58	10.223
747.89	10.250
748.20	10.360
748.51	10.296
748.82	10.177
749.14	10.313
749.45	10.143
749.76	10.183
750.07	10.234
750.38	10.297
750.69	10.189
751.01	10.230
751.32	10.239
751.63	10.189
751.94	10.036
752.25	10.173
752.56	10.019
752.87	10.138
753.18	10.115
753.49	10.236
753.81	10.286
754.12	10.382
754.43	10.299
754.74	10.379
755.05	10.677
755.36	11.093
755.67	11.216
755.98	11.556
756.29	11.801
756.60	12.105
756.91	12.196
757.22	12.401
757.53	12.625
757.84	13.022
758.15	13.269
758.46	13.539
758.77	13.642
759.09	13.834
759.40	13.956
759.71	14.097
760.02	14.283
760.33	14.520
760.64	14.586
760.95	14.668
761.26	14.642
761.57	14.648
761.88	14.482
762.18	14.329
762.49	14.305
762.80	14.169
763.11	14.045
763.42	13.907
763.73	13.670
764.04	13.452
764.35	13.279
764.66	12.968
764.97	12.608
765.28	12.367
765.59	12.167
765.90	11.994
766.21	11.763
766.52	11.372
766.83	11.042
767.14	10.794
767.44	10.560
767.75	10.300
768.06	10.072
768.37	10.002
768.68	9.838
768.99	9.623
769.30	9.279
769.61	9.061
769.91	9.007
770.22	8.833
770.53	8.808
770.84	8.865
771.15	8.829
771.46	8.927
771.77	8.832
772.07	8.544
772.38	8.579
772.69	8.647
773.00	8.641
773.31	8.621
773.61	8.701
773.92	8.583
774.23	8.290
774.54	8.390
774.85	8.478
775.15	8.506
775.46	8.635
775.77	8.700
776.08	8.558
776.39	8.538
776.69	8.554
777.00	8.740
777.31	9.136
777.62	9.163
777.92	9.239
778.23	9.085
778.54	8.909
778.85	9.112
779.15	8.858
779.46	8.572
779.77	8.377
780.07	8.337
780.38	8.044
780.69	7.976
781.00	8.157
781.30	8.067
781.61	7.957
781.92	8.355
782.22	8.142
782.53	8.170
782.84	8.939
783.14	9.004
783.45	9.138
783.76	9.326
784.06	9.006
784.37	9.000
784.68	9.147
784.98	9.359
785.29	9.334
785.60	9.698
785.90	9.941
786.21	9.642
786.51	9.938
786.82	9.996
787.13	9.854
787.43	10.139
787.74	10.224
788.04	9.928
788.35	9.959
788.66	9.635
788.96	9.528
789.27	9.795
789.57	9.951
789.88	9.909
790.19	9.899
790.49	9.889
790.80	9.783
791.10	10.006
791.41	9.601
791.71	9.693
792.02	10.192
792.32	10.181
792.63	9.861
792.93	9.630
793.24	9.800
793.54	9.731
793.85	10.316
794.15	10.271
794.46	10.489
794.76	11.281
795.07	11.173
795.37	11.165
795.68	11.294
795.98	11.423
796.29	11.419
796.59	11.512
796.90	11.449
797.20	11.364
797.51	11.461
797.81	11.170
798.12	11.042
798.42	11.486
798.72	11.366
799.03	11.313
799.33	11.492
799.64	11.842
799.94	11.677
800.25	12.003
800.55	11.754
800.85	11.835
801.16	11.857
801.46	11.792
801.77	11.526
802.07	11.875
802.37	12.243
802.68	12.452
802.98	12.167
803.28	12.413
803.59	12.375
803.89	12.630
804.20	12.581
804.50	12.418
804.80	12.664
805.11	12.665
805.41	12.573
805.71	12.222
806.02	11.766
806.32	12.325
806.62	12.301
806.93	12.394
807.23	11.784
807.53	12.136
807.83	12.190
808.14	12.236
808.44	12.208
808.74	12.489
809.05	12.398
809.35	12.430
809.65	11.961
809.95	11.830
810.26	11.844
810.56	12.209
810.86	12.149
811.16	12.323
811.47	12.379
811.77	12.566
812.07	12.335
812.37	12.890
812.68	12.941
812.98	12.853
813.28	12.654
813.58	12.747
813.88	12.691
814.19	12.491
814.49	12.758
814.79	12.972
815.09	13.072
815.39	13.204
815.70	12.904
816.00	13.135
816.30	13.750
816.60	13.894
816.90	14.051
817.20	14.583
817.50	14.900
817.81	15.140
818.11	15.046
818.41	15.354
818.71	15.737
819.01	15.924
819.31	16.101
819.61	16.094
819.92	16.255
820.22	16.328
820.52	16.468
820.82	16.489
821.12	16.460
821.42	16.489
821.72	16.501
822.02	16.431
822.32	16.439
822.62	16.379
822.92	16.414
823.22	16.387
823.52	16.435
823.83	16.344
824.13	16.273
824.43	16.320
824.73	16.368
825.03	16.412
825.33	16.339
825.63	16.385
825.93	16.482
826.23	16.465
826.53	16.603
826.83	16.507
827.13	16.359
827.43	16.465
827.73	16.378
828.03	16.586
828.33	16.399
828.63	16.435
828.93	16.398
829.23	16.450
829.53	16.311
829.83	15.789
830.13	15.954
830.42	16.141
830.72	16.263
831.02	16.080
831.32	15.671
831.62	15.648
831.92	15.700
832.22	15.825
832.52	15.592
832.82	15.845
833.12	16.247
833.42	16.059
833.72	15.658
834.01	15.387
834.31	15.810
834.61	15.718
834.91	15.657
835.21	15.543
835.51	15.361
835.81	15.439
836.11	14.859
836.40	14.322
836.70	14.207
837.00	14.543
837.30	14.636
837.60	14.016
837.90	14.327
838.19	14.352
838.49	13.928
838.79	13.531
839.09	13.793
839.39	14.043
839.68	13.351
839.98	12.819
840.28	12.858
840.58	11.994
840.88	11.614
841.17	11.397
841.47	11.671
841.77	12.048
842.07	11.973
842.36	11.352
842.66	10.392
842.96	11.842
843.26	11.964
843.55	10.812
843.85	11.611
844.15	10.903
844.45	10.748
844.74	9.587
845.04	8.728
845.34	9.112
845.63	7.582
845.93	9.182
846.23	6.938
846.53	5.933
846.82	8.002
847.12	5.439
847.42	7.474
847.71	5.726
848.01	4.269
848.31	3.591
848.60	2.675
848.90	2.272
849.19	1.414
849.49	3.225
849.79	5.820
850.08	5.082
850.38	7.467
850.68	5.392
850.97	6.550
851.27	10.505
851.56	11.343
851.86	10.668
852.16	11.820
852.45	11.885
852.75	10.806
853.04	7.387
853.34	5.078
853.64	4.681
853.93	4.739
854.23	6.735
854.52	4.399
854.82	2.955
855.11	4.834
855.41	4.089
855.70	1.970
856.00	2.229
856.30	4.085
856.59	5.069
856.89	5.957
857.18	5.783
857.48	3.927
857.77	4.051
858.07	4.329
858.36	3.722
858.66	4.397
858.95	7.945
859.25	6.647
859.54	5.594
859.84	6.456
860.13	5.354
860.42	6.623
860.72	7.208
861.01	7.849
861.31	8.996
861.60	7.652
861.90	6.887
862.19	6.731
862.49	7.844
862.78	8.976
863.07	9.421
863.37	10.993
863.66	10.579
863.96	9.483
864.25	9.079
864.54	10.335
864.84	11.368
865.13	11.675
865.43	9.799
865.72	11.529
866.01	17.493
866.31	11.294
866.60	4.132
866.89	-0.783
>>>>>End Spectral Data<<<<<
