OOIBase32 Version 2.0.0.6 Data File
++++++++++++++++++++++++++++++++++++
Date: 01-20-2012, 22:04:56
User: Valued Ocean Optics Customer
Spectrometer Serial Number: USB2E2917
Spectrometer Channel: Master
Integration Time (msec): 4
Spectra Averaged: 10
Boxcar Smoothing: 5
Correct for Electrical Dark: Enabled
Time Normalized: Disabled
Dual-beam Reference: Disabled
Reference Channel: Master
Temperature: Not acquired
Spectrometer Type: S2000
ADC Type: USB2000
Number of Pixels in File: 2048
Graph Title: 
>>>>>Begin Spectral Data<<<<<
180.30	0.000
180.67	0.000
181.03	-35.932
181.40	188.675
181.77	42.892
182.14	24.533
182.51	62.928
182.88	-242.375
183.25	112.747
183.62	-74.530
183.99	-544.963
184.36	-30.313
184.73	34.131
185.10	-176.436
185.46	178.849
185.83	-246.136
186.20	102.727
186.57	141.896
186.94	-274.289
187.31	-12.766
187.68	-41.584
188.05	139.708
188.42	98.329
188.78	75.855
189.15	35.233
189.52	40.052
189.89	27.790
190.26	12.785
190.63	17.351
191.00	18.901
191.37	18.008
191.73	26.917
192.10	18.170
192.47	24.778
192.84	32.094
193.21	43.393
193.58	36.523
193.94	53.882
194.31	63.520
194.68	65.029
195.05	55.414
195.42	39.253
195.79	31.889
196.15	35.265
196.52	37.507
196.89	29.290
197.26	17.617
197.63	16.484
198.00	10.615
198.36	14.424
198.73	11.184
199.10	19.354
199.47	25.346
199.84	20.301
200.20	22.119
200.57	21.406
200.94	27.617
201.31	29.781
201.68	31.980
202.04	35.524
202.41	20.785
202.78	25.782
203.15	10.827
203.51	1.839
203.88	4.034
204.25	9.700
204.62	5.633
204.98	3.929
205.35	8.099
205.72	12.643
206.09	2.915
206.46	0.786
206.82	2.860
207.19	6.808
207.56	18.131
207.92	13.093
208.29	12.510
208.66	17.235
209.03	10.500
209.39	1.669
209.76	-11.181
210.13	-10.127
210.50	-2.945
210.86	5.508
211.23	8.123
211.60	5.157
211.96	17.617
212.33	7.761
212.70	-5.545
213.07	-2.211
213.43	12.811
213.80	18.270
214.17	20.394
214.53	22.247
214.90	10.316
215.27	8.885
215.63	7.072
216.00	3.302
216.37	3.868
216.74	3.907
217.10	10.118
217.47	0.676
217.84	-0.925
218.20	2.821
218.57	5.427
218.94	16.793
219.30	22.841
219.67	26.006
220.04	20.895
220.40	24.661
220.77	29.270
221.13	29.807
221.50	28.858
221.87	33.212
222.23	26.616
222.60	21.560
222.97	15.829
223.33	13.825
223.70	8.386
224.07	9.229
224.43	7.841
224.80	7.629
225.16	4.633
225.53	5.873
225.90	4.654
226.26	5.894
226.63	6.011
226.99	6.183
227.36	6.289
227.73	7.791
228.09	7.439
228.46	7.386
228.82	6.430
229.19	6.561
229.56	5.741
229.92	5.807
230.29	5.180
230.65	6.173
231.02	6.454
231.38	6.487
231.75	5.641
232.12	6.237
232.48	6.736
232.85	6.868
233.21	7.486
233.58	6.518
233.94	6.005
234.31	5.878
234.68	4.572
235.04	2.984
235.41	2.135
235.77	2.113
236.14	2.159
236.50	1.911
236.87	2.688
237.23	3.045
237.60	4.612
237.96	5.099
238.33	5.336
238.69	5.743
239.06	6.057
239.42	5.962
239.79	5.675
240.15	5.466
240.52	5.415
240.88	5.454
241.25	5.272
241.61	5.136
241.98	4.945
242.34	4.839
242.71	4.702
243.07	4.645
243.44	4.722
243.80	4.756
244.17	4.787
244.53	4.741
244.90	4.729
245.26	4.768
245.63	4.687
245.99	4.715
246.36	4.744
246.72	4.870
247.09	5.150
247.45	5.084
247.81	5.093
248.18	4.980
248.54	4.993
248.91	4.849
249.27	4.863
249.64	4.798
250.00	4.948
250.36	4.946
250.73	4.606
251.09	4.198
251.46	4.308
251.82	4.255
252.19	4.089
252.55	4.285
252.91	4.347
253.28	4.251
253.64	4.515
254.01	4.415
254.37	4.368
254.73	4.615
255.10	4.641
255.46	4.421
255.83	4.516
256.19	4.596
256.55	4.445
256.92	4.507
257.28	4.455
257.65	4.275
258.01	4.238
258.37	4.280
258.74	4.283
259.10	4.320
259.46	4.422
259.83	4.400
260.19	4.382
260.55	4.330
260.92	4.272
261.28	4.382
261.64	4.588
262.01	4.439
262.37	4.495
262.73	4.495
263.10	4.396
263.46	4.528
263.82	4.546
264.19	4.749
264.55	4.860
264.91	4.616
265.28	4.604
265.64	4.574
266.00	4.756
266.37	4.621
266.73	4.251
267.09	4.245
267.46	4.101
267.82	4.164
268.18	4.033
268.54	3.858
268.91	4.047
269.27	3.977
269.63	3.923
270.00	3.852
270.36	4.001
270.72	4.234
271.08	4.255
271.45	4.261
271.81	4.259
272.17	4.352
272.53	4.413
272.90	4.359
273.26	4.337
273.62	4.310
273.98	4.228
274.35	4.024
274.71	3.946
275.07	4.037
275.43	3.941
275.80	4.029
276.16	3.894
276.52	4.094
276.88	4.218
277.25	4.066
277.61	4.010
277.97	4.148
278.33	4.133
278.69	4.109
279.06	3.941
279.42	3.978
279.78	3.810
280.14	3.733
280.50	3.507
280.87	3.441
281.23	3.396
281.59	3.433
281.95	3.306
282.31	3.465
282.68	3.483
283.04	3.541
283.40	3.541
283.76	3.596
284.12	3.731
284.48	3.867
284.85	3.870
285.21	4.031
285.57	4.075
285.93	4.210
286.29	4.128
286.65	4.244
287.02	4.141
287.38	4.097
287.74	4.096
288.10	4.042
288.46	4.007
288.82	4.005
289.18	4.030
289.54	4.078
289.91	3.975
290.27	3.988
290.63	3.989
290.99	4.221
291.35	4.299
291.71	4.318
292.07	4.383
292.43	4.247
292.79	4.277
293.16	4.234
293.52	4.124
293.88	4.225
294.24	4.127
294.60	3.924
294.96	3.908
295.32	3.992
295.68	3.966
296.04	3.993
296.40	4.122
296.76	4.150
297.12	4.188
297.49	4.270
297.85	4.244
298.21	4.381
298.57	4.347
298.93	4.258
299.29	4.174
299.65	4.303
300.01	4.293
300.37	4.140
300.73	4.110
301.09	4.157
301.45	4.119
301.81	4.237
302.17	4.194
302.53	4.277
302.89	4.257
303.25	4.344
303.61	4.262
303.97	4.262
304.33	4.369
304.69	4.315
305.05	4.385
305.41	4.469
305.77	4.452
306.13	4.483
306.49	4.580
306.85	4.572
307.21	4.530
307.57	4.481
307.93	4.508
308.29	4.545
308.65	4.605
309.01	4.540
309.37	4.496
309.73	4.416
310.09	4.496
310.45	4.497
310.81	4.479
311.17	4.502
311.53	4.535
311.89	4.524
312.25	4.541
312.61	4.579
312.96	4.464
313.32	4.403
313.68	4.450
314.04	4.337
314.40	4.315
314.76	4.386
315.12	4.361
315.48	4.429
315.84	4.444
316.20	4.537
316.56	4.502
316.92	4.619
317.27	4.740
317.63	4.759
317.99	4.832
318.35	4.886
318.71	4.959
319.07	4.896
319.43	4.862
319.79	4.864
320.15	4.742
320.50	4.796
320.86	4.922
321.22	4.960
321.58	5.013
321.94	4.955
322.30	5.008
322.66	5.048
323.01	5.134
323.37	5.148
323.73	5.227
324.09	5.280
324.45	5.363
324.81	5.374
325.17	5.388
325.52	5.457
325.88	5.625
326.24	5.588
326.60	5.656
326.96	5.697
327.31	5.767
327.67	5.715
328.03	5.798
328.39	5.839
328.75	5.929
329.11	5.945
329.46	5.882
329.82	5.920
330.18	6.055
330.54	6.053
330.90	6.095
331.25	6.195
331.61	6.274
331.97	6.279
332.33	6.321
332.68	6.271
333.04	6.225
333.40	6.193
333.76	6.194
334.11	6.216
334.47	6.198
334.83	6.250
335.19	6.275
335.54	6.383
335.90	6.489
336.26	6.499
336.62	6.502
336.97	6.563
337.33	6.676
337.69	6.633
338.05	6.650
338.40	6.638
338.76	6.663
339.12	6.550
339.48	6.495
339.83	6.369
340.19	6.317
340.55	6.290
340.90	6.303
341.26	6.305
341.62	6.350
341.97	6.397
342.33	6.564
342.69	6.564
343.04	6.669
343.40	6.627
343.76	6.677
344.12	6.736
344.47	6.799
344.83	6.873
345.19	6.898
345.54	6.901
345.90	6.890
346.26	6.794
346.61	6.789
346.97	6.764
347.32	6.778
347.68	6.768
348.04	6.728
348.39	6.750
348.75	6.755
349.11	6.835
349.46	6.838
349.82	6.843
350.18	6.939
350.53	7.016
350.89	7.045
351.24	7.075
351.60	7.117
351.96	7.140
352.31	7.091
352.67	7.127
353.02	7.047
353.38	7.050
353.74	7.099
354.09	7.027
354.45	6.986
354.80	6.916
355.16	6.956
355.52	6.990
355.87	6.969
356.23	7.044
356.58	6.982
356.94	6.973
357.29	6.987
357.65	6.924
358.00	6.940
358.36	6.950
358.72	7.018
359.07	7.000
359.43	7.021
359.78	7.084
360.14	7.057
360.49	7.084
360.85	7.170
361.20	7.215
361.56	7.268
361.91	7.285
362.27	7.289
362.62	7.330
362.98	7.382
363.33	7.392
363.69	7.411
364.04	7.449
364.40	7.508
364.75	7.541
365.11	7.579
365.46	7.578
365.82	7.612
366.17	7.675
366.53	7.718
366.88	7.734
367.24	7.772
367.59	7.836
367.95	7.869
368.30	7.919
368.66	7.945
369.01	7.935
369.37	7.949
369.72	7.963
370.08	8.001
370.43	8.051
370.78	8.096
371.14	8.166
371.49	8.148
371.85	8.172
372.20	8.221
372.56	8.280
372.91	8.323
373.26	8.417
373.62	8.482
373.97	8.546
374.33	8.621
374.68	8.686
375.03	8.690
375.39	8.801
375.74	8.854
376.10	8.840
376.45	8.852
376.80	8.933
377.16	8.993
377.51	9.081
377.87	9.127
378.22	9.177
378.57	9.283
378.93	9.354
379.28	9.441
379.63	9.566
379.99	9.692
380.34	9.792
380.70	9.877
381.05	9.975
381.40	10.055
381.76	10.156
382.11	10.240
382.46	10.310
382.82	10.481
383.17	10.558
383.52	10.675
383.88	10.787
384.23	10.894
384.58	11.015
384.94	11.140
385.29	11.226
385.64	11.339
385.99	11.419
386.35	11.506
386.70	11.607
387.05	11.702
387.41	11.783
387.76	11.894
388.11	11.992
388.47	12.078
388.82	12.159
389.17	12.270
389.52	12.354
389.88	12.443
390.23	12.535
390.58	12.591
390.93	12.708
391.29	12.765
391.64	12.821
391.99	12.905
392.34	13.000
392.70	13.107
393.05	13.192
393.40	13.281
393.75	13.400
394.11	13.509
394.46	13.596
394.81	13.649
395.16	13.729
395.52	13.840
395.87	13.949
396.22	14.050
396.57	14.102
396.92	14.203
397.28	14.275
397.63	14.334
397.98	14.402
398.33	14.492
398.68	14.581
399.04	14.685
399.39	14.754
399.74	14.791
400.09	14.849
400.44	14.923
400.80	14.990
401.15	15.064
401.50	15.114
401.85	15.169
402.20	15.237
402.55	15.284
402.90	15.356
403.26	15.380
403.61	15.455
403.96	15.507
404.31	15.569
404.66	15.627
405.01	15.702
405.36	15.768
405.72	15.858
406.07	15.886
406.42	15.955
406.77	15.994
407.12	16.051
407.47	16.101
407.82	16.182
408.17	16.220
408.53	16.258
408.88	16.271
409.23	16.347
409.58	16.349
409.93	16.431
410.28	16.467
410.63	16.524
410.98	16.600
411.33	16.659
411.68	16.699
412.03	16.734
412.38	16.766
412.73	16.846
413.09	16.851
413.44	16.898
413.79	16.889
414.14	16.912
414.49	16.960
414.84	17.024
415.19	17.018
415.54	17.020
415.89	17.032
416.24	17.067
416.59	17.059
416.94	17.088
417.29	17.095
417.64	17.144
417.99	17.170
418.34	17.202
418.69	17.197
419.04	17.251
419.39	17.274
419.74	17.317
420.09	17.331
420.44	17.381
420.79	17.419
421.14	17.453
421.49	17.463
421.84	17.479
422.19	17.477
422.54	17.521
422.89	17.555
423.24	17.593
423.59	17.633
423.94	17.690
424.29	17.743
424.64	17.785
424.99	17.856
425.34	17.928
425.68	18.007
426.03	18.099
426.38	18.162
426.73	18.199
427.08	18.265
427.43	18.307
427.78	18.327
428.13	18.325
428.48	18.357
428.83	18.370
429.18	18.379
429.53	18.402
429.87	18.420
430.22	18.423
430.57	18.476
430.92	18.496
431.27	18.546
431.62	18.567
431.97	18.606
432.32	18.639
432.67	18.672
433.01	18.747
433.36	18.791
433.71	18.848
434.06	18.902
434.41	18.914
434.76	18.940
435.11	18.964
435.45	19.007
435.80	19.031
436.15	19.053
436.50	19.080
436.85	19.093
437.20	19.111
437.54	19.114
437.89	19.129
438.24	19.165
438.59	19.197
438.94	19.230
439.29	19.269
439.63	19.294
439.98	19.318
440.33	19.354
440.68	19.363
441.03	19.396
441.37	19.444
441.72	19.483
442.07	19.512
442.42	19.533
442.76	19.566
443.11	19.617
443.46	19.662
443.81	19.697
444.16	19.719
444.50	19.763
444.85	19.793
445.20	19.809
445.55	19.847
445.89	19.874
446.24	19.888
446.59	19.910
446.94	19.901
447.28	19.911
447.63	19.950
447.98	19.989
448.32	20.000
448.67	20.017
449.02	20.051
449.37	20.086
449.71	20.120
450.06	20.193
450.41	20.217
450.75	20.256
451.10	20.293
451.45	20.323
451.79	20.320
452.14	20.350
452.49	20.376
452.84	20.388
453.18	20.394
453.53	20.421
453.88	20.445
454.22	20.474
454.57	20.500
454.92	20.530
455.26	20.547
455.61	20.591
455.95	20.622
456.30	20.669
456.65	20.725
456.99	20.764
457.34	20.784
457.69	20.818
458.03	20.843
458.38	20.884
458.73	20.936
459.07	20.967
459.42	21.014
459.76	21.062
460.11	21.103
460.46	21.132
460.80	21.160
461.15	21.219
461.49	21.254
461.84	21.314
462.19	21.352
462.53	21.387
462.88	21.434
463.22	21.475
463.57	21.510
463.91	21.529
464.26	21.580
464.61	21.611
464.95	21.648
465.30	21.694
465.64	21.721
465.99	21.757
466.33	21.779
466.68	21.829
467.02	21.886
467.37	21.918
467.71	21.984
468.06	22.012
468.41	22.067
468.75	22.093
469.10	22.163
469.44	22.183
469.79	22.254
470.13	22.317
470.48	22.360
470.82	22.383
471.17	22.413
471.51	22.427
471.86	22.462
472.20	22.516
472.55	22.570
472.89	22.560
473.23	22.613
473.58	22.618
473.92	22.644
474.27	22.664
474.61	22.685
474.96	22.727
475.30	22.779
475.65	22.789
475.99	22.810
476.34	22.838
476.68	22.888
477.02	22.924
477.37	22.975
477.71	22.999
478.06	23.039
478.40	23.149
478.75	23.334
479.09	23.582
479.43	24.113
479.78	24.750
480.12	25.439
480.47	26.107
480.81	26.794
481.15	27.470
481.50	28.163
481.84	28.939
482.19	29.793
482.53	30.596
482.87	31.233
483.22	31.440
483.56	31.298
483.90	30.920
484.25	30.420
484.59	29.808
484.94	29.105
485.28	28.328
485.62	27.447
485.97	26.469
486.31	25.587
486.65	24.880
487.00	24.412
487.34	24.142
487.68	24.080
488.03	24.068
488.37	24.101
488.71	24.200
489.06	24.319
489.40	24.443
489.74	24.561
490.09	24.674
490.43	24.738
490.77	24.808
491.11	24.899
491.46	24.871
491.80	24.892
492.14	24.900
492.49	24.884
492.83	24.903
493.17	24.877
493.51	24.889
493.86	24.888
494.20	24.930
494.54	24.964
494.88	24.983
495.23	25.055
495.57	25.102
495.91	25.158
496.25	25.200
496.60	25.220
496.94	25.305
497.28	25.361
497.62	25.402
497.97	25.463
498.31	25.529
498.65	25.617
498.99	25.676
499.33	25.740
499.68	25.815
500.02	25.901
500.36	25.955
500.70	25.988
501.04	26.057
501.39	26.146
501.73	26.188
502.07	26.247
502.41	26.299
502.75	26.338
503.09	26.382
503.44	26.433
503.78	26.484
504.12	26.564
504.46	26.621
504.80	26.678
505.14	26.738
505.49	26.805
505.83	26.873
506.17	26.955
506.51	27.035
506.85	27.126
507.19	27.177
507.53	27.198
507.87	27.257
508.22	27.313
508.56	27.368
508.90	27.418
509.24	27.493
509.58	27.533
509.92	27.568
510.26	27.630
510.60	27.655
510.94	27.712
511.28	27.805
511.63	27.870
511.97	27.969
512.31	28.030
512.65	28.109
512.99	28.165
513.33	28.261
513.67	28.336
514.01	28.401
514.35	28.478
514.69	28.563
515.03	28.649
515.37	28.710
515.71	28.754
516.05	28.808
516.39	28.849
516.73	28.913
517.07	28.958
517.41	29.003
517.75	29.056
518.09	29.106
518.43	29.160
518.77	29.181
519.11	29.221
519.45	29.239
519.79	29.261
520.13	29.279
520.47	29.319
520.81	29.373
521.15	29.431
521.49	29.457
521.83	29.543
522.17	29.574
522.51	29.638
522.85	29.709
523.19	29.872
523.53	30.081
523.87	30.338
524.21	30.613
524.55	30.924
524.89	31.258
525.23	31.643
525.57	31.958
525.91	32.299
526.25	32.637
526.58	32.953
526.92	33.197
527.26	33.319
527.60	33.230
527.94	32.919
528.28	32.548
528.62	32.187
528.96	31.937
529.30	31.720
529.64	31.472
529.97	31.200
530.31	30.913
530.65	30.643
530.99	30.502
531.33	30.585
531.67	30.896
532.01	31.222
532.35	31.497
532.68	31.555
533.02	31.561
533.36	31.562
533.70	31.549
534.04	31.542
534.38	31.545
534.71	31.538
535.05	31.519
535.39	31.517
535.73	31.545
536.07	31.586
536.41	31.669
536.74	31.752
537.08	31.855
537.42	31.938
537.76	32.035
538.10	32.144
538.43	32.234
538.77	32.345
539.11	32.444
539.45	32.534
539.79	32.594
540.12	32.608
540.46	32.637
540.80	32.624
541.14	32.655
541.47	32.642
541.81	32.630
542.15	32.633
542.49	32.612
542.82	32.557
543.16	32.510
543.50	32.468
543.84	32.471
544.17	32.463
544.51	32.488
544.85	32.464
545.18	32.489
545.52	32.502
545.86	32.517
546.20	32.535
546.53	32.603
546.87	32.627
547.21	32.699
547.54	32.757
547.88	32.805
548.22	32.841
548.55	32.894
548.89	32.955
549.23	33.008
549.56	33.054
549.90	33.076
550.24	33.081
550.57	33.140
550.91	33.161
551.25	33.162
551.58	33.199
551.92	33.266
552.26	33.301
552.59	33.364
552.93	33.409
553.27	33.424
553.60	33.504
553.94	33.545
554.27	33.579
554.61	33.638
554.95	33.709
555.28	33.773
555.62	33.781
555.95	33.836
556.29	33.865
556.63	33.929
556.96	34.033
557.30	34.051
557.63	34.133
557.97	34.175
558.31	34.210
558.64	34.264
558.98	34.294
559.31	34.365
559.65	34.424
559.98	34.451
560.32	34.514
560.65	34.529
560.99	34.555
561.33	34.583
561.66	34.661
562.00	34.706
562.33	34.747
562.67	34.779
563.00	34.789
563.34	34.834
563.67	34.891
564.01	34.926
564.34	34.980
564.68	35.056
565.01	35.114
565.35	35.136
565.68	35.220
566.02	35.269
566.35	35.310
566.69	35.417
567.02	35.479
567.36	35.560
567.69	35.636
568.03	35.694
568.36	35.757
568.69	35.771
569.03	35.818
569.36	35.840
569.70	35.874
570.03	35.960
570.37	35.992
570.70	36.018
571.04	36.048
571.37	36.055
571.70	36.092
572.04	36.132
572.37	36.221
572.71	36.318
573.04	36.372
573.37	36.438
573.71	36.496
574.04	36.532
574.38	36.593
574.71	36.626
575.04	36.702
575.38	36.783
575.71	36.839
576.05	36.925
576.38	36.970
576.71	37.024
577.05	37.097
577.38	37.169
577.71	37.305
578.05	37.370
578.38	37.483
578.71	37.547
579.05	37.596
579.38	37.656
579.71	37.656
580.05	37.659
580.38	37.781
580.71	37.842
581.05	37.887
581.38	37.893
581.71	37.973
582.05	37.958
582.38	37.973
582.71	38.038
583.04	38.168
583.38	38.255
583.71	38.363
584.04	38.335
584.38	38.389
584.71	38.455
585.04	38.494
585.37	38.571
585.71	38.705
586.04	38.823
586.37	38.884
586.70	38.905
587.04	38.928
587.37	38.961
587.70	39.048
588.03	39.117
588.37	39.159
588.70	39.236
589.03	39.280
589.36	39.312
589.69	39.370
590.03	39.430
590.36	39.449
590.69	39.562
591.02	39.636
591.35	39.720
591.69	39.806
592.02	39.898
592.35	39.898
592.68	39.946
593.01	39.989
593.35	39.979
593.68	39.984
594.01	40.020
594.34	40.047
594.67	40.058
595.00	40.063
595.34	40.065
595.67	40.042
596.00	40.131
596.33	40.175
596.66	40.251
596.99	40.345
597.32	40.439
597.65	40.557
597.99	40.606
598.32	40.711
598.65	40.799
598.98	40.879
599.31	40.952
599.64	41.029
599.97	41.075
600.30	41.092
600.63	41.137
600.96	41.147
601.30	41.134
601.63	41.176
601.96	41.202
602.29	41.264
602.62	41.319
602.95	41.421
603.28	41.461
603.61	41.540
603.94	41.613
604.27	41.653
604.60	41.725
604.93	41.807
605.26	41.861
605.59	41.896
605.92	41.928
606.25	41.966
606.58	41.957
606.91	42.006
607.24	42.036
607.57	42.065
607.90	42.100
608.23	42.163
608.56	42.203
608.89	42.301
609.22	42.383
609.55	42.468
609.88	42.520
610.21	42.597
610.54	42.666
610.87	42.741
611.20	42.832
611.53	42.937
611.86	42.924
612.19	42.979
612.52	42.968
612.85	42.997
613.18	42.974
613.51	42.990
613.84	43.010
614.17	43.032
614.49	43.041
614.82	43.048
615.15	43.057
615.48	43.158
615.81	43.192
616.14	43.257
616.47	43.314
616.80	43.407
617.13	43.433
617.46	43.483
617.78	43.503
618.11	43.545
618.44	43.602
618.77	43.638
619.10	43.651
619.43	43.704
619.76	43.759
620.09	43.831
620.41	43.807
620.74	43.844
621.07	43.862
621.40	43.886
621.73	43.911
622.06	43.966
622.38	43.988
622.71	44.046
623.04	44.001
623.37	43.974
623.70	43.951
624.02	43.971
624.35	44.054
624.68	44.137
625.01	44.212
625.34	44.225
625.66	44.197
625.99	44.174
626.32	44.167
626.65	44.223
626.98	44.270
627.30	44.314
627.63	44.352
627.96	44.390
628.29	44.348
628.61	44.314
628.94	44.340
629.27	44.352
629.60	44.464
629.92	44.545
630.25	44.584
630.58	44.622
630.91	44.651
631.23	44.693
631.56	44.712
631.89	44.780
632.21	44.829
632.54	44.870
632.87	44.972
633.19	44.986
633.52	45.047
633.85	45.066
634.18	45.105
634.50	45.046
634.83	45.132
635.16	45.129
635.48	45.124
635.81	45.149
636.14	45.158
636.46	45.207
636.79	45.272
637.11	45.229
637.44	45.305
637.77	45.320
638.09	45.450
638.42	45.452
638.75	45.452
639.07	45.523
639.40	45.549
639.73	45.590
640.05	45.584
640.38	45.576
640.70	45.552
641.03	45.533
641.36	45.590
641.68	45.572
642.01	45.552
642.33	45.558
642.66	45.583
642.98	45.652
643.31	45.699
643.64	45.668
643.96	45.662
644.29	45.716
644.61	45.709
644.94	45.639
645.26	45.641
645.59	45.612
645.91	45.623
646.24	45.637
646.56	45.650
646.89	45.606
647.22	45.578
647.54	45.581
647.87	45.581
648.19	45.637
648.52	45.609
648.84	45.631
649.17	45.660
649.49	45.733
649.82	45.674
650.14	45.690
650.47	45.796
650.79	45.836
651.11	45.887
651.44	45.909
651.76	45.908
652.09	46.037
652.41	46.069
652.74	46.137
653.06	46.153
653.39	46.196
653.71	46.135
654.04	46.070
654.36	46.050
654.68	45.997
655.01	46.035
655.33	46.021
655.66	45.939
655.98	45.858
656.30	45.785
656.63	45.725
656.95	45.693
657.28	45.686
657.60	45.659
657.92	45.688
658.25	45.731
658.57	45.697
658.90	45.667
659.22	45.658
659.54	45.670
659.87	45.666
660.19	45.682
660.51	45.687
660.84	45.727
661.16	45.784
661.48	45.825
661.81	45.745
662.13	45.776
662.45	45.789
662.78	45.833
663.10	45.852
663.42	45.890
663.75	45.974
664.07	46.037
664.39	45.969
664.72	45.852
665.04	45.761
665.36	45.839
665.69	45.874
666.01	45.884
666.33	45.870
666.65	45.922
666.98	45.957
667.30	45.910
667.62	45.872
667.94	45.968
668.27	46.038
668.59	46.029
668.91	45.976
669.23	45.875
669.56	45.931
669.88	45.900
670.20	45.902
670.52	45.823
670.85	45.705
671.17	45.741
671.49	45.703
671.81	45.738
672.13	45.813
672.46	45.833
672.78	45.894
673.10	45.837
673.42	45.826
673.74	45.842
674.07	45.879
674.39	45.987
674.71	45.971
675.03	45.929
675.35	45.898
675.67	45.777
676.00	45.770
676.32	45.766
676.64	45.799
676.96	45.847
677.28	45.783
677.60	45.801
677.92	45.749
678.25	45.757
678.57	45.778
678.89	45.726
679.21	45.809
679.53	45.835
679.85	45.805
680.17	45.779
680.49	45.672
680.81	45.634
681.13	45.576
681.46	45.603
681.78	45.635
682.10	45.634
682.42	45.582
682.74	45.526
683.06	45.406
683.38	45.277
683.70	45.289
684.02	45.263
684.34	45.214
684.66	45.288
684.98	45.372
685.30	45.270
685.62	45.241
685.94	45.340
686.26	45.289
686.58	45.329
686.90	45.430
687.22	45.339
687.54	45.434
687.86	45.529
688.18	45.488
688.50	45.425
688.82	45.443
689.14	45.446
689.46	45.470
689.78	45.492
690.10	45.506
690.42	45.480
690.74	45.568
691.06	45.557
691.38	45.523
691.70	45.523
692.02	45.384
692.34	45.438
692.66	45.354
692.98	45.279
693.30	45.314
693.62	45.286
693.94	45.262
694.26	45.219
694.57	45.192
694.89	45.224
695.21	45.116
695.53	45.141
695.85	45.029
696.17	44.982
696.49	44.971
696.81	44.914
697.13	44.897
697.44	44.856
697.76	44.748
698.08	44.757
698.40	44.784
698.72	44.817
699.04	44.800
699.36	44.822
699.67	44.826
699.99	44.837
700.31	44.822
700.63	44.696
700.95	44.650
701.27	44.637
701.58	44.497
701.90	44.262
702.22	44.153
702.54	44.059
702.86	43.952
703.17	43.928
703.49	43.799
703.81	43.721
704.13	43.770
704.45	43.695
704.76	43.611
705.08	43.467
705.40	43.416
705.72	43.307
706.03	43.278
706.35	43.275
706.67	43.189
706.99	43.091
707.30	43.060
707.62	42.984
707.94	42.990
708.26	42.999
708.57	43.086
708.89	43.138
709.21	43.065
709.53	42.918
709.84	42.744
710.16	42.618
710.48	42.640
710.79	42.599
711.11	42.585
711.43	42.511
711.74	42.533
712.06	42.498
712.38	42.445
712.69	42.524
713.01	42.580
713.33	42.659
713.64	42.759
713.96	42.763
714.28	42.794
714.59	42.714
714.91	42.756
715.23	42.610
715.54	42.465
715.86	42.488
716.17	42.435
716.49	42.393
716.81	42.401
717.12	42.326
717.44	42.359
717.76	42.234
718.07	42.209
718.39	42.073
718.70	42.140
719.02	42.317
719.33	42.109
719.65	42.050
719.97	41.988
720.28	41.789
720.60	41.721
720.91	41.608
721.23	41.495
721.54	41.422
721.86	41.455
722.17	41.345
722.49	41.054
722.81	41.055
723.12	41.203
723.44	41.153
723.75	41.196
724.07	41.131
724.38	40.955
724.70	40.930
725.01	40.965
725.33	40.828
725.64	40.817
725.96	40.860
726.27	40.832
726.59	40.667
726.90	40.703
727.22	40.752
727.53	40.739
727.84	40.782
728.16	40.758
728.47	40.685
728.79	40.703
729.10	40.754
729.42	40.764
729.73	40.680
730.05	40.568
730.36	40.445
730.67	40.261
730.99	40.164
731.30	40.015
731.62	39.940
731.93	39.816
732.24	39.705
732.56	39.623
732.87	39.472
733.19	39.589
733.50	39.617
733.81	39.631
734.13	39.510
734.44	39.427
734.76	39.476
735.07	39.369
735.38	39.334
735.70	39.224
736.01	39.165
736.32	39.253
736.64	38.856
736.95	38.684
737.26	38.594
737.58	38.675
737.89	38.743
738.20	38.648
738.52	38.750
738.83	38.750
739.14	38.817
739.45	38.619
739.77	38.532
740.08	38.605
740.39	38.565
740.71	38.373
741.02	38.161
741.33	38.038
741.64	37.883
741.96	37.671
742.27	37.636
742.58	37.607
742.90	37.594
743.21	37.278
743.52	37.214
743.83	37.161
744.14	37.103
744.46	37.040
744.77	37.108
745.08	36.927
745.39	36.929
745.71	36.708
746.02	36.469
746.33	36.432
746.64	36.570
746.95	36.554
747.27	36.493
747.58	36.401
747.89	36.529
748.20	36.222
748.51	36.463
748.82	36.367
749.14	36.364
749.45	36.315
749.76	36.136
750.07	35.960
750.38	36.006
750.69	35.898
751.01	35.956
751.32	35.955
751.63	36.180
751.94	36.033
752.25	36.121
752.56	36.125
752.87	36.094
753.18	36.137
753.49	36.298
753.81	36.069
754.12	35.838
754.43	35.758
754.74	35.694
755.05	35.453
755.36	35.458
755.67	35.424
755.98	35.404
756.29	35.473
756.60	35.568
756.91	35.552
757.22	35.667
757.53	35.895
757.84	35.828
758.15	35.712
758.46	35.967
758.77	35.913
759.09	36.011
759.40	36.019
759.71	35.973
760.02	35.965
760.33	35.977
760.64	35.970
760.95	35.987
761.26	35.995
761.57	35.944
761.88	35.809
762.18	35.872
762.49	35.859
762.80	35.842
763.11	35.941
763.42	35.885
763.73	35.684
764.04	35.607
764.35	35.547
764.66	35.501
764.97	35.415
765.28	35.415
765.59	35.134
765.90	34.989
766.21	34.794
766.52	34.557
766.83	34.379
767.14	34.381
767.44	34.275
767.75	34.174
768.06	34.099
768.37	34.112
768.68	33.793
768.99	33.999
769.30	33.780
769.61	33.730
769.91	33.630
770.22	33.496
770.53	33.449
770.84	33.400
771.15	33.382
771.46	33.374
771.77	33.284
772.07	33.350
772.38	33.473
772.69	33.402
773.00	33.646
773.31	33.668
773.61	33.793
773.92	33.738
774.23	33.510
774.54	33.309
774.85	33.403
775.15	33.487
775.46	33.408
775.77	32.761
776.08	32.642
776.39	32.468
776.69	32.344
777.00	32.248
777.31	32.469
777.62	32.536
777.92	32.365
778.23	31.949
778.54	31.885
778.85	31.648
779.15	31.738
779.46	31.612
779.77	31.590
780.07	31.824
780.38	31.831
780.69	31.447
781.00	31.382
781.30	31.710
781.61	31.921
781.92	31.869
782.22	32.151
782.53	32.469
782.84	32.756
783.14	32.413
783.45	32.016
783.76	31.654
784.06	31.493
784.37	31.730
784.68	31.849
784.98	31.674
785.29	32.106
785.60	32.102
785.90	31.760
786.21	31.717
786.51	31.813
786.82	31.789
787.13	32.342
787.43	32.726
787.74	32.649
788.04	32.261
788.35	32.518
788.66	32.157
788.96	32.282
789.27	32.348
789.57	32.308
789.88	32.512
790.19	32.588
790.49	32.261
790.80	32.083
791.10	31.911
791.41	31.832
791.71	31.913
792.02	32.033
792.32	31.736
792.63	31.811
792.93	31.940
793.24	31.990
793.54	32.205
793.85	31.848
794.15	31.835
794.46	31.968
794.76	32.116
795.07	32.098
795.37	31.733
795.68	31.599
795.98	31.718
796.29	31.769
796.59	31.222
796.90	30.628
797.20	31.073
797.51	30.728
797.81	30.526
798.12	30.643
798.42	30.448
798.72	30.575
799.03	30.775
799.33	30.666
799.64	30.127
799.94	30.295
800.25	30.619
800.55	30.412
800.85	30.690
801.16	30.391
801.46	30.286
801.77	29.867
802.07	29.878
802.37	30.077
802.68	30.298
802.98	30.575
803.28	30.741
803.59	30.548
803.89	30.446
804.20	30.348
804.50	31.059
804.80	31.039
805.11	31.558
805.41	31.884
805.71	31.855
806.02	31.212
806.32	31.523
806.62	31.536
806.93	32.028
807.23	32.204
807.53	32.336
807.83	32.305
808.14	32.544
808.44	32.573
808.74	32.057
809.05	31.948
809.35	32.719
809.65	32.328
809.95	32.434
810.26	32.162
810.56	32.203
810.86	32.644
811.16	32.280
811.47	31.795
811.77	31.878
812.07	32.287
812.37	32.615
812.68	32.479
812.98	32.872
813.28	33.086
813.58	33.294
813.88	33.052
814.19	32.564
814.49	32.231
814.79	32.267
815.09	32.182
815.39	31.845
815.70	31.669
816.00	31.562
816.30	31.415
816.60	30.967
816.90	30.904
817.20	31.021
817.50	31.200
817.81	31.593
818.11	31.660
818.41	31.883
818.71	32.041
819.01	32.046
819.31	31.991
819.61	32.008
819.92	32.108
820.22	32.173
820.52	32.124
820.82	32.122
821.12	32.080
821.42	32.199
821.72	32.148
822.02	32.173
822.32	32.206
822.62	32.260
822.92	32.230
823.22	32.299
823.52	32.299
823.83	32.290
824.13	32.284
824.43	32.347
824.73	32.283
825.03	32.204
825.33	31.997
825.63	31.819
825.93	31.810
826.23	31.824
826.53	31.614
826.83	31.443
827.13	31.524
827.43	31.619
827.73	31.398
828.03	31.267
828.33	31.247
828.63	31.309
828.93	31.416
829.23	31.297
829.53	31.124
829.83	31.098
830.13	30.947
830.42	30.829
830.72	30.315
831.02	30.661
831.32	30.897
831.62	30.823
831.92	30.846
832.22	30.914
832.52	30.805
832.82	30.879
833.12	30.705
833.42	31.009
833.72	31.023
834.01	31.002
834.31	30.934
834.61	30.501
834.91	30.605
835.21	30.689
835.51	30.468
835.81	30.457
836.11	30.451
836.40	30.588
836.70	30.415
837.00	30.402
837.30	30.979
837.60	31.433
837.90	31.744
838.19	31.951
838.49	31.546
838.79	31.916
839.09	32.181
839.39	31.340
839.68	31.361
839.98	31.185
840.28	30.780
840.58	30.123
840.88	29.711
841.17	29.504
841.47	29.027
841.77	29.263
842.07	27.789
842.36	26.951
842.66	27.685
842.96	27.510
843.26	27.706
843.55	27.757
843.85	28.547
844.15	27.903
844.45	28.494
844.74	28.812
845.04	28.251
845.34	29.500
845.63	30.146
845.93	30.033
846.23	30.433
846.53	30.629
846.82	31.463
847.12	30.432
847.42	31.359
847.71	32.372
848.01	31.577
848.31	32.460
848.60	33.491
848.90	33.728
849.19	34.314
849.49	34.991
849.79	33.267
850.08	33.742
850.38	34.885
850.68	33.789
850.97	32.656
851.27	33.300
851.56	32.866
851.86	31.601
852.16	31.112
852.45	31.986
852.75	30.847
853.04	31.826
853.34	32.100
853.64	32.501
853.93	31.251
854.23	30.803
854.52	30.544
854.82	32.253
855.11	31.476
855.41	31.261
855.70	31.528
856.00	32.652
856.30	32.262
856.59	30.708
856.89	30.878
857.18	31.947
857.48	33.387
857.77	33.816
858.07	31.709
858.36	32.494
858.66	32.273
858.95	30.711
859.25	31.662
859.54	30.606
859.84	30.956
860.13	30.083
860.42	29.633
860.72	29.920
861.01	29.627
861.31	29.937
861.60	28.815
861.90	29.158
862.19	28.873
862.49	27.327
862.78	28.794
863.07	28.190
863.37	28.049
863.66	29.113
863.96	28.052
864.25	28.943
864.54	29.042
864.84	30.108
865.13	29.327
865.43	28.379
865.72	40.643
866.01	29.663
866.31	30.594
866.60	21.300
866.89	14.291
>>>>>End Spectral Data<<<<<
