OOIBase32 Version 2.0.0.6 Data File
++++++++++++++++++++++++++++++++++++
Date: 01-20-2012, 22:07:27
User: Valued Ocean Optics Customer
Spectrometer Serial Number: USB2E2917
Spectrometer Channel: Master
Integration Time (msec): 4
Spectra Averaged: 10
Boxcar Smoothing: 5
Correct for Electrical Dark: Enabled
Time Normalized: Disabled
Dual-beam Reference: Disabled
Reference Channel: Master
Temperature: Not acquired
Spectrometer Type: S2000
ADC Type: USB2000
Number of Pixels in File: 2048
Graph Title: 
>>>>>Begin Spectral Data<<<<<
180.30	0.000
180.67	0.000
181.03	-0.890
181.40	-14.754
181.77	410.828
182.14	-13680.533
182.51	85.233
182.88	-283.311
183.25	90.707
183.62	76.069
183.99	-132.548
184.36	8.329
184.73	-35.124
185.10	-216.195
185.46	-116.182
185.83	-20.414
186.20	425.389
186.57	129.963
186.94	91.374
187.31	186.687
187.68	78.604
188.05	27.867
188.42	30.976
188.78	34.237
189.15	21.365
189.52	33.255
189.89	28.476
190.26	23.169
190.63	20.977
191.00	17.462
191.37	8.698
191.73	10.848
192.10	4.517
192.47	7.294
192.84	3.768
193.21	19.387
193.58	16.693
193.94	19.252
194.31	23.386
194.68	20.410
195.05	13.822
195.42	22.780
195.79	33.288
196.15	43.286
196.52	40.305
196.89	36.221
197.26	25.900
197.63	25.430
198.00	22.757
198.36	17.205
198.73	17.871
199.10	27.510
199.47	25.024
199.84	13.987
200.20	14.570
200.57	12.773
200.94	10.683
201.31	7.717
201.68	7.486
202.04	14.205
202.41	11.219
202.78	17.390
203.15	4.601
203.51	8.390
203.88	15.496
204.25	10.317
204.62	8.988
204.98	17.373
205.35	28.452
205.72	28.175
206.09	19.988
206.46	25.542
206.82	18.232
207.19	19.931
207.56	21.646
207.92	9.566
208.29	15.197
208.66	14.733
209.03	6.505
209.39	-3.385
209.76	-12.109
210.13	-10.349
210.50	-8.377
210.86	-2.451
211.23	-0.188
211.60	-10.365
211.96	2.422
212.33	1.878
212.70	-1.285
213.07	2.263
213.43	8.005
213.80	15.813
214.17	21.704
214.53	17.356
214.90	8.583
215.27	14.394
215.63	17.598
216.00	17.015
216.37	10.504
216.74	8.074
217.10	9.033
217.47	3.885
217.84	-1.653
218.20	-4.232
218.57	-2.597
218.94	3.772
219.30	-0.427
219.67	5.302
220.04	2.580
220.40	0.347
220.77	5.585
221.13	8.935
221.50	9.702
221.87	12.480
222.23	10.855
222.60	10.684
222.97	11.402
223.33	13.488
223.70	10.202
224.07	11.911
224.43	12.628
224.80	12.614
225.16	10.484
225.53	11.044
225.90	10.341
226.26	10.231
226.63	9.772
226.99	9.373
227.36	8.499
227.73	8.821
228.09	8.524
228.46	8.310
228.82	7.490
229.19	6.980
229.56	5.882
229.92	6.112
230.29	6.229
230.65	7.282
231.02	7.393
231.38	7.179
231.75	6.732
232.12	6.260
232.48	6.466
232.85	6.574
233.21	8.076
233.58	7.606
233.94	6.900
234.31	6.559
234.68	5.701
235.04	5.057
235.41	4.716
235.77	4.754
236.14	4.783
236.50	5.040
236.87	5.574
237.23	5.385
237.60	6.654
237.96	6.917
238.33	7.028
238.69	6.632
239.06	6.376
239.42	6.640
239.79	6.496
240.15	6.555
240.52	6.588
240.88	6.534
241.25	6.489
241.61	6.225
241.98	6.153
242.34	5.853
242.71	5.914
243.07	5.943
243.44	5.707
243.80	5.791
244.17	5.838
244.53	5.802
244.90	5.756
245.26	5.826
245.63	5.893
245.99	5.839
246.36	5.913
246.72	5.922
247.09	5.977
247.45	6.248
247.81	6.003
248.18	5.913
248.54	5.720
248.91	5.677
249.27	5.802
249.64	5.470
250.00	5.267
250.36	5.444
250.73	5.205
251.09	5.050
251.46	4.798
251.82	4.923
252.19	4.669
252.55	4.961
252.91	5.155
253.28	4.539
253.64	4.907
254.01	5.524
254.37	5.373
254.73	5.636
255.10	5.623
255.46	5.316
255.83	5.408
256.19	5.458
256.55	5.331
256.92	5.314
257.28	5.346
257.65	5.309
258.01	5.119
258.37	5.115
258.74	5.202
259.10	5.322
259.46	5.378
259.83	5.381
260.19	5.370
260.55	5.289
260.92	5.149
261.28	5.270
261.64	5.299
262.01	5.301
262.37	5.194
262.73	5.077
263.10	4.820
263.46	4.932
263.82	4.875
264.19	4.967
264.55	5.110
264.91	5.001
265.28	4.862
265.64	4.728
266.00	4.865
266.37	5.124
266.73	4.890
267.09	5.094
267.46	5.092
267.82	5.210
268.18	5.076
268.54	4.934
268.91	5.022
269.27	4.930
269.63	4.929
270.00	4.870
270.36	4.758
270.72	4.766
271.08	4.604
271.45	4.743
271.81	4.462
272.17	4.487
272.53	4.487
272.90	4.340
273.26	4.368
273.62	4.514
273.98	4.370
274.35	4.246
274.71	4.241
275.07	4.375
275.43	4.052
275.80	4.383
276.16	4.296
276.52	4.466
276.88	4.619
277.25	4.558
277.61	4.401
277.97	4.528
278.33	4.431
278.69	4.561
279.06	4.443
279.42	4.495
279.78	4.240
280.14	4.292
280.50	4.201
280.87	4.181
281.23	4.223
281.59	4.232
281.95	4.067
282.31	4.203
282.68	4.205
283.04	4.179
283.40	4.219
283.76	4.412
284.12	4.446
284.48	4.528
284.85	4.419
285.21	4.497
285.57	4.610
285.93	4.733
286.29	4.738
286.65	4.811
287.02	4.832
287.38	4.691
287.74	4.617
288.10	4.659
288.46	4.565
288.82	4.778
289.18	4.738
289.54	4.552
289.91	4.528
290.27	4.491
290.63	4.382
290.99	4.544
291.35	4.725
291.71	4.689
292.07	4.734
292.43	4.742
292.79	4.777
293.16	4.832
293.52	5.064
293.88	5.259
294.24	5.332
294.60	5.305
294.96	5.426
295.32	5.555
295.68	5.703
296.04	5.818
296.40	6.007
296.76	6.196
297.12	6.367
297.49	6.523
297.85	6.586
298.21	6.795
298.57	7.080
298.93	7.149
299.29	7.369
299.65	7.738
300.01	8.040
300.37	8.217
300.73	8.336
301.09	8.595
301.45	8.780
301.81	9.347
302.17	9.636
302.53	9.909
302.89	10.167
303.25	10.429
303.61	10.653
303.97	10.902
304.33	11.369
304.69	11.854
305.05	12.237
305.41	12.605
305.77	12.688
306.13	13.044
306.49	13.589
306.85	14.067
307.21	14.359
307.57	14.678
307.93	15.068
308.29	15.215
308.65	15.360
309.01	15.486
309.37	15.719
309.73	15.881
310.09	16.147
310.45	16.266
310.81	16.409
311.17	16.739
311.53	16.934
311.89	16.971
312.25	17.213
312.61	17.375
312.96	17.597
313.32	17.715
313.68	17.930
314.04	18.047
314.40	18.149
314.76	18.184
315.12	18.109
315.48	18.218
315.84	18.378
316.20	18.494
316.56	18.479
316.92	18.549
317.27	18.597
317.63	18.735
317.99	18.751
318.35	18.871
318.71	18.920
319.07	18.986
319.43	19.000
319.79	18.985
320.15	18.816
320.50	18.938
320.86	18.987
321.22	19.009
321.58	18.924
321.94	18.831
322.30	18.697
322.66	18.796
323.01	18.693
323.37	18.617
323.73	18.575
324.09	18.624
324.45	18.532
324.81	18.475
325.17	18.383
325.52	18.258
325.88	18.243
326.24	18.105
326.60	17.967
326.96	17.929
327.31	17.817
327.67	17.801
328.03	17.824
328.39	17.760
328.75	17.716
329.11	17.694
329.46	17.741
329.82	17.738
330.18	17.841
330.54	17.792
330.90	17.752
331.25	17.768
331.61	17.705
331.97	17.626
332.33	17.606
332.68	17.523
333.04	17.474
333.40	17.377
333.76	17.293
334.11	17.239
334.47	17.148
334.83	17.183
335.19	17.189
335.54	17.164
335.90	17.131
336.26	17.166
336.62	17.067
336.97	17.112
337.33	17.091
337.69	17.046
338.05	17.078
338.40	17.102
338.76	17.045
339.12	16.947
339.48	16.882
339.83	16.749
340.19	16.665
340.55	16.698
340.90	16.551
341.26	16.491
341.62	16.397
341.97	16.294
342.33	16.298
342.69	16.203
343.04	16.127
343.40	16.025
343.76	16.028
344.12	15.930
344.47	15.875
344.83	15.829
345.19	15.798
345.54	15.832
345.90	15.769
346.26	15.688
346.61	15.660
346.97	15.622
347.32	15.616
347.68	15.560
348.04	15.555
348.39	15.442
348.75	15.427
349.11	15.463
349.46	15.368
349.82	15.325
350.18	15.262
350.53	15.285
350.89	15.300
351.24	15.205
351.60	15.144
351.96	15.111
352.31	15.117
352.67	15.092
353.02	14.933
353.38	14.890
353.74	14.834
354.09	14.706
354.45	14.554
354.80	14.413
355.16	14.356
355.52	14.333
355.87	14.233
356.23	14.150
356.58	14.019
356.94	13.984
357.29	13.926
357.65	13.868
358.00	13.865
358.36	13.810
358.72	13.769
359.07	13.763
359.43	13.736
359.78	13.696
360.14	13.614
360.49	13.597
360.85	13.581
361.20	13.525
361.56	13.476
361.91	13.442
362.27	13.337
362.62	13.301
362.98	13.225
363.33	13.132
363.69	13.070
364.04	13.077
364.40	13.055
364.75	12.982
365.11	12.900
365.46	12.835
365.82	12.759
366.17	12.770
366.53	12.729
366.88	12.692
367.24	12.697
367.59	12.722
367.95	12.681
368.30	12.649
368.66	12.597
369.01	12.590
369.37	12.537
369.72	12.501
370.08	12.485
370.43	12.444
370.78	12.377
371.14	12.285
371.49	12.165
371.85	12.108
372.20	12.038
372.56	11.983
372.91	11.918
373.26	11.868
373.62	11.803
373.97	11.761
374.33	11.763
374.68	11.724
375.03	11.666
375.39	11.629
375.74	11.558
376.10	11.452
376.45	11.436
376.80	11.404
377.16	11.356
377.51	11.356
377.87	11.313
378.22	11.221
378.57	11.192
378.93	11.185
379.28	11.171
379.63	11.170
379.99	11.181
380.34	11.132
380.70	11.079
381.05	11.014
381.40	10.932
381.76	10.837
382.11	10.796
382.46	10.750
382.82	10.717
383.17	10.623
383.52	10.564
383.88	10.514
384.23	10.489
384.58	10.472
384.94	10.469
385.29	10.416
385.64	10.417
385.99	10.358
386.35	10.304
386.70	10.237
387.05	10.235
387.41	10.154
387.76	10.077
388.11	10.008
388.47	9.912
388.82	9.863
389.17	9.838
389.52	9.799
389.88	9.750
390.23	9.721
390.58	9.664
390.93	9.652
391.29	9.591
391.64	9.553
391.99	9.537
392.34	9.512
392.70	9.448
393.05	9.408
393.40	9.353
393.75	9.338
394.11	9.271
394.46	9.228
394.81	9.123
395.16	9.102
395.52	9.089
395.87	9.023
396.22	8.978
396.57	8.955
396.92	8.908
397.28	8.867
397.63	8.803
397.98	8.767
398.33	8.705
398.68	8.672
399.04	8.609
399.39	8.541
399.74	8.479
400.09	8.437
400.44	8.377
400.80	8.330
401.15	8.273
401.50	8.213
401.85	8.174
402.20	8.149
402.55	8.100
402.90	8.091
403.26	8.034
403.61	7.989
403.96	7.951
404.31	7.933
404.66	7.892
405.01	7.863
405.36	7.839
405.72	7.819
406.07	7.767
406.42	7.722
406.77	7.668
407.12	7.632
407.47	7.622
407.82	7.589
408.17	7.527
408.53	7.475
408.88	7.422
409.23	7.384
409.58	7.331
409.93	7.304
410.28	7.289
410.63	7.288
410.98	7.292
411.33	7.270
411.68	7.260
412.03	7.231
412.38	7.203
412.73	7.192
413.09	7.153
413.44	7.099
413.79	7.024
414.14	7.009
414.49	6.977
414.84	6.935
415.19	6.870
415.54	6.821
415.89	6.791
416.24	6.754
416.59	6.708
416.94	6.682
417.29	6.672
417.64	6.671
417.99	6.634
418.34	6.612
418.69	6.580
419.04	6.573
419.39	6.557
419.74	6.540
420.09	6.528
420.44	6.519
420.79	6.502
421.14	6.473
421.49	6.451
421.84	6.428
422.19	6.395
422.54	6.393
422.89	6.368
423.24	6.344
423.59	6.340
423.94	6.327
424.29	6.323
424.64	6.310
424.99	6.306
425.34	6.298
425.68	6.300
426.03	6.289
426.38	6.281
426.73	6.286
427.08	6.303
427.43	6.277
427.78	6.258
428.13	6.241
428.48	6.252
428.83	6.272
429.18	6.266
429.53	6.261
429.87	6.275
430.22	6.286
430.57	6.282
430.92	6.273
431.27	6.275
431.62	6.301
431.97	6.319
432.32	6.313
432.67	6.295
433.01	6.324
433.36	6.345
433.71	6.355
434.06	6.353
434.41	6.365
434.76	6.359
435.11	6.380
435.45	6.374
435.80	6.372
436.15	6.381
436.50	6.403
436.85	6.380
437.20	6.371
437.54	6.361
437.89	6.354
438.24	6.346
438.59	6.354
438.94	6.352
439.29	6.366
439.63	6.357
439.98	6.356
440.33	6.352
440.68	6.362
441.03	6.354
441.37	6.377
441.72	6.379
442.07	6.404
442.42	6.403
442.76	6.412
443.11	6.415
443.46	6.420
443.81	6.416
444.16	6.412
444.50	6.419
444.85	6.414
445.20	6.410
445.55	6.409
445.89	6.394
446.24	6.394
446.59	6.378
446.94	6.366
447.28	6.359
447.63	6.350
447.98	6.349
448.32	6.331
448.67	6.326
449.02	6.311
449.37	6.309
449.71	6.283
450.06	6.283
450.41	6.284
450.75	6.298
451.10	6.301
451.45	6.302
451.79	6.284
452.14	6.294
452.49	6.300
452.84	6.294
453.18	6.285
453.53	6.306
453.88	6.283
454.22	6.289
454.57	6.274
454.92	6.272
455.26	6.310
455.61	6.323
455.95	6.312
456.30	6.328
456.65	6.348
456.99	6.352
457.34	6.344
457.69	6.360
458.03	6.365
458.38	6.370
458.73	6.373
459.07	6.356
459.42	6.364
459.76	6.393
460.11	6.404
460.46	6.409
460.80	6.423
461.15	6.468
461.49	6.490
461.84	6.505
462.19	6.521
462.53	6.541
462.88	6.566
463.22	6.599
463.57	6.603
463.91	6.610
464.26	6.621
464.61	6.636
464.95	6.629
465.30	6.635
465.64	6.663
465.99	6.686
466.33	6.717
466.68	6.735
467.02	6.759
467.37	6.776
467.71	6.808
468.06	6.821
468.41	6.839
468.75	6.850
469.10	6.867
469.44	6.849
469.79	6.846
470.13	6.858
470.48	6.853
470.82	6.819
471.17	6.787
471.51	6.763
471.86	6.761
472.20	6.749
472.55	6.751
472.89	6.747
473.23	6.746
473.58	6.730
473.92	6.700
474.27	6.675
474.61	6.662
474.96	6.657
475.30	6.652
475.65	6.630
475.99	6.611
476.34	6.603
476.68	6.587
477.02	6.566
477.37	6.553
477.71	6.545
478.06	6.547
478.40	6.538
478.75	6.556
479.09	6.582
479.43	6.687
479.78	6.845
480.12	6.995
480.47	7.154
480.81	7.319
481.15	7.482
481.50	7.648
481.84	7.842
482.19	8.058
482.53	8.258
482.87	8.413
483.22	8.453
483.56	8.397
483.90	8.281
484.25	8.134
484.59	7.961
484.94	7.769
485.28	7.551
485.62	7.296
485.97	7.027
486.31	6.783
486.65	6.594
487.00	6.465
487.34	6.391
487.68	6.379
488.03	6.379
488.37	6.389
488.71	6.424
489.06	6.460
489.40	6.509
489.74	6.555
490.09	6.598
490.43	6.625
490.77	6.670
491.11	6.698
491.46	6.701
491.80	6.716
492.14	6.730
492.49	6.732
492.83	6.754
493.17	6.763
493.51	6.790
493.86	6.823
494.20	6.859
494.54	6.893
494.88	6.946
495.23	6.986
495.57	7.023
495.91	7.074
496.25	7.103
496.60	7.134
496.94	7.181
497.28	7.226
497.62	7.258
497.97	7.302
498.31	7.336
498.65	7.388
498.99	7.456
499.33	7.521
499.68	7.596
500.02	7.693
500.36	7.752
500.70	7.818
501.04	7.882
501.39	7.947
501.73	8.018
502.07	8.085
502.41	8.136
502.75	8.203
503.09	8.271
503.44	8.319
503.78	8.384
504.12	8.480
504.46	8.544
504.80	8.608
505.14	8.694
505.49	8.764
505.83	8.838
506.17	8.905
506.51	8.975
506.85	9.050
507.19	9.118
507.53	9.161
507.87	9.222
508.22	9.282
508.56	9.348
508.90	9.416
509.24	9.474
509.58	9.545
509.92	9.614
510.26	9.680
510.60	9.725
510.94	9.782
511.28	9.843
511.63	9.877
511.97	9.951
512.31	10.020
512.65	10.053
512.99	10.112
513.33	10.163
513.67	10.216
514.01	10.257
514.35	10.312
514.69	10.352
515.03	10.411
515.37	10.474
515.71	10.504
516.05	10.525
516.39	10.556
516.73	10.586
517.07	10.608
517.41	10.631
517.75	10.657
518.09	10.696
518.43	10.751
518.77	10.768
519.11	10.795
519.45	10.813
519.79	10.843
520.13	10.866
520.47	10.889
520.81	10.934
521.15	10.978
521.49	10.999
521.83	10.996
522.17	11.000
522.51	10.995
522.85	10.991
523.19	11.019
523.53	11.048
523.87	11.098
524.21	11.154
524.55	11.215
524.89	11.288
525.23	11.388
525.57	11.474
525.91	11.554
526.25	11.645
526.58	11.728
526.92	11.799
527.26	11.834
527.60	11.788
527.94	11.667
528.28	11.520
528.62	11.380
528.96	11.271
529.30	11.193
529.64	11.098
529.97	11.009
530.31	10.900
530.65	10.799
530.99	10.719
531.33	10.731
531.67	10.826
532.01	10.933
532.35	11.022
532.68	11.042
533.02	11.035
533.36	11.021
533.70	10.998
534.04	10.991
534.38	10.968
534.71	10.956
535.05	10.950
535.39	10.942
535.73	10.926
536.07	10.916
536.41	10.917
536.74	10.896
537.08	10.889
537.42	10.887
537.76	10.871
538.10	10.860
538.43	10.855
538.77	10.838
539.11	10.828
539.45	10.831
539.79	10.822
540.12	10.805
540.46	10.802
540.80	10.785
541.14	10.765
541.47	10.743
541.81	10.730
542.15	10.720
542.49	10.705
542.82	10.686
543.16	10.665
543.50	10.634
543.84	10.605
544.17	10.585
544.51	10.595
544.85	10.575
545.18	10.584
545.52	10.579
545.86	10.570
546.20	10.575
546.53	10.576
546.87	10.565
547.21	10.586
547.54	10.603
547.88	10.620
548.22	10.617
548.55	10.638
548.89	10.620
549.23	10.623
549.56	10.613
549.90	10.619
550.24	10.606
550.57	10.612
550.91	10.598
551.25	10.581
551.58	10.561
551.92	10.547
552.26	10.559
552.59	10.568
552.93	10.578
553.27	10.579
553.60	10.576
553.94	10.571
554.27	10.570
554.61	10.551
554.95	10.562
555.28	10.549
555.62	10.547
555.95	10.511
556.29	10.522
556.63	10.547
556.96	10.571
557.30	10.566
557.63	10.572
557.97	10.566
558.31	10.594
558.64	10.614
558.98	10.645
559.31	10.640
559.65	10.664
559.98	10.663
560.32	10.636
560.65	10.622
560.99	10.624
561.33	10.615
561.66	10.623
562.00	10.625
562.33	10.624
562.67	10.609
563.00	10.606
563.34	10.606
563.67	10.592
564.01	10.583
564.34	10.598
564.68	10.577
565.01	10.583
565.35	10.574
565.68	10.569
566.02	10.577
566.35	10.584
566.69	10.605
567.02	10.598
567.36	10.614
567.69	10.640
568.03	10.637
568.36	10.667
568.69	10.689
569.03	10.707
569.36	10.714
569.70	10.717
570.03	10.715
570.37	10.717
570.70	10.718
571.04	10.731
571.37	10.715
571.70	10.735
572.04	10.738
572.37	10.734
572.71	10.756
573.04	10.773
573.37	10.763
573.71	10.785
574.04	10.828
574.38	10.861
574.71	10.877
575.04	10.912
575.38	10.922
575.71	10.938
576.05	10.992
576.38	11.021
576.71	11.050
577.05	11.119
577.38	11.163
577.71	11.192
578.05	11.225
578.38	11.254
578.71	11.279
579.05	11.310
579.38	11.342
579.71	11.342
580.05	11.344
580.38	11.368
580.71	11.358
581.05	11.367
581.38	11.342
581.71	11.376
582.05	11.373
582.38	11.388
582.71	11.441
583.04	11.470
583.38	11.478
583.71	11.470
584.04	11.480
584.38	11.493
584.71	11.494
585.04	11.515
585.37	11.514
585.71	11.539
586.04	11.554
586.37	11.498
586.70	11.505
587.04	11.513
587.37	11.518
587.70	11.524
588.03	11.531
588.37	11.556
588.70	11.571
589.03	11.564
589.36	11.561
589.69	11.566
590.03	11.617
590.36	11.653
590.69	11.689
591.02	11.762
591.35	11.790
591.69	11.826
592.02	11.849
592.35	11.882
592.68	11.907
593.01	11.956
593.35	11.969
593.68	12.005
594.01	11.998
594.34	12.016
594.67	12.025
595.00	12.052
595.34	12.062
595.67	12.078
596.00	12.110
596.33	12.176
596.66	12.233
596.99	12.323
597.32	12.393
597.65	12.472
597.99	12.528
598.32	12.596
598.65	12.653
598.98	12.711
599.31	12.788
599.64	12.815
599.97	12.839
600.30	12.828
600.63	12.800
600.96	12.769
601.30	12.761
601.63	12.748
601.96	12.758
602.29	12.779
602.62	12.798
602.95	12.810
603.28	12.841
603.61	12.868
603.94	12.920
604.27	12.973
604.60	13.007
604.93	13.060
605.26	13.113
605.59	13.166
605.92	13.194
606.25	13.243
606.58	13.270
606.91	13.270
607.24	13.280
607.57	13.310
607.90	13.349
608.23	13.376
608.56	13.386
608.89	13.443
609.22	13.462
609.55	13.507
609.88	13.550
610.21	13.597
610.54	13.685
610.87	13.773
611.20	13.826
611.53	13.882
611.86	13.935
612.19	14.008
612.52	14.073
612.85	14.121
613.18	14.173
613.51	14.221
613.84	14.267
614.17	14.294
614.49	14.297
614.82	14.310
615.15	14.334
615.48	14.416
615.81	14.437
616.14	14.426
616.47	14.438
616.80	14.417
617.13	14.416
617.46	14.404
617.78	14.420
618.11	14.430
618.44	14.441
618.77	14.456
619.10	14.424
619.43	14.458
619.76	14.462
620.09	14.486
620.41	14.522
620.74	14.539
621.07	14.545
621.40	14.498
621.73	14.489
622.06	14.469
622.38	14.442
622.71	14.426
623.04	14.349
623.37	14.322
623.70	14.273
624.02	14.220
624.35	14.198
624.68	14.180
625.01	14.152
625.34	14.120
625.66	14.091
625.99	14.062
626.32	14.029
626.65	14.065
626.98	14.068
627.30	14.070
627.63	14.082
627.96	14.090
628.29	14.110
628.61	14.162
628.94	14.193
629.27	14.236
629.60	14.275
629.92	14.335
630.25	14.294
630.58	14.282
630.91	14.290
631.23	14.345
631.56	14.328
631.89	14.336
632.21	14.308
632.54	14.356
632.87	14.381
633.19	14.383
633.52	14.401
633.85	14.456
634.18	14.471
634.50	14.504
634.83	14.486
635.16	14.527
635.48	14.552
635.81	14.642
636.14	14.649
636.46	14.666
636.79	14.701
637.11	14.713
637.44	14.741
637.77	14.805
638.09	14.856
638.42	14.918
638.75	14.946
639.07	14.975
639.40	14.977
639.73	15.002
640.05	15.026
640.38	15.072
640.70	15.051
641.03	15.043
641.36	15.061
641.68	15.021
642.01	14.993
642.33	14.959
642.66	14.916
642.98	14.880
643.31	14.827
643.64	14.812
643.96	14.742
644.29	14.755
644.61	14.741
644.94	14.719
645.26	14.688
645.59	14.627
645.91	14.614
646.24	14.592
646.56	14.614
646.89	14.559
647.22	14.524
647.54	14.474
647.87	14.420
648.19	14.362
648.52	14.324
648.84	14.321
649.17	14.353
649.49	14.337
649.82	14.353
650.14	14.357
650.47	14.450
650.79	14.445
651.11	14.508
651.44	14.536
651.76	14.593
652.09	14.578
652.41	14.582
652.74	14.577
653.06	14.563
653.39	14.520
653.71	14.469
654.04	14.367
654.36	14.305
654.68	14.271
655.01	14.182
655.33	14.137
655.66	14.114
655.98	14.072
656.30	14.020
656.63	14.036
656.95	14.019
657.28	14.000
657.60	13.966
657.92	14.001
658.25	14.002
658.57	14.040
658.90	14.086
659.22	14.103
659.54	14.155
659.87	14.149
660.19	14.169
660.51	14.259
660.84	14.286
661.16	14.401
661.48	14.461
661.81	14.447
662.13	14.528
662.45	14.538
662.78	14.585
663.10	14.565
663.42	14.689
663.75	14.720
664.07	14.699
664.39	14.735
664.72	14.717
665.04	14.658
665.36	14.724
665.69	14.747
666.01	14.706
666.33	14.715
666.65	14.708
666.98	14.643
667.30	14.645
667.62	14.614
667.94	14.588
668.27	14.591
668.59	14.640
668.91	14.620
669.23	14.589
669.56	14.592
669.88	14.571
670.20	14.634
670.52	14.633
670.85	14.647
671.17	14.705
671.49	14.724
671.81	14.713
672.13	14.713
672.46	14.650
672.78	14.656
673.10	14.655
673.42	14.689
673.74	14.670
674.07	14.735
674.39	14.699
674.71	14.642
675.03	14.583
675.35	14.611
675.67	14.537
676.00	14.524
676.32	14.471
676.64	14.409
676.96	14.278
677.28	14.187
677.60	14.066
677.92	14.025
678.25	13.987
678.57	13.959
678.89	13.915
679.21	13.908
679.53	13.916
679.85	13.889
680.17	13.914
680.49	13.997
680.81	14.063
681.13	14.100
681.46	14.102
681.78	14.187
682.10	14.217
682.42	14.146
682.74	14.175
683.06	14.170
683.38	14.078
683.70	14.084
684.02	14.025
684.34	13.921
684.66	13.914
684.98	13.862
685.30	13.776
685.62	13.759
685.94	13.787
686.26	13.693
686.58	13.625
686.90	13.679
687.22	13.669
687.54	13.686
687.86	13.769
688.18	13.823
688.50	13.898
688.82	13.907
689.14	13.956
689.46	13.983
689.78	14.009
690.10	14.045
690.42	14.092
690.74	14.089
691.06	14.075
691.38	14.033
691.70	13.962
692.02	13.851
692.34	13.867
692.66	13.828
692.98	13.808
693.30	13.853
693.62	13.905
693.94	13.812
694.26	13.745
694.57	13.741
694.89	13.669
695.21	13.568
695.53	13.559
695.85	13.480
696.17	13.359
696.49	13.347
696.81	13.338
697.13	13.281
697.44	13.267
697.76	13.221
698.08	13.156
698.40	13.260
698.72	13.377
699.04	13.424
699.36	13.505
699.67	13.624
699.99	13.686
700.31	13.724
700.63	13.788
700.95	13.948
701.27	14.197
701.58	14.402
701.90	14.367
702.22	14.338
702.54	14.381
702.86	14.417
703.17	14.554
703.49	14.591
703.81	14.696
704.13	14.791
704.45	14.721
704.76	14.646
705.08	14.612
705.40	14.632
705.72	14.596
706.03	14.684
706.35	14.648
706.67	14.564
706.99	14.521
707.30	14.451
707.62	14.415
707.94	14.410
708.26	14.425
708.57	14.390
708.89	14.359
709.21	14.398
709.53	14.299
709.84	14.273
710.16	14.233
710.48	14.242
710.79	14.146
711.11	13.986
711.43	13.916
711.74	13.862
712.06	13.855
712.38	13.859
712.69	13.801
713.01	13.713
713.33	13.692
713.64	13.639
713.96	13.578
714.28	13.584
714.59	13.640
714.91	13.653
715.23	13.537
715.54	13.452
715.86	13.322
716.17	13.265
716.49	13.269
716.81	13.234
717.12	13.166
717.44	13.097
717.76	13.002
718.07	12.982
718.39	13.005
718.70	13.128
719.02	13.175
719.33	13.336
719.65	13.484
719.97	13.578
720.28	13.577
720.60	13.605
720.91	13.639
721.23	13.516
721.54	13.490
721.86	13.404
722.17	13.258
722.49	13.230
722.81	13.069
723.12	12.903
723.44	12.867
723.75	12.803
724.07	12.857
724.38	12.809
724.70	12.910
725.01	12.891
725.33	12.881
725.64	12.945
725.96	12.819
726.27	12.919
726.59	12.954
726.90	12.781
727.22	12.789
727.53	12.847
727.84	12.982
728.16	13.071
728.47	13.157
728.79	13.258
729.10	13.312
729.42	13.533
729.73	13.437
730.05	13.470
730.36	13.567
730.67	13.600
730.99	13.523
731.30	13.493
731.62	13.513
731.93	13.452
732.24	13.501
732.56	13.562
732.87	13.465
733.19	13.651
733.50	13.789
733.81	13.776
734.13	13.847
734.44	13.917
734.76	13.841
735.07	13.742
735.38	13.824
735.70	13.831
736.01	13.837
736.32	13.925
736.64	13.818
736.95	13.653
737.26	13.780
737.58	13.823
737.89	13.916
738.20	13.992
738.52	14.295
738.83	14.341
739.14	14.428
739.45	14.386
739.77	14.501
740.08	14.555
740.39	14.696
740.71	14.681
741.02	14.593
741.33	14.738
741.64	14.777
741.96	14.737
742.27	14.643
742.58	14.604
742.90	14.704
743.21	14.664
743.52	14.947
743.83	14.826
744.14	14.985
744.46	15.106
744.77	14.941
745.08	14.946
745.39	14.888
745.71	15.063
746.02	15.156
746.33	15.223
746.64	15.286
746.95	15.221
747.27	15.392
747.58	15.231
747.89	15.302
748.20	15.139
748.51	15.170
748.82	15.202
749.14	15.033
749.45	14.912
749.76	14.793
750.07	14.557
750.38	14.387
750.69	14.309
751.01	14.363
751.32	14.360
751.63	14.458
751.94	14.602
752.25	14.619
752.56	14.813
752.87	14.753
753.18	14.706
753.49	14.680
753.81	14.818
754.12	14.671
754.43	14.757
754.74	14.556
755.05	14.536
755.36	14.269
755.67	14.108
755.98	13.856
756.29	13.764
756.60	13.599
756.91	13.514
757.22	13.197
757.53	12.916
757.84	12.549
758.15	12.270
758.46	12.005
758.77	11.733
759.09	11.652
759.40	11.661
759.71	11.583
760.02	11.474
760.33	11.422
760.64	11.436
760.95	11.563
761.26	11.747
761.57	11.859
761.88	11.871
762.18	11.992
762.49	12.024
762.80	11.989
763.11	12.144
763.42	12.446
763.73	12.580
764.04	12.666
764.35	12.826
764.66	12.843
764.97	13.075
765.28	13.381
765.59	13.555
765.90	13.818
766.21	14.096
766.52	14.305
766.83	14.332
767.14	14.356
767.44	14.410
767.75	14.688
768.06	14.910
768.37	14.998
768.68	14.910
768.99	15.370
769.30	15.475
769.61	15.547
769.91	15.519
770.22	15.761
770.53	16.036
770.84	16.415
771.15	16.440
771.46	16.437
771.77	16.593
772.07	16.824
772.38	16.664
772.69	16.671
773.00	16.621
773.31	16.681
773.61	16.540
773.92	16.354
774.23	16.129
774.54	15.757
774.85	15.896
775.15	15.955
775.46	15.921
775.77	15.623
776.08	15.430
776.39	15.640
776.69	15.613
777.00	15.662
777.31	15.862
777.62	15.954
777.92	16.230
778.23	16.051
778.54	15.868
778.85	15.773
779.15	15.837
779.46	15.717
779.77	15.599
780.07	15.783
780.38	15.927
780.69	15.934
781.00	15.990
781.30	15.826
781.61	15.386
781.92	15.497
782.22	15.698
782.53	15.888
782.84	16.201
783.14	16.096
783.45	15.708
783.76	15.148
784.06	15.026
784.37	14.978
784.68	15.102
784.98	15.301
785.29	15.331
785.60	15.353
785.90	15.292
786.21	14.852
786.51	14.815
786.82	14.659
787.13	14.614
787.43	14.874
787.74	14.871
788.04	14.858
788.35	15.040
788.66	14.752
788.96	14.684
789.27	14.773
789.57	15.088
789.88	15.500
790.19	15.963
790.49	15.997
790.80	15.654
791.10	15.360
791.41	15.378
791.71	15.545
792.02	15.898
792.32	16.033
792.63	15.721
792.93	15.551
793.24	15.157
793.54	14.795
793.85	15.017
794.15	14.982
794.46	15.262
794.76	15.252
795.07	15.311
795.37	15.212
795.68	14.746
795.98	14.874
796.29	15.210
796.59	14.955
796.90	14.789
797.20	14.627
797.51	14.787
797.81	14.259
798.12	13.889
798.42	13.466
798.72	13.172
799.03	13.479
799.33	13.385
799.64	13.013
799.94	13.270
800.25	13.612
800.55	13.911
800.85	13.902
801.16	14.246
801.46	14.565
801.77	14.907
802.07	15.217
802.37	15.278
802.68	15.371
802.98	15.804
803.28	16.052
803.59	16.068
803.89	15.599
804.20	15.722
804.50	15.764
804.80	15.816
805.11	15.587
805.41	15.604
805.71	15.366
806.02	15.384
806.32	15.188
806.62	14.586
806.93	14.561
807.23	14.720
807.53	14.438
807.83	14.416
808.14	14.163
808.44	14.229
808.74	13.570
809.05	13.525
809.35	13.345
809.65	13.155
809.95	13.566
810.26	13.452
810.56	13.193
810.86	13.402
811.16	13.248
811.47	12.832
811.77	13.452
812.07	13.861
812.37	13.973
812.68	13.903
812.98	14.095
813.28	13.835
813.58	13.608
813.88	13.420
814.19	13.263
814.49	13.260
814.79	13.647
815.09	12.962
815.39	12.385
815.70	12.101
816.00	12.479
816.30	12.188
816.60	12.080
816.90	12.188
817.20	12.098
817.50	11.738
817.81	11.716
818.11	11.512
818.41	11.324
818.71	11.212
819.01	11.248
819.31	10.942
819.61	10.729
819.92	10.778
820.22	10.760
820.52	10.780
820.82	10.779
821.12	10.686
821.42	10.604
821.72	10.583
822.02	10.675
822.32	10.700
822.62	10.704
822.92	10.837
823.22	10.831
823.52	10.778
823.83	10.754
824.13	10.809
824.43	10.988
824.73	11.074
825.03	11.110
825.33	10.989
825.63	10.937
825.93	11.010
826.23	10.872
826.53	10.786
826.83	10.824
827.13	10.949
827.43	10.712
827.73	10.543
828.03	10.710
828.33	10.706
828.63	10.688
828.93	10.885
829.23	10.969
829.53	11.174
829.83	11.286
830.13	11.124
830.42	11.190
830.72	11.390
831.02	10.923
831.32	10.756
831.62	10.795
831.92	10.946
832.22	10.835
832.52	10.771
832.82	10.911
833.12	10.934
833.42	11.449
833.72	11.263
834.01	11.318
834.31	11.706
834.61	12.149
834.91	12.143
835.21	12.646
835.51	12.920
835.81	13.233
836.11	13.335
836.40	14.009
836.70	14.185
837.00	14.904
837.30	15.269
837.60	16.007
837.90	15.897
838.19	16.555
838.49	16.307
838.79	16.468
839.09	16.237
839.39	16.024
839.68	15.388
839.98	15.045
840.28	14.924
840.58	14.659
840.88	14.732
841.17	14.116
841.47	13.541
841.77	13.099
842.07	12.396
842.36	13.400
842.66	13.337
842.96	13.897
843.26	15.349
843.55	17.070
843.85	17.499
844.15	16.474
844.45	18.007
844.74	19.364
845.04	20.501
845.34	20.885
845.63	20.231
845.93	21.246
846.23	22.274
846.53	20.735
846.82	19.742
847.12	20.700
847.42	22.868
847.71	23.145
848.01	21.593
848.31	22.098
848.60	21.492
848.90	20.903
849.19	20.495
849.49	20.262
849.79	20.127
850.08	18.672
850.38	18.546
850.68	18.419
850.97	18.851
851.27	20.096
851.56	20.440
851.86	20.270
852.16	20.606
852.45	21.459
852.75	20.501
853.04	20.351
853.34	22.183
853.64	22.505
853.93	21.284
854.23	20.224
854.52	21.075
854.82	20.960
855.11	21.426
855.41	23.708
855.70	24.235
856.00	24.928
856.30	24.865
856.59	24.734
856.89	25.096
857.18	23.780
857.48	23.013
857.77	22.587
858.07	20.728
858.36	20.696
858.66	19.159
858.95	16.768
859.25	17.444
859.54	17.949
859.84	19.362
860.13	20.128
860.42	21.180
860.72	23.475
861.01	22.765
861.31	23.817
861.60	24.390
861.90	23.434
862.19	24.999
862.49	23.920
862.78	23.928
863.07	21.895
863.37	20.781
863.66	19.920
863.96	19.509
864.25	20.910
864.54	21.721
864.84	20.772
865.13	20.172
865.43	19.221
865.72	29.394
866.01	32.622
866.31	14.301
866.60	5.404
866.89	16.492
>>>>>End Spectral Data<<<<<
