OOIBase32 Version 2.0.0.6 Data File
++++++++++++++++++++++++++++++++++++
Date: 01-22-2012, 21:23:55
User: Valued Ocean Optics Customer
Spectrometer Serial Number: USB2E2917
Spectrometer Channel: Master
Integration Time (msec): 4
Spectra Averaged: 10
Boxcar Smoothing: 5
Correct for Electrical Dark: Enabled
Time Normalized: Disabled
Dual-beam Reference: Disabled
Reference Channel: Master
Temperature: Not acquired
Spectrometer Type: S2000
ADC Type: USB2000
Number of Pixels in File: 2048
Graph Title: 
>>>>>Begin Spectral Data<<<<<
180.30	0.000
180.67	0.000
181.03	42.001
181.40	100.973
181.77	-180.221
182.14	-155.176
182.51	650.106
182.88	143.242
183.25	152.639
183.62	153.812
183.99	39.661
184.36	98.904
184.73	111.764
185.10	-942.547
185.46	-369.061
185.83	61.551
186.20	1.639
186.57	509.095
186.94	113.418
187.31	47.674
187.68	-825.529
188.05	374.405
188.42	411.278
188.78	-73.444
189.15	31.487
189.52	30.979
189.89	12.439
190.26	23.298
190.63	30.409
191.00	10.653
191.37	-9.474
191.73	-12.617
192.10	-47.486
192.47	-16.345
192.84	-176.512
193.21	-300.204
193.58	-325.714
193.94	-294.226
194.31	-100.484
194.68	-85.104
195.05	-78.863
195.42	-116.301
195.79	-108.070
196.15	-55.353
196.52	-35.656
196.89	-38.202
197.26	-45.170
197.63	-57.961
198.00	-58.841
198.36	-109.638
198.73	-84.836
199.10	-63.674
199.47	10.399
199.84	29.671
200.20	9.196
200.57	14.374
200.94	60.566
201.31	67.536
201.68	75.665
202.04	68.058
202.41	56.490
202.78	59.589
203.15	67.314
203.51	60.353
203.88	59.427
204.25	47.917
204.62	27.222
204.98	4.040
205.35	-13.540
205.72	-39.891
206.09	-102.025
206.46	-61.875
206.82	-123.272
207.19	-174.791
207.56	-202.765
207.92	-206.331
208.29	-111.955
208.66	-54.678
209.03	-34.810
209.39	-13.933
209.76	-3.501
210.13	16.458
210.50	17.390
210.86	16.290
211.23	30.942
211.60	36.944
211.96	17.596
212.33	0.942
212.70	2412.888
213.07	187.957
213.43	177.303
213.80	754.947
214.17	165.512
214.53	680.618
214.90	-64.105
215.27	15.338
215.63	-11.300
216.00	-7.658
216.37	0.052
216.74	6.021
217.10	3.665
217.47	3.844
217.84	-1.395
218.20	-7.434
218.57	-1.779
218.94	-8.505
219.30	-17.969
219.67	-7.571
220.04	0.487
220.40	-4.858
220.77	-4.843
221.13	-18.571
221.50	-9.531
221.87	-7.520
222.23	-0.810
222.60	-5.753
222.97	-6.607
223.33	-15.179
223.70	-19.525
224.07	-17.977
224.43	-13.277
224.80	-3.779
225.16	-1.070
225.53	-2.872
225.90	-0.283
226.26	1.079
226.63	3.885
226.99	4.489
227.36	7.326
227.73	8.929
228.09	7.719
228.46	8.778
228.82	5.990
229.19	5.746
229.56	3.794
229.92	3.544
230.29	3.008
230.65	1.700
231.02	1.530
231.38	1.103
231.75	-1.402
232.12	-0.985
232.48	-3.353
232.85	-1.115
233.21	0.849
233.58	4.715
233.94	4.487
234.31	3.970
234.68	2.401
235.04	3.790
235.41	4.017
235.77	4.401
236.14	6.481
236.50	9.542
236.87	9.675
237.23	8.974
237.60	7.056
237.96	6.365
238.33	5.579
238.69	6.300
239.06	5.338
239.42	4.116
239.79	4.979
240.15	4.390
240.52	3.733
240.88	3.212
241.25	2.885
241.61	2.725
241.98	2.952
242.34	2.891
242.71	2.570
243.07	2.909
243.44	3.734
243.80	3.582
244.17	3.326
244.53	2.834
244.90	2.679
245.26	2.928
245.63	3.264
245.99	3.236
246.36	3.459
246.72	3.645
247.09	3.590
247.45	3.574
247.81	3.629
248.18	3.806
248.54	4.245
248.91	4.380
249.27	3.673
249.64	3.663
250.00	3.909
250.36	3.699
250.73	3.131
251.09	2.702
251.46	2.061
251.82	1.835
252.19	1.318
252.55	1.179
252.91	1.557
253.28	2.299
253.64	1.966
254.01	1.863
254.37	2.691
254.73	2.883
255.10	3.045
255.46	3.536
255.83	3.818
256.19	4.156
256.55	4.104
256.92	3.906
257.28	4.137
257.65	4.524
258.01	4.520
258.37	4.178
258.74	4.221
259.10	4.357
259.46	4.224
259.83	4.154
260.19	4.244
260.55	4.165
260.92	4.208
261.28	4.079
261.64	3.756
262.01	3.241
262.37	3.119
262.73	2.860
263.10	2.401
263.46	2.570
263.82	2.405
264.19	2.155
264.55	2.552
264.91	2.713
265.28	2.451
265.64	2.539
266.00	2.968
266.37	3.556
266.73	3.753
267.09	3.897
267.46	3.562
267.82	3.729
268.18	3.780
268.54	3.595
268.91	3.679
269.27	3.529
269.63	3.184
270.00	3.063
270.36	2.583
270.72	2.558
271.08	2.482
271.45	2.527
271.81	2.654
272.17	2.736
272.53	2.750
272.90	2.491
273.26	2.573
273.62	2.821
273.98	3.098
274.35	3.360
274.71	3.297
275.07	3.585
275.43	3.897
275.80	3.718
276.16	3.959
276.52	3.785
276.88	3.843
277.25	3.635
277.61	3.734
277.97	3.395
278.33	3.483
278.69	3.591
279.06	3.368
279.42	3.332
279.78	3.343
280.14	3.123
280.50	3.363
280.87	3.534
281.23	3.872
281.59	3.845
281.95	4.010
282.31	3.818
282.68	3.817
283.04	3.773
283.40	3.458
283.76	3.366
284.12	3.364
284.48	3.397
284.85	3.350
285.21	3.287
285.57	3.220
285.93	3.250
286.29	3.194
286.65	3.262
287.02	3.561
287.38	3.809
287.74	3.884
288.10	3.823
288.46	3.534
288.82	3.457
289.18	3.299
289.54	3.289
289.91	3.106
290.27	3.147
290.63	3.106
290.99	2.857
291.35	2.816
291.71	2.919
292.07	2.930
292.43	2.996
292.79	3.070
293.16	3.378
293.52	3.524
293.88	3.566
294.24	3.534
294.60	3.517
294.96	3.596
295.32	3.700
295.68	3.594
296.04	3.593
296.40	3.492
296.76	3.397
297.12	3.456
297.49	3.431
297.85	3.674
298.21	3.846
298.57	3.803
298.93	3.911
299.29	3.876
299.65	4.047
300.01	4.039
300.37	4.402
300.73	4.599
301.09	4.417
301.45	4.346
301.81	4.165
302.17	4.090
302.53	4.051
302.89	3.928
303.25	3.742
303.61	3.653
303.97	3.720
304.33	3.594
304.69	3.624
305.05	3.768
305.41	3.893
305.77	4.054
306.13	4.164
306.49	4.342
306.85	4.511
307.21	4.659
307.57	4.445
307.93	4.320
308.29	4.344
308.65	4.225
309.01	4.043
309.37	3.950
309.73	3.874
310.09	3.769
310.45	3.701
310.81	3.647
311.17	3.513
311.53	3.680
311.89	3.811
312.25	3.803
312.61	3.763
312.96	3.992
313.32	3.984
313.68	3.918
314.04	3.940
314.40	4.030
314.76	3.912
315.12	4.109
315.48	4.162
315.84	3.917
316.20	3.874
316.56	3.926
316.92	3.680
317.27	3.770
317.63	3.641
317.99	3.462
318.35	3.368
318.71	3.575
319.07	3.640
319.43	3.488
319.79	3.574
320.15	3.654
320.50	3.720
320.86	3.768
321.22	3.705
321.58	3.793
321.94	3.933
322.30	4.169
322.66	4.123
323.01	4.125
323.37	4.381
323.73	4.421
324.09	4.518
324.45	4.585
324.81	4.643
325.17	4.639
325.52	4.722
325.88	4.675
326.24	4.437
326.60	4.316
326.96	4.222
327.31	3.909
327.67	3.922
328.03	3.742
328.39	3.514
328.75	3.581
329.11	3.540
329.46	3.545
329.82	3.606
330.18	3.723
330.54	3.817
330.90	3.849
331.25	3.939
331.61	4.000
331.97	4.028
332.33	4.090
332.68	4.053
333.04	4.126
333.40	4.078
333.76	4.089
334.11	4.015
334.47	4.088
334.83	4.082
335.19	4.164
335.54	4.010
335.90	3.999
336.26	3.974
336.62	3.975
336.97	3.872
337.33	3.921
337.69	3.909
338.05	4.089
338.40	3.926
338.76	3.967
339.12	3.886
339.48	3.900
339.83	3.930
340.19	3.998
340.55	3.952
340.90	4.036
341.26	4.047
341.62	4.073
341.97	3.907
342.33	3.953
342.69	3.901
343.04	3.929
343.40	4.078
343.76	4.023
344.12	3.962
344.47	3.951
344.83	3.921
345.19	3.881
345.54	3.901
345.90	3.844
346.26	3.851
346.61	3.792
346.97	3.773
347.32	3.704
347.68	3.811
348.04	3.862
348.39	3.859
348.75	3.943
349.11	3.882
349.46	3.869
349.82	3.903
350.18	3.927
350.53	3.980
350.89	4.031
351.24	4.109
351.60	4.040
351.96	4.040
352.31	4.088
352.67	4.019
353.02	4.068
353.38	4.066
353.74	4.138
354.09	4.096
354.45	4.066
354.80	4.038
355.16	4.039
355.52	4.011
355.87	3.984
356.23	3.958
356.58	3.974
356.94	3.982
357.29	3.982
357.65	3.920
358.00	3.978
358.36	4.001
358.72	3.909
359.07	3.796
359.43	3.866
359.78	3.907
360.14	3.869
360.49	3.832
360.85	3.805
361.20	3.797
361.56	3.838
361.91	3.804
362.27	3.822
362.62	3.925
362.98	3.994
363.33	3.911
363.69	3.919
364.04	3.951
364.40	3.998
364.75	4.004
365.11	4.021
365.46	3.980
365.82	3.974
366.17	3.909
366.53	3.843
366.88	3.855
367.24	3.886
367.59	3.840
367.95	3.886
368.30	3.898
368.66	3.926
369.01	3.956
369.37	3.968
369.72	3.971
370.08	4.037
370.43	4.095
370.78	4.092
371.14	4.090
371.49	4.071
371.85	4.025
372.20	4.062
372.56	4.070
372.91	4.047
373.26	4.076
373.62	4.057
373.97	4.051
374.33	4.031
374.68	4.053
375.03	4.046
375.39	4.040
375.74	4.048
376.10	4.035
376.45	4.084
376.80	4.064
377.16	4.037
377.51	4.032
377.87	4.029
378.22	4.088
378.57	4.038
378.93	4.030
379.28	4.086
379.63	4.076
379.99	4.067
380.34	4.039
380.70	4.109
381.05	4.121
381.40	4.104
381.76	4.141
382.11	4.091
382.46	4.088
382.82	4.094
383.17	4.089
383.52	4.162
383.88	4.175
384.23	4.169
384.58	4.091
384.94	4.107
385.29	4.173
385.64	4.132
385.99	4.147
386.35	4.171
386.70	4.179
387.05	4.152
387.41	4.094
387.76	4.042
388.11	4.023
388.47	4.007
388.82	3.996
389.17	3.976
389.52	3.970
389.88	4.011
390.23	4.034
390.58	4.015
390.93	4.072
391.29	4.112
391.64	4.155
391.99	4.190
392.34	4.239
392.70	4.274
393.05	4.297
393.40	4.335
393.75	4.296
394.11	4.277
394.46	4.294
394.81	4.247
395.16	4.206
395.52	4.229
395.87	4.232
396.22	4.213
396.57	4.185
396.92	4.129
397.28	4.097
397.63	4.054
397.98	4.086
398.33	4.123
398.68	4.127
399.04	4.132
399.39	4.095
399.74	4.084
400.09	4.092
400.44	4.085
400.80	4.123
401.15	4.107
401.50	4.153
401.85	4.148
402.20	4.129
402.55	4.148
402.90	4.172
403.26	4.186
403.61	4.175
403.96	4.194
404.31	4.205
404.66	4.194
405.01	4.253
405.36	4.262
405.72	4.258
406.07	4.247
406.42	4.274
406.77	4.290
407.12	4.302
407.47	4.339
407.82	4.332
408.17	4.332
408.53	4.361
408.88	4.326
409.23	4.302
409.58	4.302
409.93	4.344
410.28	4.305
410.63	4.292
410.98	4.270
411.33	4.243
411.68	4.240
412.03	4.238
412.38	4.222
412.73	4.241
413.09	4.242
413.44	4.218
413.79	4.202
414.14	4.227
414.49	4.203
414.84	4.211
415.19	4.211
415.54	4.192
415.89	4.169
416.24	4.155
416.59	4.131
416.94	4.143
417.29	4.137
417.64	4.125
417.99	4.109
418.34	4.112
418.69	4.079
419.04	4.069
419.39	4.076
419.74	4.093
420.09	4.097
420.44	4.090
420.79	4.069
421.14	4.073
421.49	4.090
421.84	4.072
422.19	4.069
422.54	4.087
422.89	4.087
423.24	4.069
423.59	4.069
423.94	4.082
424.29	4.095
424.64	4.113
424.99	4.140
425.34	4.139
425.68	4.162
426.03	4.182
426.38	4.199
426.73	4.214
427.08	4.246
427.43	4.249
427.78	4.229
428.13	4.227
428.48	4.246
428.83	4.220
429.18	4.200
429.53	4.209
429.87	4.189
430.22	4.176
430.57	4.181
430.92	4.180
431.27	4.160
431.62	4.157
431.97	4.156
432.32	4.146
432.67	4.148
433.01	4.165
433.36	4.160
433.71	4.162
434.06	4.173
434.41	4.175
434.76	4.205
435.11	4.227
435.45	4.226
435.80	4.200
436.15	4.196
436.50	4.188
436.85	4.187
437.20	4.184
437.54	4.193
437.89	4.192
438.24	4.176
438.59	4.155
438.94	4.140
439.29	4.141
439.63	4.180
439.98	4.170
440.33	4.182
440.68	4.177
441.03	4.181
441.37	4.160
441.72	4.157
442.07	4.158
442.42	4.160
442.76	4.165
443.11	4.160
443.46	4.144
443.81	4.149
444.16	4.147
444.50	4.137
444.85	4.132
445.20	4.152
445.55	4.146
445.89	4.137
446.24	4.116
446.59	4.119
446.94	4.121
447.28	4.133
447.63	4.116
447.98	4.087
448.32	4.086
448.67	4.082
449.02	4.084
449.37	4.114
449.71	4.126
450.06	4.155
450.41	4.149
450.75	4.149
451.10	4.138
451.45	4.138
451.79	4.174
452.14	4.184
452.49	4.191
452.84	4.185
453.18	4.166
453.53	4.172
453.88	4.152
454.22	4.158
454.57	4.165
454.92	4.156
455.26	4.171
455.61	4.149
455.95	4.139
456.30	4.141
456.65	4.131
456.99	4.134
457.34	4.120
457.69	4.134
458.03	4.126
458.38	4.135
458.73	4.156
459.07	4.170
459.42	4.186
459.76	4.195
460.11	4.203
460.46	4.209
460.80	4.177
461.15	4.207
461.49	4.188
461.84	4.207
462.19	4.193
462.53	4.191
462.88	4.180
463.22	4.181
463.57	4.202
463.91	4.205
464.26	4.235
464.61	4.284
464.95	4.294
465.30	4.315
465.64	4.325
465.99	4.344
466.33	4.348
466.68	4.348
467.02	4.354
467.37	4.365
467.71	4.368
468.06	4.367
468.41	4.351
468.75	4.337
469.10	4.340
469.44	4.318
469.79	4.312
470.13	4.309
470.48	4.325
470.82	4.350
471.17	4.328
471.51	4.320
471.86	4.313
472.20	4.312
472.55	4.319
472.89	4.316
473.23	4.334
473.58	4.332
473.92	4.303
474.27	4.300
474.61	4.281
474.96	4.276
475.30	4.275
475.65	4.283
475.99	4.292
476.34	4.284
476.68	4.276
477.02	4.274
477.37	4.265
477.71	4.285
478.06	4.270
478.40	4.265
478.75	4.293
479.09	4.312
479.43	4.326
479.78	4.359
480.12	4.404
480.47	4.451
480.81	4.498
481.15	4.549
481.50	4.601
481.84	4.670
482.19	4.737
482.53	4.784
482.87	4.800
483.22	4.781
483.56	4.724
483.90	4.654
484.25	4.608
484.59	4.584
484.94	4.548
485.28	4.503
485.62	4.443
485.97	4.383
486.31	4.324
486.65	4.303
487.00	4.317
487.34	4.379
487.68	4.446
488.03	4.485
488.37	4.479
488.71	4.484
489.06	4.488
489.40	4.496
489.74	4.495
490.09	4.511
490.43	4.517
490.77	4.529
491.11	4.529
491.46	4.533
491.80	4.536
492.14	4.554
492.49	4.569
492.83	4.585
493.17	4.590
493.51	4.612
493.86	4.614
494.20	4.622
494.54	4.637
494.88	4.662
495.23	4.694
495.57	4.727
495.91	4.755
496.25	4.784
496.60	4.820
496.94	4.860
497.28	4.887
497.62	4.923
497.97	4.988
498.31	5.052
498.65	5.099
498.99	5.152
499.33	5.209
499.68	5.268
500.02	5.317
500.36	5.378
500.70	5.441
501.04	5.513
501.39	5.582
501.73	5.642
502.07	5.703
502.41	5.802
502.75	5.879
503.09	5.955
503.44	6.047
503.78	6.150
504.12	6.251
504.46	6.345
504.80	6.469
505.14	6.585
505.49	6.698
505.83	6.806
506.17	6.911
506.51	7.039
506.85	7.179
507.19	7.309
507.53	7.463
507.87	7.610
508.22	7.764
508.56	7.896
508.90	8.056
509.24	8.217
509.58	8.396
509.92	8.560
510.26	8.718
510.60	8.873
510.94	9.040
511.28	9.209
511.63	9.398
511.97	9.583
512.31	9.780
512.65	9.998
512.99	10.224
513.33	10.440
513.67	10.683
514.01	10.924
514.35	11.159
514.69	11.385
515.03	11.604
515.37	11.800
515.71	12.006
516.05	12.181
516.39	12.344
516.73	12.517
517.07	12.705
517.41	12.872
517.75	13.061
518.09	13.255
518.43	13.445
518.77	13.641
519.11	13.832
519.45	14.039
519.79	14.266
520.13	14.500
520.47	14.743
520.81	14.972
521.15	15.200
521.49	15.393
521.83	15.574
522.17	15.764
522.51	15.925
522.85	16.117
523.19	16.328
523.53	16.558
523.87	16.792
524.21	17.020
524.55	17.247
524.89	17.443
525.23	17.657
525.57	17.843
525.91	18.014
526.25	18.183
526.58	18.335
526.92	18.484
527.26	18.621
527.60	18.736
527.94	18.847
528.28	18.945
528.62	19.048
528.96	19.135
529.30	19.235
529.64	19.337
529.97	19.446
530.31	19.551
530.65	19.650
530.99	19.751
531.33	19.878
531.67	19.985
532.01	20.101
532.35	20.225
532.68	20.336
533.02	20.460
533.36	20.565
533.70	20.674
534.04	20.802
534.38	20.915
534.71	21.033
535.05	21.141
535.39	21.252
535.73	21.362
536.07	21.454
536.41	21.599
536.74	21.717
537.08	21.853
537.42	21.980
537.76	22.100
538.10	22.225
538.43	22.336
538.77	22.440
539.11	22.535
539.45	22.617
539.79	22.709
540.12	22.760
540.46	22.817
540.80	22.853
541.14	22.902
541.47	22.953
541.81	22.993
542.15	23.043
542.49	23.098
542.82	23.168
543.16	23.233
543.50	23.323
543.84	23.398
544.17	23.477
544.51	23.580
544.85	23.655
545.18	23.725
545.52	23.831
545.86	23.949
546.20	24.034
546.53	24.122
546.87	24.240
547.21	24.309
547.54	24.432
547.88	24.535
548.22	24.647
548.55	24.726
548.89	24.817
549.23	24.868
549.56	24.896
549.90	24.951
550.24	24.969
550.57	24.992
550.91	25.034
551.25	25.059
551.58	25.108
551.92	25.148
552.26	25.215
552.59	25.275
552.93	25.365
553.27	25.441
553.60	25.517
553.94	25.618
554.27	25.717
554.61	25.791
554.95	25.904
555.28	25.960
555.62	25.981
555.95	26.013
556.29	26.049
556.63	26.068
556.96	26.117
557.30	26.170
557.63	26.180
557.97	26.173
558.31	26.219
558.64	26.210
558.98	26.245
559.31	26.298
559.65	26.301
559.98	26.334
560.32	26.362
560.65	26.337
560.99	26.308
561.33	26.310
561.66	26.290
562.00	26.257
562.33	26.236
562.67	26.198
563.00	26.153
563.34	26.169
563.67	26.155
564.01	26.109
564.34	26.133
564.68	26.166
565.01	26.169
565.35	26.214
565.68	26.256
566.02	26.286
566.35	26.324
566.69	26.358
567.02	26.368
567.36	26.375
567.69	26.388
568.03	26.377
568.36	26.344
568.69	26.371
569.03	26.361
569.36	26.345
569.70	26.323
570.03	26.278
570.37	26.278
570.70	26.271
571.04	26.259
571.37	26.256
571.70	26.258
572.04	26.296
572.37	26.293
572.71	26.302
573.04	26.305
573.37	26.332
573.71	26.392
574.04	26.437
574.38	26.492
574.71	26.543
575.04	26.596
575.38	26.657
575.71	26.686
576.05	26.720
576.38	26.784
576.71	26.855
577.05	26.909
577.38	26.947
577.71	26.962
578.05	26.982
578.38	26.967
578.71	26.986
579.05	26.982
579.38	26.987
579.71	27.011
580.05	27.000
580.38	26.990
580.71	26.964
581.05	26.954
581.38	26.947
581.71	26.948
582.05	26.977
582.38	26.953
582.71	26.939
583.04	26.925
583.38	26.899
583.71	26.864
584.04	26.831
584.38	26.827
584.71	26.759
585.04	26.727
585.37	26.666
585.71	26.639
586.04	26.631
586.37	26.618
586.70	26.604
587.04	26.596
587.37	26.616
587.70	26.561
588.03	26.492
588.37	26.512
588.70	26.510
589.03	26.500
589.36	26.466
589.69	26.473
590.03	26.441
590.36	26.414
590.69	26.361
591.02	26.304
591.35	26.299
591.69	26.261
592.02	26.203
592.35	26.147
592.68	26.102
593.01	26.014
593.35	25.903
593.68	25.831
594.01	25.751
594.34	25.686
594.67	25.632
595.00	25.577
595.34	25.536
595.67	25.489
596.00	25.454
596.33	25.453
596.66	25.464
596.99	25.493
597.32	25.530
597.65	25.517
597.99	25.525
598.32	25.509
598.65	25.472
598.98	25.455
599.31	25.439
599.64	25.395
599.97	25.306
600.30	25.279
600.63	25.179
600.96	25.083
601.30	25.055
601.63	24.962
601.96	24.915
602.29	24.903
602.62	24.910
602.95	24.865
603.28	24.811
603.61	24.789
603.94	24.744
604.27	24.733
604.60	24.725
604.93	24.726
605.26	24.740
605.59	24.719
605.92	24.696
606.25	24.632
606.58	24.619
606.91	24.622
607.24	24.576
607.57	24.563
607.90	24.567
608.23	24.546
608.56	24.509
608.89	24.530
609.22	24.518
609.55	24.517
609.88	24.558
610.21	24.573
610.54	24.592
610.87	24.615
611.20	24.615
611.53	24.584
611.86	24.579
612.19	24.579
612.52	24.534
612.85	24.534
613.18	24.507
613.51	24.408
613.84	24.365
614.17	24.323
614.49	24.315
614.82	24.360
615.15	24.393
615.48	24.378
615.81	24.375
616.14	24.354
616.47	24.325
616.80	24.311
617.13	24.355
617.46	24.355
617.78	24.351
618.11	24.353
618.44	24.310
618.77	24.271
619.10	24.246
619.43	24.197
619.76	24.140
620.09	24.133
620.41	24.098
620.74	24.082
621.07	24.050
621.40	24.003
621.73	23.975
622.06	23.934
622.38	23.889
622.71	23.816
623.04	23.743
623.37	23.769
623.70	23.747
624.02	23.699
624.35	23.620
624.68	23.575
625.01	23.551
625.34	23.512
625.66	23.487
625.99	23.487
626.32	23.526
626.65	23.552
626.98	23.532
627.30	23.533
627.63	23.520
627.96	23.525
628.29	23.548
628.61	23.522
628.94	23.498
629.27	23.416
629.60	23.373
629.92	23.340
630.25	23.311
630.58	23.251
630.91	23.202
631.23	23.192
631.56	23.188
631.89	23.144
632.21	23.103
632.54	23.060
632.87	23.078
633.19	23.081
633.52	23.051
633.85	22.987
634.18	22.980
634.50	22.943
634.83	22.982
635.16	22.982
635.48	22.958
635.81	23.002
636.14	23.030
636.46	23.049
636.79	22.997
637.11	22.974
637.44	23.037
637.77	23.047
638.09	23.022
638.42	22.930
638.75	22.859
639.07	22.826
639.40	22.812
639.73	22.743
640.05	22.686
640.38	22.671
640.70	22.649
641.03	22.579
641.36	22.520
641.68	22.489
642.01	22.498
642.33	22.561
642.66	22.543
642.98	22.518
643.31	22.495
643.64	22.524
643.96	22.514
644.29	22.486
644.61	22.498
644.94	22.503
645.26	22.535
645.59	22.533
645.91	22.451
646.24	22.422
646.56	22.390
646.89	22.388
647.22	22.321
647.54	22.256
647.87	22.277
648.19	22.256
648.52	22.222
648.84	22.159
649.17	22.161
649.49	22.097
649.82	22.106
650.14	22.085
650.47	22.104
650.79	22.136
651.11	22.156
651.44	22.126
651.76	22.102
652.09	22.079
652.41	22.069
652.74	21.985
653.06	21.987
653.39	21.955
653.71	21.921
654.04	21.880
654.36	21.841
654.68	21.823
655.01	21.802
655.33	21.763
655.66	21.717
655.98	21.698
656.30	21.673
656.63	21.671
656.95	21.627
657.28	21.600
657.60	21.590
657.92	21.519
658.25	21.488
658.57	21.433
658.90	21.371
659.22	21.364
659.54	21.302
659.87	21.284
660.19	21.203
660.51	21.166
660.84	21.117
661.16	21.080
661.48	21.093
661.81	21.056
662.13	21.050
662.45	21.104
662.78	21.128
663.10	21.140
663.42	21.120
663.75	21.179
664.07	21.242
664.39	21.236
664.72	21.166
665.04	21.148
665.36	21.135
665.69	21.156
666.01	21.087
666.33	21.064
666.65	21.050
666.98	21.032
667.30	21.009
667.62	20.908
667.94	20.920
668.27	20.951
668.59	20.890
668.91	20.903
669.23	20.878
669.56	20.920
669.88	20.831
670.20	20.819
670.52	20.819
670.85	20.793
671.17	20.890
671.49	20.788
671.81	20.754
672.13	20.769
672.46	20.700
672.78	20.684
673.10	20.610
673.42	20.654
673.74	20.618
674.07	20.631
674.39	20.602
674.71	20.444
675.03	20.566
675.35	20.574
675.67	20.506
676.00	20.538
676.32	20.550
676.64	20.606
676.96	20.603
677.28	20.603
677.60	20.560
677.92	20.515
678.25	20.537
678.57	20.470
678.89	20.442
679.21	20.489
679.53	20.499
679.85	20.451
680.17	20.405
680.49	20.391
680.81	20.451
681.13	20.515
681.46	20.535
681.78	20.588
682.10	20.631
682.42	20.688
682.74	20.729
683.06	20.740
683.38	20.825
683.70	20.863
684.02	20.911
684.34	20.855
684.66	20.877
684.98	20.938
685.30	21.051
685.62	21.095
685.94	21.156
686.26	21.143
686.58	21.208
686.90	21.136
687.22	21.159
687.54	21.133
687.86	21.150
688.18	21.135
688.50	21.156
688.82	21.130
689.14	21.126
689.46	21.056
689.78	21.096
690.10	21.071
690.42	21.083
690.74	21.072
691.06	21.095
691.38	21.101
691.70	21.004
692.02	20.924
692.34	20.744
692.66	20.726
692.98	20.690
693.30	20.612
693.62	20.527
693.94	20.464
694.26	20.451
694.57	20.463
694.89	20.388
695.21	20.420
695.53	20.434
695.85	20.484
696.17	20.442
696.49	20.445
696.81	20.481
697.13	20.507
697.44	20.537
697.76	20.548
698.08	20.489
698.40	20.503
698.72	20.460
699.04	20.440
699.36	20.386
699.67	20.267
699.99	20.220
700.31	20.083
700.63	19.946
700.95	19.864
701.27	19.774
701.58	19.755
701.90	19.761
702.22	19.759
702.54	19.826
702.86	19.821
703.17	19.914
703.49	19.888
703.81	19.937
704.13	20.028
704.45	20.093
704.76	20.029
705.08	20.035
705.40	19.996
705.72	19.944
706.03	19.915
706.35	19.989
706.67	19.974
706.99	19.968
707.30	19.974
707.62	19.969
707.94	20.005
708.26	20.064
708.57	20.038
708.89	20.072
709.21	20.103
709.53	20.055
709.84	20.061
710.16	20.067
710.48	20.049
710.79	20.097
711.11	20.039
711.43	19.996
711.74	19.971
712.06	19.987
712.38	20.061
712.69	20.074
713.01	20.147
713.33	20.137
713.64	20.228
713.96	20.334
714.28	20.328
714.59	20.416
714.91	20.507
715.23	20.633
715.54	20.659
715.86	20.734
716.17	20.750
716.49	20.645
716.81	20.591
717.12	20.548
717.44	20.557
717.76	20.565
718.07	20.493
718.39	20.356
718.70	20.274
719.02	20.260
719.33	20.172
719.65	20.058
719.97	20.092
720.28	20.207
720.60	20.187
720.91	20.178
721.23	20.109
721.54	20.211
721.86	20.290
722.17	20.308
722.49	20.327
722.81	20.282
723.12	20.497
723.44	20.617
723.75	20.613
724.07	20.547
724.38	20.514
724.70	20.520
725.01	20.553
725.33	20.685
725.64	20.687
725.96	20.623
726.27	20.609
726.59	20.664
726.90	20.520
727.22	20.698
727.53	20.755
727.84	20.688
728.16	20.647
728.47	20.587
728.79	20.401
729.10	20.338
729.42	20.293
729.73	20.201
730.05	20.034
730.36	20.006
730.67	19.736
730.99	19.721
731.30	19.697
731.62	19.756
731.93	19.614
732.24	19.429
732.56	19.465
732.87	19.399
733.19	19.386
733.50	19.448
733.81	19.429
734.13	19.259
734.44	19.262
734.76	19.223
735.07	19.079
735.38	19.117
735.70	19.135
736.01	19.004
736.32	19.004
736.64	18.888
736.95	18.746
737.26	18.828
737.58	19.046
737.89	18.939
738.20	18.890
738.52	18.739
738.83	18.705
739.14	18.802
739.45	18.679
739.77	18.593
740.08	18.535
740.39	18.308
740.71	18.031
741.02	17.685
741.33	17.478
741.64	17.278
741.96	17.394
742.27	17.444
742.58	17.389
742.90	17.445
743.21	17.542
743.52	17.677
743.83	17.691
744.14	17.703
744.46	17.703
744.77	17.960
745.08	17.991
745.39	17.905
745.71	17.817
746.02	17.621
746.33	17.672
746.64	17.599
746.95	17.590
747.27	17.580
747.58	17.532
747.89	17.690
748.20	17.485
748.51	17.576
748.82	17.582
749.14	17.427
749.45	17.678
749.76	17.567
750.07	17.634
750.38	17.552
750.69	17.709
751.01	17.842
751.32	17.754
751.63	17.676
751.94	17.688
752.25	17.781
752.56	17.770
752.87	17.732
753.18	17.567
753.49	17.499
753.81	17.499
754.12	17.442
754.43	17.518
754.74	17.594
755.05	17.787
755.36	17.838
755.67	18.005
755.98	18.449
756.29	18.662
756.60	19.043
756.91	19.323
757.22	19.747
757.53	20.028
757.84	20.258
758.15	20.669
758.46	20.851
758.77	21.248
759.09	21.441
759.40	21.504
759.71	21.487
760.02	21.648
760.33	21.673
760.64	21.582
760.95	21.646
761.26	21.576
761.57	21.514
761.88	21.435
762.18	21.301
762.49	21.249
762.80	21.134
763.11	21.191
763.42	20.967
763.73	20.794
764.04	20.584
764.35	20.355
764.66	20.174
764.97	19.967
765.28	19.745
765.59	19.431
765.90	19.029
766.21	18.718
766.52	18.225
766.83	18.036
767.14	17.806
767.44	17.543
767.75	17.210
768.06	17.007
768.37	16.733
768.68	16.770
768.99	16.607
769.30	16.451
769.61	16.293
769.91	16.186
770.22	16.163
770.53	16.083
770.84	16.165
771.15	16.149
771.46	15.945
771.77	15.799
772.07	15.497
772.38	15.612
772.69	15.683
773.00	15.525
773.31	15.725
773.61	15.452
773.92	15.675
774.23	15.524
774.54	15.440
774.85	15.523
775.15	15.358
775.46	15.437
775.77	15.368
776.08	15.223
776.39	15.366
776.69	15.235
777.00	15.405
777.31	15.197
777.62	15.284
777.92	15.633
778.23	15.659
778.54	15.516
778.85	15.617
779.15	15.530
779.46	15.755
779.77	15.824
780.07	15.768
780.38	15.680
780.69	15.674
781.00	15.718
781.30	15.575
781.61	15.509
781.92	15.971
782.22	15.596
782.53	15.723
782.84	15.465
783.14	15.679
783.45	15.809
783.76	16.016
784.06	16.209
784.37	16.388
784.68	16.443
784.98	16.671
785.29	16.674
785.60	17.140
785.90	17.202
786.21	17.631
786.51	17.662
786.82	17.532
787.13	17.877
787.43	17.814
787.74	17.711
788.04	17.860
788.35	17.912
788.66	17.914
788.96	17.945
789.27	17.898
789.57	17.888
789.88	17.881
790.19	18.136
790.49	17.784
790.80	17.757
791.10	18.073
791.41	18.047
791.71	18.060
792.02	18.089
792.32	17.990
792.63	18.128
792.93	17.826
793.24	17.678
793.54	17.657
793.85	17.514
794.15	17.335
794.46	17.321
794.76	17.381
795.07	17.584
795.37	17.547
795.68	17.744
795.98	17.533
796.29	17.718
796.59	17.661
796.90	17.701
797.20	17.994
797.51	18.248
797.81	18.172
798.12	18.000
798.42	18.016
798.72	18.007
799.03	18.059
799.33	18.226
799.64	18.466
799.94	18.689
800.25	18.432
800.55	18.222
800.85	18.104
801.16	17.870
801.46	17.804
801.77	17.558
802.07	18.025
802.37	17.824
802.68	18.138
802.98	18.126
803.28	18.070
803.59	18.147
803.89	18.267
804.20	18.590
804.50	18.578
804.80	18.880
805.11	19.008
805.41	18.493
805.71	18.636
806.02	18.404
806.32	18.141
806.62	18.089
806.93	18.574
807.23	18.587
807.53	18.768
807.83	19.276
808.14	19.460
808.44	19.144
808.74	19.777
809.05	19.898
809.35	20.001
809.65	20.135
809.95	20.453
810.26	20.255
810.56	20.682
810.86	20.450
811.16	20.351
811.47	20.257
811.77	20.950
812.07	20.768
812.37	20.836
812.68	21.047
812.98	21.491
813.28	21.422
813.58	21.753
813.88	21.725
814.19	22.456
814.49	22.653
814.79	22.808
815.09	22.482
815.39	22.726
815.70	22.764
816.00	22.701
816.30	22.369
816.60	22.356
816.90	22.148
817.20	22.093
817.50	21.811
817.81	21.962
818.11	21.946
818.41	22.356
818.71	22.370
819.01	22.588
819.31	22.628
819.61	22.774
819.92	22.899
820.22	22.986
820.52	22.977
820.82	22.966
821.12	22.966
821.42	22.948
821.72	22.888
822.02	22.906
822.32	22.853
822.62	22.869
822.92	22.863
823.22	22.818
823.52	22.787
823.83	22.814
824.13	22.883
824.43	22.873
824.73	22.936
825.03	22.963
825.33	23.076
825.63	23.036
825.93	22.947
826.23	22.892
826.53	23.012
826.83	22.919
827.13	22.792
827.43	22.534
827.73	22.439
828.03	22.403
828.33	22.408
828.63	22.035
828.93	22.056
829.23	22.236
829.53	22.310
829.83	22.071
830.13	22.184
830.42	22.141
830.72	22.419
831.02	22.621
831.32	22.489
831.62	22.271
831.92	22.373
832.22	22.225
832.52	22.083
832.82	22.074
833.12	21.965
833.42	21.921
833.72	22.139
834.01	22.067
834.31	21.713
834.61	21.877
834.91	21.910
835.21	21.814
835.51	21.643
835.81	21.370
836.11	21.157
836.40	21.306
836.70	20.954
837.00	20.615
837.30	20.811
837.60	21.371
837.90	21.659
838.19	21.909
838.49	21.986
838.79	22.410
839.09	22.907
839.39	22.861
839.68	22.489
839.98	23.086
840.28	23.339
840.58	23.032
840.88	22.986
841.17	22.239
841.47	22.412
841.77	21.954
842.07	21.985
842.36	21.714
842.66	21.700
842.96	21.434
843.26	20.329
843.55	19.183
843.85	18.367
844.15	17.105
844.45	16.579
844.74	15.805
845.04	16.730
845.34	16.055
845.63	15.917
845.93	15.645
846.23	16.742
846.53	16.882
846.82	16.838
847.12	17.749
847.42	17.526
847.71	18.243
848.01	18.323
848.31	18.182
848.60	17.590
848.90	18.148
849.19	18.657
849.49	17.135
849.79	17.874
850.08	19.909
850.38	19.659
850.68	19.368
850.97	19.360
851.27	19.340
851.56	19.246
851.86	19.551
852.16	19.109
852.45	19.561
852.75	20.031
853.04	18.617
853.34	17.738
853.64	17.482
853.93	19.063
854.23	19.223
854.52	18.595
854.82	17.635
855.11	18.696
855.41	16.807
855.70	14.649
856.00	13.864
856.30	14.757
856.59	14.944
856.89	13.772
857.18	12.676
857.48	12.145
857.77	11.714
858.07	13.087
858.36	12.667
858.66	14.997
858.95	16.105
859.25	16.708
859.54	17.228
859.84	17.034
860.13	17.908
860.42	19.243
860.72	20.745
861.01	20.640
861.31	20.746
861.60	21.370
861.90	20.417
862.19	19.213
862.49	20.428
862.78	21.652
863.07	21.298
863.37	22.458
863.66	22.925
863.96	21.273
864.25	22.171
864.54	21.514
864.84	20.727
865.13	20.492
865.43	21.709
865.72	21.307
866.01	17.433
866.31	18.336
866.60	6.726
866.89	21.294
>>>>>End Spectral Data<<<<<
