OOIBase32 Version 2.0.0.6 Data File
++++++++++++++++++++++++++++++++++++
Date: 01-20-2012, 23:15:01
User: Valued Ocean Optics Customer
Spectrometer Serial Number: USB2E2917
Spectrometer Channel: Master
Integration Time (msec): 3
Spectra Averaged: 10
Boxcar Smoothing: 5
Correct for Electrical Dark: Enabled
Time Normalized: Disabled
Dual-beam Reference: Disabled
Reference Channel: Master
Temperature: Not acquired
Spectrometer Type: S2000
ADC Type: USB2000
Number of Pixels in File: 2048
Graph Title: 
>>>>>Begin Spectral Data<<<<<
180.30	0.000
180.67	0.000
181.03	118.318
181.40	-337.101
181.77	193.912
182.14	-401.349
182.51	107.002
182.88	222.877
183.25	-177.073
183.62	867.760
183.99	38.168
184.36	32.677
184.73	176.358
185.10	-109.747
185.46	-103.576
185.83	301.908
186.20	133.410
186.57	-41.009
186.94	185.825
187.31	4.249
187.68	74.469
188.05	84.018
188.42	27.465
188.78	35.285
189.15	40.114
189.52	21.827
189.89	7.488
190.26	8.520
190.63	6.497
191.00	-15.403
191.37	-7.374
191.73	-5.442
192.10	10.871
192.47	10.271
192.84	-7.035
193.21	4.298
193.58	0.135
193.94	2.077
194.31	-4.637
194.68	-21.351
195.05	-10.189
195.42	-18.230
195.79	-10.048
196.15	-6.252
196.52	16.903
196.89	28.608
197.26	22.856
197.63	5.077
198.00	-11.571
198.36	-24.296
198.73	125.503
199.10	-157.997
199.47	10.061
199.84	-62.754
200.20	-79.512
200.57	-173.365
200.94	-1176.752
201.31	-443.445
201.68	-158.599
202.04	-35.948
202.41	-29.301
202.78	-38.284
203.15	-35.707
203.51	-30.823
203.88	-53.289
204.25	-61.580
204.62	-62.485
204.98	-41.922
205.35	-38.572
205.72	-21.916
206.09	5.893
206.46	13.316
206.82	32.555
207.19	33.441
207.56	48.546
207.92	33.078
208.29	13.755
208.66	22.488
209.03	3.906
209.39	0.647
209.76	12.563
210.13	3.398
210.50	12.563
210.86	15.475
211.23	8.676
211.60	4.104
211.96	19.189
212.33	25.451
212.70	39.505
213.07	68.304
213.43	75.935
213.80	61.504
214.17	44.574
214.53	51.013
214.90	63.684
215.27	78.334
215.63	71.260
216.00	66.977
216.37	65.621
216.74	55.429
217.10	46.184
217.47	45.085
217.84	47.381
218.20	52.731
218.57	43.447
218.94	37.218
219.30	28.059
219.67	14.072
220.04	14.103
220.40	20.408
220.77	14.184
221.13	14.619
221.50	5.206
221.87	-2.031
222.23	-10.027
222.60	-12.293
222.97	-4.854
223.33	11.090
223.70	23.054
224.07	18.526
224.43	18.130
224.80	19.446
225.16	16.308
225.53	12.742
225.90	10.012
226.26	10.406
226.63	10.857
226.99	7.460
227.36	5.180
227.73	5.209
228.09	5.529
228.46	3.759
228.82	2.597
229.19	3.346
229.56	4.894
229.92	7.256
230.29	7.792
230.65	8.617
231.02	11.064
231.38	11.400
231.75	10.862
232.12	11.314
232.48	11.646
232.85	10.539
233.21	9.033
233.58	9.698
233.94	9.284
234.31	7.782
234.68	6.104
235.04	5.997
235.41	6.468
235.77	5.682
236.14	5.956
236.50	6.109
236.87	8.261
237.23	9.007
237.60	7.817
237.96	6.319
238.33	6.991
238.69	5.854
239.06	5.524
239.42	5.530
239.79	5.199
240.15	4.279
240.52	4.232
240.88	3.312
241.25	3.130
241.61	3.134
241.98	3.728
242.34	4.303
242.71	5.207
243.07	5.186
243.44	5.337
243.80	5.472
244.17	6.072
244.53	6.211
244.90	6.558
245.26	6.636
245.63	6.493
245.99	6.312
246.36	5.987
246.72	5.753
247.09	5.661
247.45	5.487
247.81	5.553
248.18	5.302
248.54	5.282
248.91	5.169
249.27	5.054
249.64	5.147
250.00	4.962
250.36	5.047
250.73	5.211
251.09	5.570
251.46	5.266
251.82	4.804
252.19	4.521
252.55	4.470
252.91	4.196
253.28	3.773
253.64	4.374
254.01	4.748
254.37	4.702
254.73	4.725
255.10	4.643
255.46	4.878
255.83	4.783
256.19	4.927
256.55	5.086
256.92	5.366
257.28	5.637
257.65	5.588
258.01	5.589
258.37	5.379
258.74	5.587
259.10	5.486
259.46	5.411
259.83	5.647
260.19	5.687
260.55	5.441
260.92	5.466
261.28	5.100
261.64	4.932
262.01	4.988
262.37	5.606
262.73	5.498
263.10	5.725
263.46	5.674
263.82	5.550
264.19	5.802
264.55	6.051
264.91	5.979
265.28	6.676
265.64	6.632
266.00	6.443
266.37	5.962
266.73	5.497
267.09	5.343
267.46	5.729
267.82	5.881
268.18	5.975
268.54	5.980
268.91	5.991
269.27	5.812
269.63	5.781
270.00	5.791
270.36	5.759
270.72	5.886
271.08	6.022
271.45	5.793
271.81	5.667
272.17	5.350
272.53	5.319
272.90	5.020
273.26	4.716
273.62	4.691
273.98	4.653
274.35	5.011
274.71	5.076
275.07	4.726
275.43	4.776
275.80	4.683
276.16	4.385
276.52	4.290
276.88	4.468
277.25	5.065
277.61	5.036
277.97	5.076
278.33	4.882
278.69	4.718
279.06	4.775
279.42	4.779
279.78	4.914
280.14	5.110
280.50	5.086
280.87	5.049
281.23	4.791
281.59	4.912
281.95	4.685
282.31	4.726
282.68	4.910
283.04	5.021
283.40	5.195
283.76	5.243
284.12	5.265
284.48	5.234
284.85	5.511
285.21	5.606
285.57	5.373
285.93	5.523
286.29	5.532
286.65	5.476
287.02	5.519
287.38	5.246
287.74	5.226
288.10	5.583
288.46	5.813
288.82	5.554
289.18	5.409
289.54	5.661
289.91	5.718
290.27	5.747
290.63	5.765
290.99	5.649
291.35	5.752
291.71	5.799
292.07	5.478
292.43	5.526
292.79	5.384
293.16	5.362
293.52	5.476
293.88	5.410
294.24	5.398
294.60	5.427
294.96	5.569
295.32	5.504
295.68	5.538
296.04	5.453
296.40	5.225
296.76	5.387
297.12	5.448
297.49	5.251
297.85	4.933
298.21	4.894
298.57	4.876
298.93	4.949
299.29	4.980
299.65	4.953
300.01	5.092
300.37	5.281
300.73	5.188
301.09	5.172
301.45	5.362
301.81	5.852
302.17	5.957
302.53	6.092
302.89	5.925
303.25	6.052
303.61	6.067
303.97	5.986
304.33	5.778
304.69	5.720
305.05	5.642
305.41	5.562
305.77	5.598
306.13	5.386
306.49	5.158
306.85	5.120
307.21	5.039
307.57	4.870
307.93	4.881
308.29	5.011
308.65	5.084
309.01	5.165
309.37	5.285
309.73	5.243
310.09	5.281
310.45	5.272
310.81	5.319
311.17	5.389
311.53	5.408
311.89	5.456
312.25	5.374
312.61	5.312
312.96	5.242
313.32	5.089
313.68	5.082
314.04	5.268
314.40	5.341
314.76	5.276
315.12	5.241
315.48	5.244
315.84	5.110
316.20	5.224
316.56	5.270
316.92	5.367
317.27	5.320
317.63	5.316
317.99	5.270
318.35	5.191
318.71	5.304
319.07	5.321
319.43	5.412
319.79	5.515
320.15	5.468
320.50	5.550
320.86	5.558
321.22	5.659
321.58	5.603
321.94	5.489
322.30	5.628
322.66	5.607
323.01	5.574
323.37	5.515
323.73	5.491
324.09	5.406
324.45	5.368
324.81	5.398
325.17	5.240
325.52	5.290
325.88	5.396
326.24	5.296
326.60	5.340
326.96	5.442
327.31	5.533
327.67	5.592
328.03	5.710
328.39	5.748
328.75	5.679
329.11	5.796
329.46	5.710
329.82	5.504
330.18	5.506
330.54	5.433
330.90	5.242
331.25	5.286
331.61	5.273
331.97	5.276
332.33	5.242
332.68	5.260
333.04	5.313
333.40	5.370
333.76	5.556
334.11	5.610
334.47	5.595
334.83	5.709
335.19	5.686
335.54	5.684
335.90	5.551
336.26	5.597
336.62	5.545
336.97	5.453
337.33	5.483
337.69	5.489
338.05	5.573
338.40	5.630
338.76	5.551
339.12	5.578
339.48	5.627
339.83	5.808
340.19	5.792
340.55	5.802
340.90	5.873
341.26	5.880
341.62	5.831
341.97	5.702
342.33	5.696
342.69	5.726
343.04	5.744
343.40	5.639
343.76	5.487
344.12	5.349
344.47	5.261
344.83	5.192
345.19	5.116
345.54	5.090
345.90	5.113
346.26	5.026
346.61	5.022
346.97	4.964
347.32	4.947
347.68	4.948
348.04	5.060
348.39	5.153
348.75	5.248
349.11	5.292
349.46	5.305
349.82	5.272
350.18	5.302
350.53	5.246
350.89	5.276
351.24	5.307
351.60	5.343
351.96	5.310
352.31	5.355
352.67	5.376
353.02	5.350
353.38	5.342
353.74	5.353
354.09	5.470
354.45	5.581
354.80	5.566
355.16	5.576
355.52	5.617
355.87	5.672
356.23	5.656
356.58	5.575
356.94	5.577
357.29	5.586
357.65	5.621
358.00	5.528
358.36	5.505
358.72	5.609
359.07	5.612
359.43	5.520
359.78	5.557
360.14	5.515
360.49	5.572
360.85	5.595
361.20	5.641
361.56	5.617
361.91	5.637
362.27	5.586
362.62	5.510
362.98	5.558
363.33	5.675
363.69	5.610
364.04	5.656
364.40	5.657
364.75	5.600
365.11	5.572
365.46	5.574
365.82	5.550
366.17	5.614
366.53	5.639
366.88	5.645
367.24	5.569
367.59	5.562
367.95	5.550
368.30	5.544
368.66	5.560
369.01	5.521
369.37	5.584
369.72	5.616
370.08	5.602
370.43	5.546
370.78	5.523
371.14	5.641
371.49	5.694
371.85	5.743
372.20	5.768
372.56	5.780
372.91	5.828
373.26	5.789
373.62	5.799
373.97	5.799
374.33	5.785
374.68	5.772
375.03	5.722
375.39	5.702
375.74	5.700
376.10	5.685
376.45	5.740
376.80	5.722
377.16	5.693
377.51	5.680
377.87	5.641
378.22	5.675
378.57	5.680
378.93	5.692
379.28	5.707
379.63	5.658
379.99	5.686
380.34	5.659
380.70	5.659
381.05	5.729
381.40	5.732
381.76	5.772
382.11	5.746
382.46	5.710
382.82	5.664
383.17	5.623
383.52	5.636
383.88	5.604
384.23	5.573
384.58	5.551
384.94	5.513
385.29	5.506
385.64	5.489
385.99	5.470
386.35	5.544
386.70	5.559
387.05	5.527
387.41	5.528
387.76	5.520
388.11	5.527
388.47	5.521
388.82	5.545
389.17	5.580
389.52	5.620
389.88	5.640
390.23	5.661
390.58	5.707
390.93	5.715
391.29	5.710
391.64	5.704
391.99	5.718
392.34	5.718
392.70	5.694
393.05	5.673
393.40	5.648
393.75	5.675
394.11	5.657
394.46	5.637
394.81	5.676
395.16	5.663
395.52	5.629
395.87	5.570
396.22	5.595
396.57	5.567
396.92	5.527
397.28	5.519
397.63	5.523
397.98	5.448
398.33	5.402
398.68	5.408
399.04	5.463
399.39	5.485
399.74	5.452
400.09	5.449
400.44	5.476
400.80	5.494
401.15	5.514
401.50	5.485
401.85	5.504
402.20	5.535
402.55	5.519
402.90	5.490
403.26	5.505
403.61	5.570
403.96	5.564
404.31	5.590
404.66	5.584
405.01	5.559
405.36	5.524
405.72	5.509
406.07	5.439
406.42	5.477
406.77	5.455
407.12	5.413
407.47	5.440
407.82	5.406
408.17	5.392
408.53	5.357
408.88	5.365
409.23	5.394
409.58	5.392
409.93	5.426
410.28	5.386
410.63	5.397
410.98	5.384
411.33	5.349
411.68	5.348
412.03	5.330
412.38	5.376
412.73	5.383
413.09	5.395
413.44	5.408
413.79	5.425
414.14	5.430
414.49	5.437
414.84	5.498
415.19	5.515
415.54	5.525
415.89	5.496
416.24	5.504
416.59	5.498
416.94	5.484
417.29	5.513
417.64	5.525
417.99	5.554
418.34	5.544
418.69	5.528
419.04	5.532
419.39	5.532
419.74	5.551
420.09	5.529
420.44	5.519
420.79	5.532
421.14	5.509
421.49	5.513
421.84	5.478
422.19	5.475
422.54	5.470
422.89	5.459
423.24	5.470
423.59	5.475
423.94	5.483
424.29	5.481
424.64	5.477
424.99	5.477
425.34	5.442
425.68	5.447
426.03	5.457
426.38	5.446
426.73	5.454
427.08	5.450
427.43	5.437
427.78	5.448
428.13	5.471
428.48	5.473
428.83	5.495
429.18	5.548
429.53	5.557
429.87	5.535
430.22	5.530
430.57	5.506
430.92	5.495
431.27	5.497
431.62	5.506
431.97	5.515
432.32	5.504
432.67	5.458
433.01	5.416
433.36	5.400
433.71	5.422
434.06	5.433
434.41	5.455
434.76	5.435
435.11	5.423
435.45	5.411
435.80	5.432
436.15	5.446
436.50	5.484
436.85	5.491
437.20	5.500
437.54	5.497
437.89	5.510
438.24	5.514
438.59	5.536
438.94	5.553
439.29	5.552
439.63	5.512
439.98	5.497
440.33	5.493
440.68	5.490
441.03	5.478
441.37	5.473
441.72	5.475
442.07	5.468
442.42	5.483
442.76	5.488
443.11	5.503
443.46	5.521
443.81	5.530
444.16	5.558
444.50	5.578
444.85	5.593
445.20	5.594
445.55	5.582
445.89	5.562
446.24	5.553
446.59	5.534
446.94	5.507
447.28	5.510
447.63	5.519
447.98	5.496
448.32	5.472
448.67	5.462
449.02	5.459
449.37	5.463
449.71	5.515
450.06	5.521
450.41	5.531
450.75	5.536
451.10	5.537
451.45	5.529
451.79	5.525
452.14	5.538
452.49	5.556
452.84	5.553
453.18	5.558
453.53	5.556
453.88	5.556
454.22	5.566
454.57	5.588
454.92	5.581
455.26	5.587
455.61	5.600
455.95	5.610
456.30	5.602
456.65	5.625
456.99	5.640
457.34	5.647
457.69	5.644
458.03	5.644
458.38	5.650
458.73	5.638
459.07	5.638
459.42	5.636
459.76	5.615
460.11	5.605
460.46	5.578
460.80	5.555
461.15	5.511
461.49	5.493
461.84	5.477
462.19	5.448
462.53	5.454
462.88	5.478
463.22	5.468
463.57	5.476
463.91	5.480
464.26	5.527
464.61	5.535
464.95	5.549
465.30	5.574
465.64	5.595
465.99	5.612
466.33	5.620
466.68	5.625
467.02	5.631
467.37	5.637
467.71	5.646
468.06	5.627
468.41	5.652
468.75	5.652
469.10	5.669
469.44	5.664
469.79	5.671
470.13	5.661
470.48	5.611
470.82	5.616
471.17	5.617
471.51	5.618
471.86	5.619
472.20	5.605
472.55	5.619
472.89	5.603
473.23	5.607
473.58	5.603
473.92	5.620
474.27	5.648
474.61	5.627
474.96	5.622
475.30	5.627
475.65	5.638
475.99	5.614
476.34	5.622
476.68	5.620
477.02	5.618
477.37	5.614
477.71	5.623
478.06	5.641
478.40	5.662
478.75	5.711
479.09	5.750
479.43	5.772
479.78	5.832
480.12	5.847
480.47	5.877
480.81	5.911
481.15	5.947
481.50	5.970
481.84	5.984
482.19	6.018
482.53	6.036
482.87	6.047
483.22	6.069
483.56	6.066
483.90	6.066
484.25	6.054
484.59	6.035
484.94	6.019
485.28	6.010
485.62	5.999
485.97	5.968
486.31	5.948
486.65	5.929
487.00	5.908
487.34	5.897
487.68	5.900
488.03	5.910
488.37	5.921
488.71	5.914
489.06	5.912
489.40	5.912
489.74	5.916
490.09	5.902
490.43	5.909
490.77	5.908
491.11	5.900
491.46	5.904
491.80	5.901
492.14	5.891
492.49	5.898
492.83	5.896
493.17	5.889
493.51	5.888
493.86	5.891
494.20	5.886
494.54	5.882
494.88	5.889
495.23	5.899
495.57	5.908
495.91	5.925
496.25	5.927
496.60	5.929
496.94	5.953
497.28	5.964
497.62	5.979
497.97	5.996
498.31	5.974
498.65	6.000
498.99	5.985
499.33	5.993
499.68	5.994
500.02	6.011
500.36	6.023
500.70	6.019
501.04	6.040
501.39	6.067
501.73	6.082
502.07	6.136
502.41	6.174
502.75	6.211
503.09	6.260
503.44	6.269
503.78	6.303
504.12	6.329
504.46	6.368
504.80	6.391
505.14	6.406
505.49	6.423
505.83	6.468
506.17	6.477
506.51	6.510
506.85	6.518
507.19	6.565
507.53	6.599
507.87	6.636
508.22	6.665
508.56	6.696
508.90	6.704
509.24	6.733
509.58	6.761
509.92	6.779
510.26	6.810
510.60	6.869
510.94	6.910
511.28	6.947
511.63	6.988
511.97	7.017
512.31	7.053
512.65	7.130
512.99	7.189
513.33	7.222
513.67	7.258
514.01	7.294
514.35	7.315
514.69	7.369
515.03	7.403
515.37	7.437
515.71	7.517
516.05	7.558
516.39	7.611
516.73	7.650
517.07	7.697
517.41	7.754
517.75	7.825
518.09	7.863
518.43	7.888
518.77	7.949
519.11	7.991
519.45	7.996
519.79	8.033
520.13	8.068
520.47	8.123
520.81	8.163
521.15	8.239
521.49	8.274
521.83	8.342
522.17	8.400
522.51	8.446
522.85	8.543
523.19	8.640
523.53	8.724
523.87	8.824
524.21	8.886
524.55	8.982
524.89	9.027
525.23	9.091
525.57	9.143
525.91	9.217
526.25	9.267
526.58	9.298
526.92	9.327
527.26	9.368
527.60	9.377
527.94	9.407
528.28	9.411
528.62	9.437
528.96	9.450
529.30	9.470
529.64	9.469
529.97	9.485
530.31	9.494
530.65	9.501
530.99	9.503
531.33	9.534
531.67	9.538
532.01	9.571
532.35	9.575
532.68	9.581
533.02	9.583
533.36	9.578
533.70	9.556
534.04	9.569
534.38	9.571
534.71	9.573
535.05	9.552
535.39	9.569
535.73	9.559
536.07	9.567
536.41	9.593
536.74	9.608
537.08	9.662
537.42	9.692
537.76	9.714
538.10	9.755
538.43	9.768
538.77	9.821
539.11	9.837
539.45	9.851
539.79	9.879
540.12	9.912
540.46	9.932
540.80	9.919
541.14	9.930
541.47	9.931
541.81	9.935
542.15	9.948
542.49	9.939
542.82	9.951
543.16	9.943
543.50	9.931
543.84	9.907
544.17	9.905
544.51	9.914
544.85	9.915
545.18	9.917
545.52	9.934
545.86	9.952
546.20	9.939
546.53	9.939
546.87	9.969
547.21	9.983
547.54	9.992
547.88	10.001
548.22	10.022
548.55	10.064
548.89	10.096
549.23	10.086
549.56	10.089
549.90	10.087
550.24	10.078
550.57	10.069
550.91	10.083
551.25	10.071
551.58	10.080
551.92	10.070
552.26	10.069
552.59	10.070
552.93	10.055
553.27	10.065
553.60	10.080
553.94	10.128
554.27	10.153
554.61	10.143
554.95	10.170
555.28	10.161
555.62	10.164
555.95	10.146
556.29	10.110
556.63	10.127
556.96	10.134
557.30	10.146
557.63	10.089
557.97	10.055
558.31	10.065
558.64	10.054
558.98	10.074
559.31	10.074
559.65	10.099
559.98	10.095
560.32	10.093
560.65	10.065
560.99	10.055
561.33	10.069
561.66	10.079
562.00	10.062
562.33	10.056
562.67	10.042
563.00	10.031
563.34	10.014
563.67	10.015
564.01	10.001
564.34	10.000
564.68	10.000
565.01	9.999
565.35	9.980
565.68	9.982
566.02	9.969
566.35	9.932
566.69	9.919
567.02	9.872
567.36	9.868
567.69	9.862
568.03	9.856
568.36	9.823
568.69	9.784
569.03	9.785
569.36	9.744
569.70	9.742
570.03	9.740
570.37	9.738
570.70	9.747
571.04	9.733
571.37	9.735
571.70	9.727
572.04	9.734
572.37	9.709
572.71	9.688
573.04	9.694
573.37	9.636
573.71	9.616
574.04	9.604
574.38	9.592
574.71	9.574
575.04	9.521
575.38	9.496
575.71	9.458
576.05	9.481
576.38	9.484
576.71	9.451
577.05	9.483
577.38	9.450
577.71	9.416
578.05	9.417
578.38	9.411
578.71	9.418
579.05	9.395
579.38	9.428
579.71	9.448
580.05	9.401
580.38	9.395
580.71	9.333
581.05	9.339
581.38	9.327
581.71	9.305
582.05	9.293
582.38	9.274
582.71	9.283
583.04	9.223
583.38	9.147
583.71	9.185
584.04	9.178
584.38	9.217
584.71	9.240
585.04	9.241
585.37	9.247
585.71	9.229
586.04	9.221
586.37	9.201
586.70	9.206
587.04	9.228
587.37	9.225
587.70	9.244
588.03	9.239
588.37	9.231
588.70	9.234
589.03	9.228
589.36	9.257
589.69	9.286
590.03	9.318
590.36	9.326
590.69	9.319
591.02	9.301
591.35	9.315
591.69	9.309
592.02	9.298
592.35	9.299
592.68	9.340
593.01	9.303
593.35	9.303
593.68	9.280
594.01	9.303
594.34	9.298
594.67	9.280
595.00	9.256
595.34	9.245
595.67	9.249
596.00	9.271
596.33	9.182
596.66	9.199
596.99	9.162
597.32	9.153
597.65	9.139
597.99	9.163
598.32	9.205
598.65	9.197
598.98	9.229
599.31	9.197
599.64	9.149
599.97	9.173
600.30	9.170
600.63	9.206
600.96	9.179
601.30	9.168
601.63	9.161
601.96	9.154
602.29	9.187
602.62	9.154
602.95	9.182
603.28	9.186
603.61	9.199
603.94	9.175
604.27	9.192
604.60	9.257
604.93	9.283
605.26	9.270
605.59	9.278
605.92	9.267
606.25	9.273
606.58	9.279
606.91	9.268
607.24	9.245
607.57	9.312
607.90	9.295
608.23	9.252
608.56	9.213
608.89	9.235
609.22	9.207
609.55	9.186
609.88	9.189
610.21	9.172
610.54	9.206
610.87	9.241
611.20	9.165
611.53	9.130
611.86	9.128
612.19	9.137
612.52	9.115
612.85	9.104
613.18	9.107
613.51	9.131
613.84	9.114
614.17	9.105
614.49	9.118
614.82	9.128
615.15	9.113
615.48	9.097
615.81	9.078
616.14	9.073
616.47	9.073
616.80	9.075
617.13	9.058
617.46	9.060
617.78	9.069
618.11	9.039
618.44	9.049
618.77	9.040
619.10	9.005
619.43	9.012
619.76	9.008
620.09	9.018
620.41	8.998
620.74	8.959
621.07	8.945
621.40	8.915
621.73	8.947
622.06	8.917
622.38	8.961
622.71	9.028
623.04	9.032
623.37	9.047
623.70	9.063
624.02	9.104
624.35	9.130
624.68	9.190
625.01	9.221
625.34	9.219
625.66	9.261
625.99	9.257
626.32	9.252
626.65	9.292
626.98	9.294
627.30	9.272
627.63	9.274
627.96	9.257
628.29	9.214
628.61	9.228
628.94	9.202
629.27	9.228
629.60	9.237
629.92	9.251
630.25	9.212
630.58	9.205
630.91	9.172
631.23	9.121
631.56	9.107
631.89	9.089
632.21	9.061
632.54	9.022
632.87	8.913
633.19	8.872
633.52	8.847
633.85	8.826
634.18	8.827
634.50	8.856
634.83	8.854
635.16	8.862
635.48	8.859
635.81	8.835
636.14	8.868
636.46	8.950
636.79	8.876
637.11	8.834
637.44	8.832
637.77	8.800
638.09	8.760
638.42	8.729
638.75	8.686
639.07	8.669
639.40	8.633
639.73	8.622
640.05	8.563
640.38	8.645
640.70	8.644
641.03	8.611
641.36	8.612
641.68	8.588
642.01	8.617
642.33	8.620
642.66	8.571
642.98	8.550
643.31	8.489
643.64	8.503
643.96	8.407
644.29	8.407
644.61	8.422
644.94	8.365
645.26	8.354
645.59	8.335
645.91	8.345
646.24	8.386
646.56	8.454
646.89	8.484
647.22	8.443
647.54	8.498
647.87	8.480
648.19	8.454
648.52	8.476
648.84	8.456
649.17	8.447
649.49	8.454
649.82	8.422
650.14	8.303
650.47	8.298
650.79	8.328
651.11	8.325
651.44	8.304
651.76	8.300
652.09	8.291
652.41	8.316
652.74	8.293
653.06	8.298
653.39	8.362
653.71	8.434
654.04	8.479
654.36	8.448
654.68	8.435
655.01	8.468
655.33	8.492
655.66	8.506
655.98	8.492
656.30	8.496
656.63	8.504
656.95	8.552
657.28	8.503
657.60	8.450
657.92	8.450
658.25	8.490
658.57	8.492
658.90	8.543
659.22	8.515
659.54	8.574
659.87	8.700
660.19	8.741
660.51	8.705
660.84	8.808
661.16	8.871
661.48	8.919
661.81	8.934
662.13	8.935
662.45	8.886
662.78	8.973
663.10	8.981
663.42	8.905
663.75	8.827
664.07	8.877
664.39	8.878
664.72	8.906
665.04	8.986
665.36	9.079
665.69	9.039
666.01	9.033
666.33	9.016
666.65	9.008
666.98	9.026
667.30	9.111
667.62	9.152
667.94	9.174
668.27	9.171
668.59	9.220
668.91	9.147
669.23	9.372
669.56	9.488
669.88	9.573
670.20	9.635
670.52	9.743
670.85	9.802
671.17	9.893
671.49	9.994
671.81	10.113
672.13	10.117
672.46	10.293
672.78	10.334
673.10	10.498
673.42	10.627
673.74	10.795
674.07	10.887
674.39	11.100
674.71	11.074
675.03	11.183
675.35	11.251
675.67	11.330
676.00	11.378
676.32	11.421
676.64	11.409
676.96	11.494
677.28	11.555
677.60	11.522
677.92	11.503
678.25	11.593
678.57	11.611
678.89	11.662
679.21	11.715
679.53	11.772
679.85	11.881
680.17	11.969
680.49	12.115
680.81	12.167
681.13	12.427
681.46	12.577
681.78	12.716
682.10	12.911
682.42	13.073
682.74	13.221
683.06	13.401
683.38	13.546
683.70	13.687
684.02	13.675
684.34	13.743
684.66	13.803
684.98	13.894
685.30	13.980
685.62	14.011
685.94	14.056
686.26	14.246
686.58	14.264
686.90	14.304
687.22	14.337
687.54	14.385
687.86	14.546
688.18	14.514
688.50	14.621
688.82	14.703
689.14	14.811
689.46	14.878
689.78	14.853
690.10	14.968
690.42	15.014
690.74	15.127
691.06	15.286
691.38	15.357
691.70	15.524
692.02	15.537
692.34	15.655
692.66	15.775
692.98	15.979
693.30	16.132
693.62	16.211
693.94	16.341
694.26	16.421
694.57	16.461
694.89	16.458
695.21	16.423
695.53	16.466
695.85	16.433
696.17	16.376
696.49	16.401
696.81	16.444
697.13	16.445
697.44	16.410
697.76	16.408
698.08	16.506
698.40	16.724
698.72	16.933
699.04	17.046
699.36	17.193
699.67	17.369
699.99	17.493
700.31	17.524
700.63	17.775
700.95	17.925
701.27	18.145
701.58	18.191
701.90	18.222
702.22	18.324
702.54	18.433
702.86	18.582
703.17	18.713
703.49	18.750
703.81	18.925
704.13	18.911
704.45	19.176
704.76	19.297
705.08	19.516
705.40	19.653
705.72	19.710
706.03	19.835
706.35	19.981
706.67	20.059
706.99	20.141
707.30	20.226
707.62	20.256
707.94	20.184
708.26	20.208
708.57	20.303
708.89	20.265
709.21	20.386
709.53	20.467
709.84	20.450
710.16	20.483
710.48	20.640
710.79	20.613
711.11	20.621
711.43	20.730
711.74	20.770
712.06	20.627
712.38	20.668
712.69	20.594
713.01	20.588
713.33	20.572
713.64	20.713
713.96	20.731
714.28	20.896
714.59	21.103
714.91	21.252
715.23	21.408
715.54	21.693
715.86	21.880
716.17	22.096
716.49	22.274
716.81	22.462
717.12	22.451
717.44	22.587
717.76	22.615
718.07	22.700
718.39	22.772
718.70	22.838
719.02	22.790
719.33	22.808
719.65	22.922
719.97	22.932
720.28	23.045
720.60	23.257
720.91	23.479
721.23	23.798
721.54	23.913
721.86	24.016
722.17	24.018
722.49	24.119
722.81	24.308
723.12	24.456
723.44	24.501
723.75	24.687
724.07	24.888
724.38	24.886
724.70	24.640
725.01	24.606
725.33	24.672
725.64	25.046
725.96	25.340
726.27	25.262
726.59	25.223
726.90	25.256
727.22	25.281
727.53	25.098
727.84	24.957
728.16	25.128
728.47	25.304
728.79	25.298
729.10	25.146
729.42	25.096
729.73	25.203
730.05	25.243
730.36	25.412
730.67	25.482
730.99	25.664
731.30	25.880
731.62	25.987
731.93	26.014
732.24	26.004
732.56	26.059
732.87	25.975
733.19	26.160
733.50	26.127
733.81	26.252
734.13	26.153
734.44	26.312
734.76	26.472
735.07	26.600
735.38	26.660
735.70	26.891
736.01	26.955
736.32	27.239
736.64	27.246
736.95	27.511
737.26	27.501
737.58	27.644
737.89	27.478
738.20	27.441
738.52	27.375
738.83	27.522
739.14	27.597
739.45	27.813
739.77	27.754
740.08	27.747
740.39	27.703
740.71	27.713
741.02	27.722
741.33	27.912
741.64	27.809
741.96	27.964
742.27	28.101
742.58	28.136
742.90	27.882
743.21	27.923
743.52	28.061
743.83	27.887
744.14	27.889
744.46	27.937
744.77	27.925
745.08	28.221
745.39	28.219
745.71	28.014
746.02	28.048
746.33	28.136
746.64	28.117
746.95	27.799
747.27	28.151
747.58	28.078
747.89	28.083
748.20	27.976
748.51	27.750
748.82	27.632
749.14	27.688
749.45	27.527
749.76	27.562
750.07	27.563
750.38	27.719
750.69	27.538
751.01	27.576
751.32	27.564
751.63	27.696
751.94	27.868
752.25	28.008
752.56	27.895
752.87	28.046
753.18	28.049
753.49	28.138
753.81	28.131
754.12	28.120
754.43	28.023
754.74	27.915
755.05	27.809
755.36	27.482
755.67	27.261
755.98	27.335
756.29	27.287
756.60	27.159
756.91	26.938
757.22	26.997
757.53	27.097
757.84	27.136
758.15	27.335
758.46	27.279
758.77	27.352
759.09	27.438
759.40	27.356
759.71	27.302
760.02	27.472
760.33	27.510
760.64	27.402
760.95	27.273
761.26	27.317
761.57	27.173
761.88	27.198
762.18	27.187
762.49	27.220
762.80	27.275
763.11	27.174
763.42	26.950
763.73	26.931
764.04	27.018
764.35	26.970
764.66	26.878
764.97	26.893
765.28	27.004
765.59	27.083
765.90	27.072
766.21	27.096
766.52	27.320
766.83	27.376
767.14	27.428
767.44	27.072
767.75	26.980
768.06	26.979
768.37	27.085
768.68	26.772
768.99	26.698
769.30	26.630
769.61	26.376
769.91	26.251
770.22	26.341
770.53	26.184
770.84	26.558
771.15	26.752
771.46	26.876
771.77	26.560
772.07	26.717
772.38	26.544
772.69	26.457
773.00	26.741
773.31	26.949
773.61	27.087
773.92	27.299
774.23	27.293
774.54	27.513
774.85	27.444
775.15	27.606
775.46	27.467
775.77	27.464
776.08	27.672
776.39	27.677
776.69	27.554
777.00	27.027
777.31	26.820
777.62	26.757
777.92	26.373
778.23	26.436
778.54	26.649
778.85	26.741
779.15	26.833
779.46	26.923
779.77	26.822
780.07	26.838
780.38	27.370
780.69	27.408
781.00	27.372
781.30	27.261
781.61	27.241
781.92	27.196
782.22	27.089
782.53	27.406
782.84	27.331
783.14	27.535
783.45	27.720
783.76	27.736
784.06	27.901
784.37	28.109
784.68	28.688
784.98	28.766
785.29	28.268
785.60	28.386
785.90	28.007
786.21	28.019
786.51	27.857
786.82	27.673
787.13	27.624
787.43	27.308
787.74	27.310
788.04	26.973
788.35	26.872
788.66	26.850
788.96	26.609
789.27	26.687
789.57	26.718
789.88	26.739
790.19	26.748
790.49	26.611
790.80	26.838
791.10	26.752
791.41	27.067
791.71	26.909
792.02	27.728
792.32	28.090
792.63	28.309
792.93	28.348
793.24	28.513
793.54	28.446
793.85	28.317
794.15	28.267
794.46	28.038
794.76	28.257
795.07	28.278
795.37	27.962
795.68	27.786
795.98	27.533
796.29	27.223
796.59	26.883
796.90	26.980
797.20	27.591
797.51	27.765
797.81	27.850
798.12	27.140
798.42	27.607
798.72	27.406
799.03	27.758
799.33	27.992
799.64	28.228
799.94	28.496
800.25	28.449
800.55	28.243
800.85	28.398
801.16	28.431
801.46	29.103
801.77	28.779
802.07	29.016
802.37	28.850
802.68	28.669
802.98	28.340
803.28	28.067
803.59	27.971
803.89	27.517
804.20	27.606
804.50	27.929
804.80	27.863
805.11	27.745
805.41	28.288
805.71	28.058
806.02	28.422
806.32	28.733
806.62	29.497
806.93	29.333
807.23	29.612
807.53	29.747
807.83	29.638
808.14	29.308
808.44	29.379
808.74	29.082
809.05	29.598
809.35	29.263
809.65	29.254
809.95	28.449
810.26	28.336
810.56	28.681
810.86	28.287
811.16	28.368
811.47	28.067
811.77	28.002
812.07	27.577
812.37	27.869
812.68	28.533
812.98	28.988
813.28	29.541
813.58	30.021
813.88	30.036
814.19	30.298
814.49	30.286
814.79	30.236
815.09	30.452
815.39	30.764
815.70	29.994
816.00	29.300
816.30	29.018
816.60	28.609
816.90	28.859
817.20	28.712
817.50	29.057
817.81	29.052
818.11	29.439
818.41	29.517
818.71	29.473
819.01	29.479
819.31	29.634
819.61	29.725
819.92	29.780
820.22	29.751
820.52	29.768
820.82	29.638
821.12	29.623
821.42	29.683
821.72	29.713
822.02	29.699
822.32	29.701
822.62	29.664
822.92	29.608
823.22	29.556
823.52	29.466
823.83	29.472
824.13	29.474
824.43	29.371
824.73	29.285
825.03	29.251
825.33	29.300
825.63	29.373
825.93	29.408
826.23	29.368
826.53	29.542
826.83	29.620
827.13	29.576
827.43	29.672
827.73	29.936
828.03	29.878
828.33	29.811
828.63	29.778
828.93	29.490
829.23	29.518
829.53	29.627
829.83	29.583
830.13	29.990
830.42	29.846
830.72	29.616
831.02	29.740
831.32	29.728
831.62	29.761
831.92	30.008
832.22	30.289
832.52	30.145
832.82	29.787
833.12	29.702
833.42	29.444
833.72	29.596
834.01	29.679
834.31	29.525
834.61	29.699
834.91	29.598
835.21	29.477
835.51	29.670
835.81	29.648
836.11	29.902
836.40	29.678
836.70	29.590
837.00	29.467
837.30	29.580
837.60	29.677
837.90	28.851
838.19	29.103
838.49	28.389
838.79	27.838
839.09	28.149
839.39	28.630
839.68	29.208
839.98	29.563
840.28	28.950
840.58	28.778
840.88	28.708
841.17	29.707
841.47	29.888
841.77	30.691
842.07	30.946
842.36	30.940
842.66	31.116
842.96	30.266
843.26	29.526
843.55	31.604
843.85	31.111
844.15	31.272
844.45	30.730
844.74	28.505
845.04	28.345
845.34	28.988
845.63	29.419
845.93	28.737
846.23	29.674
846.53	30.874
846.82	28.359
847.12	28.952
847.42	27.821
847.71	29.091
848.01	30.071
848.31	29.274
848.60	30.049
848.90	28.239
849.19	28.288
849.49	27.779
849.79	26.349
850.08	27.658
850.38	29.098
850.68	30.605
850.97	29.211
851.27	30.128
851.56	29.308
851.86	28.703
852.16	29.690
852.45	28.298
852.75	30.513
853.04	30.430
853.34	29.280
853.64	27.195
853.93	26.806
854.23	27.170
854.52	28.267
854.82	30.965
855.11	29.483
855.41	29.028
855.70	30.069
856.00	28.977
856.30	29.278
856.59	30.477
856.89	30.461
857.18	29.135
857.48	29.054
857.77	27.664
858.07	27.665
858.36	28.445
858.66	29.125
858.95	30.724
859.25	28.928
859.54	28.148
859.84	27.956
860.13	28.441
860.42	28.972
860.72	28.295
861.01	28.574
861.31	26.184
861.60	26.608
861.90	24.776
862.19	22.740
862.49	22.357
862.78	22.901
863.07	22.697
863.37	23.552
863.66	25.019
863.96	25.412
864.25	24.505
864.54	24.939
864.84	24.549
865.13	26.055
865.43	26.904
865.72	18.645
866.01	25.277
866.31	31.653
866.60	28.464
866.89	29.182
>>>>>End Spectral Data<<<<<
