OOIBase32 Version 2.0.0.6 Data File
++++++++++++++++++++++++++++++++++++
Date: 01-20-2012, 23:11:10
User: Valued Ocean Optics Customer
Spectrometer Serial Number: USB2E2917
Spectrometer Channel: Master
Integration Time (msec): 3
Spectra Averaged: 10
Boxcar Smoothing: 5
Correct for Electrical Dark: Enabled
Time Normalized: Disabled
Dual-beam Reference: Disabled
Reference Channel: Master
Temperature: Not acquired
Spectrometer Type: S2000
ADC Type: USB2000
Number of Pixels in File: 2048
Graph Title: 
>>>>>Begin Spectral Data<<<<<
180.30	0.000
180.67	0.000
181.03	-8.812
181.40	-403.595
181.77	-57.066
182.14	-353.574
182.51	364.588
182.88	23.681
183.25	-77.801
183.62	-34.813
183.99	2971.803
184.36	164.672
184.73	51.777
185.10	26.666
185.46	-180.779
185.83	124.083
186.20	68.342
186.57	24.304
186.94	176.392
187.31	120.021
187.68	398.976
188.05	68.541
188.42	86.359
188.78	167.617
189.15	297.005
189.52	207.394
189.89	113.288
190.26	83.888
190.63	80.258
191.00	48.957
191.37	65.820
191.73	75.351
192.10	74.923
192.47	53.756
192.84	55.145
193.21	49.123
193.58	49.981
193.94	49.336
194.31	52.603
194.68	55.480
195.05	29.663
195.42	-0.441
195.79	-56.248
196.15	-96.355
196.52	14.025
196.89	540929.688
197.26	274.650
197.63	-1209.983
198.00	-498.480
198.36	451.437
198.73	-377.244
199.10	-709.140
199.47	-168.187
199.84	-459.640
200.20	-71.878
200.57	-114.375
200.94	-5.753
201.31	10.742
201.68	13.922
202.04	34.860
202.41	44.319
202.78	24.639
203.15	30.571
203.51	41.766
203.88	37.503
204.25	15.380
204.62	21.728
204.98	6.792
205.35	13.882
205.72	25.290
206.09	26.420
206.46	26.949
206.82	25.801
207.19	4.174
207.56	28.705
207.92	35.769
208.29	42.728
208.66	43.248
209.03	75.475
209.39	65.191
209.76	82.821
210.13	86.296
210.50	82.490
210.86	94.504
211.23	111.607
211.60	80.675
211.96	67.123
212.33	69.452
212.70	63.385
213.07	49.582
213.43	40.906
213.80	24.173
214.17	2.718
214.53	-23.322
214.90	-28.981
215.27	-45.425
215.63	-3.787
216.00	-0.194
216.37	-20.388
216.74	-21.933
217.10	20.692
217.47	43.886
217.84	42.097
218.20	47.369
218.57	49.121
218.94	52.409
219.30	39.998
219.67	24.478
220.04	25.020
220.40	33.863
220.77	32.172
221.13	28.070
221.50	31.714
221.87	28.079
222.23	27.059
222.60	15.937
222.97	13.722
223.33	18.129
223.70	16.728
224.07	15.617
224.43	14.023
224.80	12.056
225.16	10.419
225.53	7.851
225.90	8.810
226.26	9.384
226.63	10.993
226.99	9.024
227.36	8.384
227.73	8.451
228.09	6.385
228.46	3.934
228.82	4.268
229.19	3.806
229.56	3.706
229.92	0.970
230.29	-0.312
230.65	-0.095
231.02	2.697
231.38	2.326
231.75	4.819
232.12	7.102
232.48	9.171
232.85	8.242
233.21	8.689
233.58	8.311
233.94	9.431
234.31	8.836
234.68	8.090
235.04	7.148
235.41	5.477
235.77	2.938
236.14	2.426
236.50	2.799
236.87	3.758
237.23	2.881
237.60	3.055
237.96	3.531
238.33	4.267
238.69	5.090
239.06	4.528
239.42	4.924
239.79	4.891
240.15	5.215
240.52	4.952
240.88	4.772
241.25	5.438
241.61	5.851
241.98	6.183
242.34	5.559
242.71	4.747
243.07	4.049
243.44	4.093
243.80	4.135
244.17	4.504
244.53	4.223
244.90	4.471
245.26	4.198
245.63	4.141
245.99	4.238
246.36	4.555
246.72	4.879
247.09	5.438
247.45	5.365
247.81	5.671
248.18	5.315
248.54	5.670
248.91	5.539
249.27	5.630
249.64	5.504
250.00	5.015
250.36	4.596
250.73	4.319
251.09	4.323
251.46	4.670
251.82	3.782
252.19	3.801
252.55	3.464
252.91	3.047
253.28	2.849
253.64	2.914
254.01	3.183
254.37	3.190
254.73	2.545
255.10	2.517
255.46	2.529
255.83	2.941
256.19	2.878
256.55	2.989
256.92	3.130
257.28	3.305
257.65	3.464
258.01	3.758
258.37	3.941
258.74	4.222
259.10	4.296
259.46	4.257
259.83	4.296
260.19	4.248
260.55	4.419
260.92	4.497
261.28	4.507
261.64	4.275
262.01	3.815
262.37	3.810
262.73	3.419
263.10	3.526
263.46	3.853
263.82	4.194
264.19	4.368
264.55	4.291
264.91	4.344
265.28	4.431
265.64	4.652
266.00	4.573
266.37	4.574
266.73	5.184
267.09	4.975
267.46	4.928
267.82	4.832
268.18	4.787
268.54	4.806
268.91	4.523
269.27	4.630
269.63	4.649
270.00	5.057
270.36	5.389
270.72	5.188
271.08	5.111
271.45	4.963
271.81	4.818
272.17	5.067
272.53	4.931
272.90	5.289
273.26	5.038
273.62	5.008
273.98	4.734
274.35	4.088
274.71	3.958
275.07	3.866
275.43	3.775
275.80	3.691
276.16	3.233
276.52	3.372
276.88	3.104
277.25	2.925
277.61	2.744
277.97	2.823
278.33	2.844
278.69	2.794
279.06	3.031
279.42	3.460
279.78	3.344
280.14	3.449
280.50	3.466
280.87	3.596
281.23	3.637
281.59	3.688
281.95	3.620
282.31	3.805
282.68	4.038
283.04	3.938
283.40	3.776
283.76	3.899
284.12	3.982
284.48	3.855
284.85	3.764
285.21	3.901
285.57	4.041
285.93	4.158
286.29	3.988
286.65	3.985
287.02	4.031
287.38	4.012
287.74	4.162
288.10	4.120
288.46	4.211
288.82	4.190
289.18	4.313
289.54	4.404
289.91	4.472
290.27	4.705
290.63	4.580
290.99	4.536
291.35	4.514
291.71	4.395
292.07	4.447
292.43	4.588
292.79	4.716
293.16	4.583
293.52	4.559
293.88	4.357
294.24	4.356
294.60	4.409
294.96	4.411
295.32	4.332
295.68	4.235
296.04	4.186
296.40	4.098
296.76	4.064
297.12	4.089
297.49	3.867
297.85	3.833
298.21	3.781
298.57	3.809
298.93	3.927
299.29	4.044
299.65	4.119
300.01	4.242
300.37	4.410
300.73	4.401
301.09	4.438
301.45	4.611
301.81	4.735
302.17	4.880
302.53	4.891
302.89	4.776
303.25	4.738
303.61	4.773
303.97	4.849
304.33	4.890
304.69	5.135
305.05	5.185
305.41	5.264
305.77	5.395
306.13	5.359
306.49	5.359
306.85	5.454
307.21	5.636
307.57	5.604
307.93	5.371
308.29	5.462
308.65	5.300
309.01	5.294
309.37	5.379
309.73	5.415
310.09	5.348
310.45	5.515
310.81	5.540
311.17	5.577
311.53	5.652
311.89	5.755
312.25	5.753
312.61	5.847
312.96	5.908
313.32	5.821
313.68	5.847
314.04	5.934
314.40	5.747
314.76	5.715
315.12	5.529
315.48	5.615
315.84	5.743
316.20	5.638
316.56	5.622
316.92	5.645
317.27	5.747
317.63	5.770
317.99	5.874
318.35	5.974
318.71	6.052
319.07	6.234
319.43	6.276
319.79	6.256
320.15	6.441
320.50	6.503
320.86	6.540
321.22	6.615
321.58	6.642
321.94	6.854
322.30	7.123
322.66	7.249
323.01	7.381
323.37	7.515
323.73	7.722
324.09	7.839
324.45	8.012
324.81	8.288
325.17	8.409
325.52	8.652
325.88	8.806
326.24	8.927
326.60	9.085
326.96	9.248
327.31	9.381
327.67	9.469
328.03	9.571
328.39	9.879
328.75	10.006
329.11	10.202
329.46	10.217
329.82	10.295
330.18	10.378
330.54	10.657
330.90	10.729
331.25	10.958
331.61	11.177
331.97	11.278
332.33	11.340
332.68	11.319
333.04	11.356
333.40	11.444
333.76	11.526
334.11	11.521
334.47	11.453
334.83	11.541
335.19	11.475
335.54	11.452
335.90	11.421
336.26	11.399
336.62	11.449
336.97	11.418
337.33	11.427
337.69	11.415
338.05	11.439
338.40	11.484
338.76	11.481
339.12	11.463
339.48	11.558
339.83	11.575
340.19	11.539
340.55	11.628
340.90	11.654
341.26	11.729
341.62	11.719
341.97	11.819
342.33	11.760
342.69	11.556
343.04	11.557
343.40	11.431
343.76	11.457
344.12	11.530
344.47	11.498
344.83	11.480
345.19	11.427
345.54	11.348
345.90	11.216
346.26	11.371
346.61	11.496
346.97	11.542
347.32	11.533
347.68	11.501
348.04	11.305
348.39	11.274
348.75	11.304
349.11	11.273
349.46	11.275
349.82	11.317
350.18	11.078
350.53	11.118
350.89	11.081
351.24	11.064
351.60	11.006
351.96	11.033
352.31	10.940
352.67	10.831
353.02	10.795
353.38	10.933
353.74	10.909
354.09	10.987
354.45	10.982
354.80	11.008
355.16	10.998
355.52	11.024
355.87	11.026
356.23	11.127
356.58	11.201
356.94	11.235
357.29	11.174
357.65	11.247
358.00	11.339
358.36	11.316
358.72	11.294
359.07	11.254
359.43	11.320
359.78	11.409
360.14	11.403
360.49	11.425
360.85	11.435
361.20	11.486
361.56	11.398
361.91	11.363
362.27	11.443
362.62	11.469
362.98	11.600
363.33	11.632
363.69	11.623
364.04	11.612
364.40	11.649
364.75	11.702
365.11	11.655
365.46	11.762
365.82	11.839
366.17	11.837
366.53	11.904
366.88	11.936
367.24	11.953
367.59	12.045
367.95	12.159
368.30	12.188
368.66	12.205
369.01	12.258
369.37	12.219
369.72	12.217
370.08	12.230
370.43	12.262
370.78	12.258
371.14	12.254
371.49	12.280
371.85	12.325
372.20	12.361
372.56	12.458
372.91	12.568
373.26	12.680
373.62	12.755
373.97	12.849
374.33	12.926
374.68	13.050
375.03	13.149
375.39	13.264
375.74	13.347
376.10	13.541
376.45	13.631
376.80	13.749
377.16	13.869
377.51	14.001
377.87	14.124
378.22	14.261
378.57	14.363
378.93	14.496
379.28	14.648
379.63	14.760
379.99	14.884
380.34	15.069
380.70	15.188
381.05	15.343
381.40	15.474
381.76	15.671
382.11	15.750
382.46	15.963
382.82	16.178
383.17	16.329
383.52	16.520
383.88	16.559
384.23	16.729
384.58	16.873
384.94	17.046
385.29	17.192
385.64	17.283
385.99	17.507
386.35	17.629
386.70	17.720
387.05	17.822
387.41	17.973
387.76	18.231
388.11	18.323
388.47	18.494
388.82	18.651
389.17	18.789
389.52	18.924
389.88	19.026
390.23	19.182
390.58	19.336
390.93	19.501
391.29	19.586
391.64	19.657
391.99	19.792
392.34	19.892
392.70	20.014
393.05	20.113
393.40	20.279
393.75	20.414
394.11	20.464
394.46	20.601
394.81	20.686
395.16	20.818
395.52	20.985
395.87	21.079
396.22	21.152
396.57	21.178
396.92	21.292
397.28	21.364
397.63	21.435
397.98	21.546
398.33	21.644
398.68	21.752
399.04	21.879
399.39	21.907
399.74	21.966
400.09	22.091
400.44	22.192
400.80	22.284
401.15	22.359
401.50	22.419
401.85	22.504
402.20	22.546
402.55	22.641
402.90	22.685
403.26	22.779
403.61	22.821
403.96	22.911
404.31	22.981
404.66	23.017
405.01	23.012
405.36	23.136
405.72	23.219
406.07	23.278
406.42	23.333
406.77	23.428
407.12	23.466
407.47	23.601
407.82	23.612
408.17	23.654
408.53	23.705
408.88	23.816
409.23	23.839
409.58	23.860
409.93	23.912
410.28	23.929
410.63	23.953
410.98	23.977
411.33	23.994
411.68	24.053
412.03	24.142
412.38	24.166
412.73	24.168
413.09	24.186
413.44	24.192
413.79	24.228
414.14	24.272
414.49	24.272
414.84	24.350
415.19	24.363
415.54	24.365
415.89	24.360
416.24	24.380
416.59	24.426
416.94	24.465
417.29	24.505
417.64	24.538
417.99	24.541
418.34	24.578
418.69	24.585
419.04	24.614
419.39	24.641
419.74	24.683
420.09	24.725
420.44	24.750
420.79	24.783
421.14	24.805
421.49	24.832
421.84	24.877
422.19	24.899
422.54	24.920
422.89	24.957
423.24	25.001
423.59	25.043
423.94	25.087
424.29	25.145
424.64	25.206
424.99	25.282
425.34	25.352
425.68	25.382
426.03	25.460
426.38	25.530
426.73	25.583
427.08	25.680
427.43	25.746
427.78	25.807
428.13	25.861
428.48	25.868
428.83	25.877
429.18	25.854
429.53	25.895
429.87	25.893
430.22	25.931
430.57	25.981
430.92	25.971
431.27	26.001
431.62	25.998
431.97	26.012
432.32	26.054
432.67	26.121
433.01	26.175
433.36	26.242
433.71	26.266
434.06	26.329
434.41	26.351
434.76	26.392
435.11	26.408
435.45	26.488
435.80	26.525
436.15	26.523
436.50	26.535
436.85	26.539
437.20	26.556
437.54	26.624
437.89	26.623
438.24	26.660
438.59	26.694
438.94	26.703
439.29	26.709
439.63	26.745
439.98	26.799
440.33	26.812
440.68	26.877
441.03	26.880
441.37	26.933
441.72	26.940
442.07	26.982
442.42	26.974
442.76	27.017
443.11	27.055
443.46	27.091
443.81	27.101
444.16	27.110
444.50	27.139
444.85	27.167
445.20	27.180
445.55	27.215
445.89	27.218
446.24	27.280
446.59	27.323
446.94	27.361
447.28	27.365
447.63	27.401
447.98	27.467
448.32	27.512
448.67	27.579
449.02	27.617
449.37	27.668
449.71	27.665
450.06	27.696
450.41	27.715
450.75	27.752
451.10	27.818
451.45	27.890
451.79	27.919
452.14	27.952
452.49	27.995
452.84	28.003
453.18	28.040
453.53	28.140
453.88	28.195
454.22	28.229
454.57	28.246
454.92	28.256
455.26	28.270
455.61	28.313
455.95	28.340
456.30	28.375
456.65	28.413
456.99	28.450
457.34	28.446
457.69	28.429
458.03	28.448
458.38	28.478
458.73	28.513
459.07	28.546
459.42	28.564
459.76	28.595
460.11	28.626
460.46	28.684
460.80	28.709
461.15	28.765
461.49	28.861
461.84	28.932
462.19	29.009
462.53	29.078
462.88	29.078
463.22	29.144
463.57	29.225
463.91	29.269
464.26	29.318
464.61	29.372
464.95	29.428
465.30	29.495
465.64	29.544
465.99	29.585
466.33	29.623
466.68	29.718
467.02	29.740
467.37	29.734
467.71	29.730
468.06	29.744
468.41	29.764
468.75	29.823
469.10	29.858
469.44	29.883
469.79	29.910
470.13	29.957
470.48	30.014
470.82	30.069
471.17	30.142
471.51	30.236
471.86	30.290
472.20	30.321
472.55	30.397
472.89	30.393
473.23	30.388
473.58	30.409
473.92	30.437
474.27	30.436
474.61	30.479
474.96	30.523
475.30	30.539
475.65	30.544
475.99	30.609
476.34	30.598
476.68	30.631
477.02	30.715
477.37	30.740
477.71	30.769
478.06	30.859
478.40	30.919
478.75	31.015
479.09	31.153
479.43	31.314
479.78	31.500
480.12	31.683
480.47	31.836
480.81	31.977
481.15	32.123
481.50	32.246
481.84	32.361
482.19	32.502
482.53	32.597
482.87	32.690
483.22	32.746
483.56	32.762
483.90	32.759
484.25	32.748
484.59	32.745
484.94	32.716
485.28	32.698
485.62	32.646
485.97	32.575
486.31	32.539
486.65	32.490
487.00	32.476
487.34	32.463
487.68	32.453
488.03	32.481
488.37	32.476
488.71	32.487
489.06	32.500
489.40	32.524
489.74	32.538
490.09	32.559
490.43	32.563
490.77	32.584
491.11	32.615
491.46	32.647
491.80	32.639
492.14	32.656
492.49	32.668
492.83	32.665
493.17	32.724
493.51	32.787
493.86	32.820
494.20	32.875
494.54	32.926
494.88	32.954
495.23	32.986
495.57	33.064
495.91	33.114
496.25	33.188
496.60	33.219
496.94	33.237
497.28	33.288
497.62	33.353
497.97	33.415
498.31	33.474
498.65	33.597
498.99	33.694
499.33	33.772
499.68	33.893
500.02	33.964
500.36	34.079
500.70	34.180
501.04	34.259
501.39	34.374
501.73	34.467
502.07	34.541
502.41	34.598
502.75	34.687
503.09	34.760
503.44	34.789
503.78	34.927
504.12	35.044
504.46	35.109
504.80	35.159
505.14	35.183
505.49	35.247
505.83	35.317
506.17	35.353
506.51	35.422
506.85	35.494
507.19	35.583
507.53	35.612
507.87	35.651
508.22	35.691
508.56	35.758
508.90	35.858
509.24	35.921
509.58	35.969
509.92	36.048
510.26	36.068
510.60	36.142
510.94	36.197
511.28	36.253
511.63	36.303
511.97	36.406
512.31	36.492
512.65	36.504
512.99	36.578
513.33	36.664
513.67	36.748
514.01	36.845
514.35	36.889
514.69	36.983
515.03	37.075
515.37	37.178
515.71	37.222
516.05	37.280
516.39	37.349
516.73	37.378
517.07	37.408
517.41	37.474
517.75	37.546
518.09	37.643
518.43	37.673
518.77	37.708
519.11	37.762
519.45	37.859
519.79	37.906
520.13	37.983
520.47	38.052
520.81	38.121
521.15	38.185
521.49	38.221
521.83	38.271
522.17	38.303
522.51	38.363
522.85	38.415
523.19	38.493
523.53	38.662
523.87	38.839
524.21	39.052
524.55	39.237
524.89	39.373
525.23	39.556
525.57	39.674
525.91	39.833
526.25	39.957
526.58	40.069
526.92	40.176
527.26	40.226
527.60	40.269
527.94	40.258
528.28	40.280
528.62	40.298
528.96	40.281
529.30	40.294
529.64	40.246
529.97	40.230
530.31	40.187
530.65	40.148
530.99	40.154
531.33	40.138
531.67	40.175
532.01	40.192
532.35	40.199
532.68	40.206
533.02	40.206
533.36	40.246
533.70	40.250
534.04	40.291
534.38	40.316
534.71	40.332
535.05	40.376
535.39	40.410
535.73	40.429
536.07	40.461
536.41	40.546
536.74	40.645
537.08	40.755
537.42	40.858
537.76	40.945
538.10	41.000
538.43	41.084
538.77	41.173
539.11	41.278
539.45	41.368
539.79	41.458
540.12	41.511
540.46	41.558
540.80	41.572
541.14	41.598
541.47	41.624
541.81	41.684
542.15	41.711
542.49	41.731
542.82	41.709
543.16	41.731
543.50	41.760
543.84	41.762
544.17	41.782
544.51	41.844
544.85	41.892
545.18	41.980
545.52	42.025
545.86	42.101
546.20	42.176
546.53	42.265
546.87	42.318
547.21	42.371
547.54	42.441
547.88	42.458
548.22	42.518
548.55	42.611
548.89	42.657
549.23	42.748
549.56	42.777
549.90	42.788
550.24	42.898
550.57	42.935
550.91	43.004
551.25	43.092
551.58	43.222
551.92	43.296
552.26	43.327
552.59	43.388
552.93	43.440
553.27	43.497
553.60	43.624
553.94	43.609
554.27	43.662
554.61	43.730
554.95	43.820
555.28	43.874
555.62	43.898
555.95	43.985
556.29	44.050
556.63	44.114
556.96	44.236
557.30	44.279
557.63	44.384
557.97	44.479
558.31	44.556
558.64	44.606
558.98	44.706
559.31	44.801
559.65	44.861
559.98	44.933
560.32	44.992
560.65	45.057
560.99	45.090
561.33	45.155
561.66	45.246
562.00	45.317
562.33	45.419
562.67	45.451
563.00	45.575
563.34	45.647
563.67	45.721
564.01	45.787
564.34	45.862
564.68	45.967
565.01	46.013
565.35	46.043
565.68	46.101
566.02	46.165
566.35	46.243
566.69	46.285
567.02	46.379
567.36	46.428
567.69	46.549
568.03	46.600
568.36	46.704
568.69	46.798
569.03	46.908
569.36	47.003
569.70	47.099
570.03	47.183
570.37	47.277
570.70	47.363
571.04	47.498
571.37	47.583
571.70	47.704
572.04	47.763
572.37	47.859
572.71	47.942
573.04	47.994
573.37	48.039
573.71	48.098
574.04	48.159
574.38	48.223
574.71	48.265
575.04	48.336
575.38	48.380
575.71	48.452
576.05	48.530
576.38	48.623
576.71	48.773
577.05	48.891
577.38	49.041
577.71	49.155
578.05	49.289
578.38	49.417
578.71	49.572
579.05	49.717
579.38	49.850
579.71	49.921
580.05	50.021
580.38	50.080
580.71	50.152
581.05	50.290
581.38	50.377
581.71	50.408
582.05	50.484
582.38	50.490
582.71	50.531
583.04	50.616
583.38	50.787
583.71	50.875
584.04	50.959
584.38	51.039
584.71	51.108
585.04	51.239
585.37	51.405
585.71	51.509
586.04	51.672
586.37	51.790
586.70	51.885
587.04	51.924
587.37	52.051
587.70	52.172
588.03	52.280
588.37	52.356
588.70	52.409
589.03	52.483
589.36	52.599
589.69	52.690
590.03	52.858
590.36	52.934
590.69	53.162
591.02	53.254
591.35	53.355
591.69	53.420
592.02	53.544
592.35	53.663
592.68	53.796
593.01	53.884
593.35	53.922
593.68	53.971
594.01	54.080
594.34	54.109
594.67	54.223
595.00	54.257
595.34	54.392
595.67	54.471
596.00	54.559
596.33	54.661
596.66	54.800
596.99	54.891
597.32	54.978
597.65	55.105
597.99	55.231
598.32	55.318
598.65	55.488
598.98	55.595
599.31	55.737
599.64	55.917
599.97	56.023
600.30	56.152
600.63	56.324
600.96	56.463
601.30	56.602
601.63	56.678
601.96	56.760
602.29	56.907
602.62	57.048
602.95	57.123
603.28	57.204
603.61	57.283
603.94	57.331
604.27	57.400
604.60	57.444
604.93	57.464
605.26	57.574
605.59	57.665
605.92	57.718
606.25	57.810
606.58	57.907
606.91	58.024
607.24	58.166
607.57	58.249
607.90	58.364
608.23	58.456
608.56	58.637
608.89	58.672
609.22	58.796
609.55	58.895
609.88	58.976
610.21	59.085
610.54	59.137
610.87	59.216
611.20	59.383
611.53	59.477
611.86	59.620
612.19	59.712
612.52	59.914
612.85	59.940
613.18	60.021
613.51	60.184
613.84	60.258
614.17	60.334
614.49	60.435
614.82	60.518
615.15	60.605
615.48	60.787
615.81	60.837
616.14	60.856
616.47	61.016
616.80	61.144
617.13	61.194
617.46	61.267
617.78	61.349
618.11	61.432
618.44	61.424
618.77	61.442
619.10	61.349
619.43	61.344
619.76	61.471
620.09	61.606
620.41	61.732
620.74	61.755
621.07	61.832
621.40	61.914
621.73	61.978
622.06	62.062
622.38	62.184
622.71	62.389
623.04	62.517
623.37	62.581
623.70	62.628
624.02	62.669
624.35	62.767
624.68	62.872
625.01	62.971
625.34	62.999
625.66	63.092
625.99	63.240
626.32	63.291
626.65	63.370
626.98	63.429
627.30	63.497
627.63	63.548
627.96	63.566
628.29	63.617
628.61	63.647
628.94	63.707
629.27	63.835
629.60	63.784
629.92	63.867
630.25	63.955
630.58	63.933
630.91	63.919
631.23	63.926
631.56	63.951
631.89	63.936
632.21	63.890
632.54	63.913
632.87	63.922
633.19	63.994
633.52	63.994
633.85	63.944
634.18	63.999
634.50	64.022
634.83	64.106
635.16	64.207
635.48	64.331
635.81	64.396
636.14	64.480
636.46	64.470
636.79	64.522
637.11	64.537
637.44	64.682
637.77	64.766
638.09	64.836
638.42	64.843
638.75	64.878
639.07	64.792
639.40	64.930
639.73	64.968
640.05	65.005
640.38	65.098
640.70	65.111
641.03	65.016
641.36	65.030
641.68	65.045
642.01	64.983
642.33	65.005
642.66	65.119
642.98	65.100
643.31	65.107
643.64	65.139
643.96	65.016
644.29	65.048
644.61	65.119
644.94	65.095
645.26	65.071
645.59	65.220
645.91	65.227
646.24	65.256
646.56	65.289
646.89	65.256
647.22	65.273
647.54	65.278
647.87	65.237
648.19	65.218
648.52	65.243
648.84	65.344
649.17	65.248
649.49	65.186
649.82	65.208
650.14	65.234
650.47	65.316
650.79	65.340
651.11	65.405
651.44	65.543
651.76	65.608
652.09	65.687
652.41	65.629
652.74	65.722
653.06	65.867
653.39	65.850
653.71	65.713
654.04	65.656
654.36	65.617
654.68	65.577
655.01	65.493
655.33	65.436
655.66	65.475
655.98	65.497
656.30	65.517
656.63	65.472
656.95	65.539
657.28	65.718
657.60	65.782
657.92	65.849
658.25	65.880
658.57	65.943
658.90	65.992
659.22	65.978
659.54	66.051
659.87	66.038
660.19	66.000
660.51	65.921
660.84	65.871
661.16	65.827
661.48	65.779
661.81	65.803
662.13	65.763
662.45	65.802
662.78	65.751
663.10	65.717
663.42	65.629
663.75	65.626
664.07	65.615
664.39	65.618
664.72	65.699
665.04	65.752
665.36	65.826
665.69	65.830
666.01	65.826
666.33	65.853
666.65	65.879
666.98	65.898
667.30	66.027
667.62	66.144
667.94	66.122
668.27	66.010
668.59	65.924
668.91	65.883
669.23	65.887
669.56	65.799
669.88	65.725
670.20	65.668
670.52	65.801
670.85	65.659
671.17	65.618
671.49	65.603
671.81	65.692
672.13	65.720
672.46	65.845
672.78	65.842
673.10	65.902
673.42	65.940
673.74	66.002
674.07	65.929
674.39	65.956
674.71	65.921
675.03	65.892
675.35	65.818
675.67	65.829
676.00	65.718
676.32	65.680
676.64	65.742
676.96	65.717
677.28	65.612
677.60	65.537
677.92	65.592
678.25	65.580
678.57	65.622
678.89	65.708
679.21	65.766
679.53	65.838
679.85	65.930
680.17	65.800
680.49	65.940
680.81	66.046
681.13	66.060
681.46	65.936
681.78	66.031
682.10	66.045
682.42	66.008
682.74	65.888
683.06	65.779
683.38	65.651
683.70	65.836
684.02	65.735
684.34	65.759
684.66	65.827
684.98	65.983
685.30	65.847
685.62	65.845
685.94	65.684
686.26	65.769
686.58	65.817
686.90	65.893
687.22	65.843
687.54	65.852
687.86	65.821
688.18	65.827
688.50	65.889
688.82	65.920
689.14	65.890
689.46	66.046
689.78	66.029
690.10	66.008
690.42	65.984
690.74	65.823
691.06	65.718
691.38	65.552
691.70	65.572
692.02	65.445
692.34	65.400
692.66	65.332
692.98	65.230
693.30	65.155
693.62	65.144
693.94	65.229
694.26	65.282
694.57	65.368
694.89	65.340
695.21	65.280
695.53	65.263
695.85	65.251
696.17	65.243
696.49	65.183
696.81	65.154
697.13	65.052
697.44	65.014
697.76	65.013
698.08	64.940
698.40	64.991
698.72	64.874
699.04	64.710
699.36	64.627
699.67	64.588
699.99	64.508
700.31	64.499
700.63	64.533
700.95	64.351
701.27	64.300
701.58	64.281
701.90	64.151
702.22	64.148
702.54	64.221
702.86	63.979
703.17	63.975
703.49	64.093
703.81	63.931
704.13	63.912
704.45	64.001
704.76	63.926
705.08	63.834
705.40	63.696
705.72	63.687
706.03	63.573
706.35	63.773
706.67	63.697
706.99	63.657
707.30	63.750
707.62	63.463
707.94	63.138
708.26	63.076
708.57	63.113
708.89	63.081
709.21	63.044
709.53	63.048
709.84	63.053
710.16	62.900
710.48	62.689
710.79	62.502
711.11	62.602
711.43	62.709
711.74	62.535
712.06	62.387
712.38	62.401
712.69	62.327
713.01	62.215
713.33	62.021
713.64	62.025
713.96	62.008
714.28	62.049
714.59	62.039
714.91	61.830
715.23	61.766
715.54	61.745
715.86	61.580
716.17	61.445
716.49	61.396
716.81	61.299
717.12	61.239
717.44	61.291
717.76	61.164
718.07	61.140
718.39	61.247
718.70	61.483
719.02	61.294
719.33	61.296
719.65	61.313
719.97	61.362
720.28	61.435
720.60	61.236
720.91	61.034
721.23	60.881
721.54	60.682
721.86	60.534
722.17	60.448
722.49	60.578
722.81	60.661
723.12	60.360
723.44	60.309
723.75	60.149
724.07	60.124
724.38	60.140
724.70	60.189
725.01	60.127
725.33	60.017
725.64	59.741
725.96	59.324
726.27	59.130
726.59	59.136
726.90	58.945
727.22	58.746
727.53	58.612
727.84	58.610
728.16	58.445
728.47	58.364
728.79	58.300
729.10	58.324
729.42	58.382
729.73	58.332
730.05	58.122
730.36	58.056
730.67	58.196
730.99	58.180
731.30	58.004
731.62	58.001
731.93	57.777
732.24	57.614
732.56	57.463
732.87	57.378
733.19	57.236
733.50	57.393
733.81	57.151
734.13	56.940
734.44	56.977
734.76	56.923
735.07	56.905
735.38	56.826
735.70	57.001
736.01	56.757
736.32	56.760
736.64	56.779
736.95	56.536
737.26	56.655
737.58	56.436
737.89	56.103
738.20	55.970
738.52	55.718
738.83	55.607
739.14	55.362
739.45	55.341
739.77	55.223
740.08	54.882
740.39	55.009
740.71	54.817
741.02	55.029
741.33	54.924
741.64	54.883
741.96	54.817
742.27	54.647
742.58	54.557
742.90	54.336
743.21	54.082
743.52	54.157
743.83	53.881
744.14	53.752
744.46	53.417
744.77	53.473
745.08	53.104
745.39	52.903
745.71	52.668
746.02	52.380
746.33	52.475
746.64	52.590
746.95	52.248
747.27	52.172
747.58	52.270
747.89	52.287
748.20	52.085
748.51	52.139
748.82	52.174
749.14	52.353
749.45	52.211
749.76	52.049
750.07	51.643
750.38	51.921
750.69	51.822
751.01	51.762
751.32	51.511
751.63	51.464
751.94	51.399
752.25	51.321
752.56	51.295
752.87	51.383
753.18	51.229
753.49	51.371
753.81	51.104
754.12	51.267
754.43	50.762
754.74	51.009
755.05	51.048
755.36	51.014
755.67	50.926
755.98	50.967
756.29	50.935
756.60	50.996
756.91	50.862
757.22	50.887
757.53	50.630
757.84	50.783
758.15	50.732
758.46	50.535
758.77	50.530
759.09	50.391
759.40	50.219
759.71	50.070
760.02	49.839
760.33	49.896
760.64	49.705
760.95	49.409
761.26	49.285
761.57	49.045
761.88	49.105
762.18	48.965
762.49	48.956
762.80	48.891
763.11	48.864
763.42	48.971
763.73	48.800
764.04	48.871
764.35	49.009
764.66	49.001
764.97	48.905
765.28	48.753
765.59	48.730
765.90	48.649
766.21	48.424
766.52	48.452
766.83	48.253
767.14	48.209
767.44	47.922
767.75	47.776
768.06	47.608
768.37	47.680
768.68	47.526
768.99	47.459
769.30	47.280
769.61	47.343
769.91	47.150
770.22	47.100
770.53	47.057
770.84	46.888
771.15	47.070
771.46	47.241
771.77	47.231
772.07	47.277
772.38	46.940
772.69	46.833
773.00	46.865
773.31	46.868
773.61	46.887
773.92	46.603
774.23	46.526
774.54	46.160
774.85	45.642
775.15	45.443
775.46	45.089
775.77	45.164
776.08	45.037
776.39	44.741
776.69	44.217
777.00	43.716
777.31	44.030
777.62	44.175
777.92	44.358
778.23	44.799
778.54	44.746
778.85	45.548
779.15	45.791
779.46	45.918
779.77	45.860
780.07	46.107
780.38	46.428
780.69	46.383
781.00	46.438
781.30	46.687
781.61	46.274
781.92	46.243
782.22	45.384
782.53	44.908
782.84	44.708
783.14	44.865
783.45	45.171
783.76	45.219
784.06	44.851
784.37	44.898
784.68	44.258
784.98	44.549
785.29	44.746
785.60	44.851
785.90	45.047
786.21	45.578
786.51	45.304
786.82	44.790
787.13	44.319
787.43	44.309
787.74	44.675
788.04	44.666
788.35	44.661
788.66	44.298
788.96	43.980
789.27	43.980
789.57	43.501
789.88	43.784
790.19	44.066
790.49	44.443
790.80	44.622
791.10	44.257
791.41	44.420
791.71	44.277
792.02	44.528
792.32	44.688
792.63	44.508
792.93	44.333
793.24	43.971
793.54	43.749
793.85	43.517
794.15	43.164
794.46	42.852
794.76	42.825
795.07	42.868
795.37	42.537
795.68	42.547
795.98	42.479
796.29	42.424
796.59	42.451
796.90	42.445
797.20	42.591
797.51	42.642
797.81	42.626
798.12	42.318
798.42	42.144
798.72	41.755
799.03	42.316
799.33	42.313
799.64	42.311
799.94	42.316
800.25	42.233
800.55	41.899
800.85	41.685
801.16	41.417
801.46	41.496
801.77	41.192
802.07	42.031
802.37	41.579
802.68	41.612
802.98	41.487
803.28	41.801
803.59	41.900
803.89	42.299
804.20	42.353
804.50	42.717
804.80	42.688
805.11	42.883
805.41	42.851
805.71	42.793
806.02	42.744
806.32	42.869
806.62	42.736
806.93	42.660
807.23	42.186
807.53	42.163
807.83	42.400
808.14	42.656
808.44	42.685
808.74	42.294
809.05	42.039
809.35	41.826
809.65	41.822
809.95	41.836
810.26	41.727
810.56	41.992
810.86	42.428
811.16	42.038
811.47	41.539
811.77	41.427
812.07	40.647
812.37	41.109
812.68	41.069
812.98	40.719
813.28	40.465
813.58	40.385
813.88	40.182
814.19	39.786
814.49	39.343
814.79	39.712
815.09	39.556
815.39	40.226
815.70	39.827
816.00	39.978
816.30	40.397
816.60	40.783
816.90	41.029
817.20	41.040
817.50	40.953
817.81	41.336
818.11	40.739
818.41	40.634
818.71	40.462
819.01	40.260
819.31	39.947
819.61	39.884
819.92	39.660
820.22	39.706
820.52	39.579
820.82	39.558
821.12	39.441
821.42	39.572
821.72	39.513
822.02	39.578
822.32	39.590
822.62	39.722
822.92	39.642
823.22	39.700
823.52	39.628
823.83	39.722
824.13	39.615
824.43	39.693
824.73	39.657
825.03	39.706
825.33	39.649
825.63	39.713
825.93	39.680
826.23	39.810
826.53	39.794
826.83	39.759
827.13	39.638
827.43	39.903
827.73	39.756
828.03	40.038
828.33	40.166
828.63	39.910
828.93	39.805
829.23	39.704
829.53	39.521
829.83	39.549
830.13	39.416
830.42	39.601
830.72	39.616
831.02	39.361
831.32	38.737
831.62	38.457
831.92	38.583
832.22	38.537
832.52	38.607
832.82	38.642
833.12	38.384
833.42	38.409
833.72	38.354
834.01	38.226
834.31	38.493
834.61	38.562
834.91	38.668
835.21	38.832
835.51	38.862
835.81	38.774
836.11	38.874
836.40	39.095
836.70	38.907
837.00	38.970
837.30	38.340
837.60	38.194
837.90	38.245
838.19	38.698
838.49	38.270
838.79	38.513
839.09	38.386
839.39	38.031
839.68	37.915
839.98	38.134
840.28	38.134
840.58	38.655
840.88	38.421
841.17	38.306
841.47	37.680
841.77	37.638
842.07	37.363
842.36	37.972
842.66	38.416
842.96	38.476
843.26	38.870
843.55	37.929
843.85	37.688
844.15	37.753
844.45	35.974
844.74	34.745
845.04	34.924
845.34	33.056
845.63	32.578
845.93	32.665
846.23	32.276
846.53	32.916
846.82	33.416
847.12	33.876
847.42	33.708
847.71	35.532
848.01	37.489
848.31	37.350
848.60	39.497
848.90	38.664
849.19	38.898
849.49	39.327
849.79	37.896
850.08	38.345
850.38	37.116
850.68	37.106
850.97	37.536
851.27	37.327
851.56	37.832
851.86	38.049
852.16	38.533
852.45	36.737
852.75	33.969
853.04	34.398
853.34	35.154
853.64	36.672
853.93	36.151
854.23	36.443
854.52	36.667
854.82	36.728
855.11	37.266
855.41	37.550
855.70	38.660
856.00	40.545
856.30	39.132
856.59	38.317
856.89	38.294
857.18	38.822
857.48	39.654
857.77	39.706
858.07	38.862
858.36	39.167
858.66	38.899
858.95	38.666
859.25	38.601
859.54	39.551
859.84	38.110
860.13	38.795
860.42	37.445
860.72	36.058
861.01	34.795
861.31	35.799
861.60	33.178
861.90	31.804
862.19	32.053
862.49	33.496
862.78	32.887
863.07	32.153
863.37	30.547
863.66	32.040
863.96	31.870
864.25	32.082
864.54	30.944
864.84	31.780
865.13	32.311
865.43	31.670
865.72	36.700
866.01	30.323
866.31	34.016
866.60	25.848
866.89	29.214
>>>>>End Spectral Data<<<<<
