OOIBase32 Version 2.0.0.6 Data File
++++++++++++++++++++++++++++++++++++
Date: 01-20-2012, 23:11:03
User: Valued Ocean Optics Customer
Spectrometer Serial Number: USB2E2917
Spectrometer Channel: Master
Integration Time (msec): 3
Spectra Averaged: 10
Boxcar Smoothing: 5
Correct for Electrical Dark: Enabled
Time Normalized: Disabled
Dual-beam Reference: Disabled
Reference Channel: Master
Temperature: Not acquired
Spectrometer Type: S2000
ADC Type: USB2000
Number of Pixels in File: 2048
Graph Title: 
>>>>>Begin Spectral Data<<<<<
180.30	0.000
180.67	0.000
181.03	-84.940
181.40	-281.952
181.77	1.771
182.14	2.739
182.51	20.778
182.88	-54.801
183.25	-29.709
183.62	-100.575
183.99	1760.134
184.36	144.249
184.73	72.635
185.10	-171.186
185.46	937.628
185.83	-78.995
186.20	47.993
186.57	36.081
186.94	105.225
187.31	35.557
187.68	80.312
188.05	43.730
188.42	35.624
188.78	71.997
189.15	113.941
189.52	102.722
189.89	70.537
190.26	27.119
190.63	-7.371
191.00	26.473
191.37	15.957
191.73	23.141
192.10	39.692
192.47	28.852
192.84	34.076
193.21	44.454
193.58	39.421
193.94	45.130
194.31	39.492
194.68	50.293
195.05	-0.747
195.42	32.440
195.79	83.005
196.15	-23.147
196.52	51.371
196.89	396879.688
197.26	422.385
197.63	-2019.562
198.00	-1129.395
198.36	623.019
198.73	-810.098
199.10	-3972.865
199.47	-479.180
199.84	-1376.722
200.20	-443.533
200.57	-337.880
200.94	-91.506
201.31	-88.117
201.68	-84.980
202.04	-44.577
202.41	-27.166
202.78	15.644
203.15	24.580
203.51	7.180
203.88	5.370
204.25	12.975
204.62	22.351
204.98	39.161
205.35	57.958
205.72	67.525
206.09	66.771
206.46	73.443
206.82	60.528
207.19	61.793
207.56	88.050
207.92	89.981
208.29	61.089
208.66	61.018
209.03	58.311
209.39	48.197
209.76	43.305
210.13	54.874
210.50	60.070
210.86	52.392
211.23	73.789
211.60	52.543
211.96	52.606
212.33	57.739
212.70	60.047
213.07	64.127
213.43	78.364
213.80	69.057
214.17	60.598
214.53	84.123
214.90	70.079
215.27	54.355
215.63	69.426
216.00	77.658
216.37	80.051
216.74	94.467
217.10	86.388
217.47	71.588
217.84	55.901
218.20	47.169
218.57	31.494
218.94	40.406
219.30	38.815
219.67	35.459
220.04	33.477
220.40	36.905
220.77	22.544
221.13	28.551
221.50	30.992
221.87	32.854
222.23	32.595
222.60	25.871
222.97	20.576
223.33	11.339
223.70	6.036
224.07	0.171
224.43	1.400
224.80	4.497
225.16	3.605
225.53	1.894
225.90	0.657
226.26	1.000
226.63	2.271
226.99	1.493
227.36	2.418
227.73	4.208
228.09	4.486
228.46	2.775
228.82	3.438
229.19	2.840
229.56	3.744
229.92	3.450
230.29	3.070
230.65	2.433
231.02	4.759
231.38	4.131
231.75	4.509
232.12	5.992
232.48	6.653
232.85	4.099
233.21	4.624
233.58	2.190
233.94	3.374
234.31	2.803
234.68	3.303
235.04	2.359
235.41	0.771
235.77	0.061
236.14	-0.208
236.50	-0.027
236.87	1.532
237.23	1.857
237.60	3.222
237.96	2.972
238.33	3.299
238.69	3.467
239.06	3.444
239.42	4.116
239.79	3.113
240.15	3.420
240.52	3.561
240.88	3.680
241.25	3.861
241.61	3.587
241.98	3.827
242.34	3.619
242.71	3.517
243.07	2.901
243.44	2.793
243.80	3.366
244.17	3.505
244.53	3.621
244.90	3.783
245.26	3.577
245.63	3.710
245.99	3.745
246.36	3.640
246.72	3.815
247.09	4.137
247.45	4.187
247.81	4.526
248.18	4.520
248.54	4.571
248.91	4.358
249.27	4.249
249.64	4.286
250.00	3.751
250.36	3.928
250.73	4.012
251.09	4.040
251.46	4.555
251.82	4.069
252.19	3.977
252.55	3.598
252.91	3.261
253.28	3.363
253.64	3.512
254.01	3.932
254.37	3.797
254.73	2.784
255.10	2.907
255.46	2.914
255.83	3.055
256.19	2.764
256.55	2.729
256.92	2.734
257.28	2.693
257.65	2.650
258.01	2.968
258.37	2.996
258.74	3.414
259.10	3.372
259.46	3.220
259.83	3.259
260.19	3.391
260.55	3.428
260.92	3.467
261.28	3.631
261.64	3.466
262.01	3.017
262.37	3.514
262.73	3.256
263.10	3.183
263.46	2.938
263.82	2.813
264.19	2.914
264.55	3.251
264.91	3.389
265.28	3.425
265.64	3.845
266.00	3.661
266.37	3.276
266.73	3.438
267.09	3.689
267.46	4.159
267.82	4.200
268.18	4.280
268.54	4.207
268.91	3.971
269.27	3.904
269.63	3.919
270.00	4.107
270.36	4.015
270.72	3.871
271.08	3.754
271.45	3.646
271.81	3.488
272.17	3.345
272.53	3.108
272.90	3.415
273.26	3.557
273.62	3.321
273.98	3.399
274.35	3.609
274.71	3.863
275.07	3.804
275.43	3.708
275.80	3.734
276.16	3.772
276.52	4.081
276.88	3.729
277.25	3.490
277.61	3.592
277.97	3.458
278.33	3.036
278.69	2.680
279.06	2.764
279.42	2.948
279.78	2.706
280.14	2.739
280.50	2.884
280.87	3.047
281.23	2.925
281.59	2.746
281.95	2.788
282.31	2.957
282.68	3.192
283.04	3.199
283.40	3.222
283.76	3.370
284.12	3.336
284.48	3.010
284.85	2.953
285.21	3.159
285.57	3.335
285.93	3.371
286.29	3.175
286.65	3.264
287.02	3.301
287.38	3.317
287.74	3.603
288.10	3.607
288.46	3.819
288.82	3.937
289.18	3.994
289.54	3.991
289.91	4.020
290.27	4.303
290.63	4.062
290.99	3.898
291.35	3.802
291.71	3.488
292.07	3.587
292.43	3.516
292.79	3.566
293.16	3.584
293.52	3.666
293.88	3.551
294.24	3.574
294.60	3.639
294.96	3.644
295.32	3.469
295.68	3.571
296.04	3.459
296.40	3.507
296.76	3.557
297.12	3.446
297.49	3.392
297.85	3.535
298.21	3.575
298.57	3.614
298.93	3.669
299.29	3.950
299.65	3.799
300.01	3.769
300.37	3.723
300.73	3.560
301.09	3.536
301.45	3.417
301.81	3.112
302.17	3.125
302.53	3.033
302.89	3.153
303.25	2.985
303.61	3.131
303.97	3.292
304.33	3.321
304.69	3.547
305.05	3.743
305.41	3.829
305.77	3.927
306.13	3.825
306.49	3.958
306.85	3.961
307.21	4.109
307.57	4.109
307.93	3.960
308.29	4.046
308.65	4.008
309.01	3.909
309.37	4.026
309.73	4.178
310.09	4.234
310.45	4.333
310.81	4.293
311.17	4.253
311.53	4.205
311.89	4.071
312.25	4.111
312.61	3.947
312.96	4.011
313.32	3.822
313.68	3.779
314.04	3.763
314.40	3.642
314.76	3.591
315.12	3.573
315.48	3.714
315.84	3.875
316.20	3.782
316.56	3.878
316.92	3.718
317.27	3.801
317.63	3.918
317.99	3.917
318.35	3.811
318.71	3.796
319.07	3.839
319.43	3.809
319.79	3.911
320.15	3.846
320.50	3.876
320.86	3.915
321.22	3.868
321.58	3.719
321.94	3.747
322.30	3.843
322.66	3.858
323.01	3.945
323.37	3.905
323.73	3.874
324.09	3.965
324.45	3.898
324.81	4.036
325.17	4.095
325.52	4.155
325.88	4.124
326.24	4.176
326.60	4.223
326.96	4.176
327.31	4.164
327.67	4.129
328.03	4.016
328.39	4.147
328.75	4.115
329.11	4.158
329.46	4.078
329.82	4.153
330.18	4.151
330.54	4.189
330.90	4.246
331.25	4.249
331.61	4.335
331.97	4.319
332.33	4.187
332.68	4.172
333.04	4.087
333.40	4.104
333.76	4.176
334.11	4.082
334.47	3.994
334.83	3.871
335.19	3.896
335.54	3.801
335.90	3.933
336.26	4.058
336.62	4.026
336.97	4.085
337.33	4.190
337.69	4.253
338.05	4.353
338.40	4.369
338.76	4.488
339.12	4.500
339.48	4.549
339.83	4.419
340.19	4.461
340.55	4.520
340.90	4.538
341.26	4.549
341.62	4.426
341.97	4.429
342.33	4.536
342.69	4.415
343.04	4.415
343.40	4.435
343.76	4.455
344.12	4.420
344.47	4.488
344.83	4.505
345.19	4.548
345.54	4.478
345.90	4.417
346.26	4.495
346.61	4.595
346.97	4.634
347.32	4.606
347.68	4.633
348.04	4.627
348.39	4.591
348.75	4.550
349.11	4.501
349.46	4.648
349.82	4.718
350.18	4.576
350.53	4.594
350.89	4.616
351.24	4.642
351.60	4.725
351.96	4.667
352.31	4.656
352.67	4.665
353.02	4.659
353.38	4.611
353.74	4.548
354.09	4.687
354.45	4.700
354.80	4.617
355.16	4.542
355.52	4.397
355.87	4.411
356.23	4.507
356.58	4.583
356.94	4.657
357.29	4.640
357.65	4.690
358.00	4.601
358.36	4.554
358.72	4.581
359.07	4.712
359.43	4.900
359.78	4.979
360.14	4.953
360.49	4.919
360.85	4.849
361.20	4.932
361.56	4.905
361.91	4.955
362.27	4.982
362.62	4.963
362.98	4.940
363.33	4.861
363.69	4.857
364.04	4.823
364.40	4.852
364.75	4.879
365.11	4.843
365.46	4.834
365.82	4.827
366.17	4.871
366.53	5.007
366.88	4.980
367.24	5.071
367.59	5.086
367.95	5.149
368.30	5.191
368.66	5.177
369.01	5.140
369.37	5.211
369.72	5.302
370.08	5.312
370.43	5.299
370.78	5.421
371.14	5.349
371.49	5.351
371.85	5.318
372.20	5.314
372.56	5.332
372.91	5.388
373.26	5.405
373.62	5.369
373.97	5.410
374.33	5.389
374.68	5.372
375.03	5.445
375.39	5.476
375.74	5.553
376.10	5.540
376.45	5.572
376.80	5.647
377.16	5.699
377.51	5.766
377.87	5.777
378.22	5.791
378.57	5.832
378.93	5.852
379.28	5.873
379.63	5.897
379.99	5.980
380.34	6.046
380.70	6.039
381.05	6.058
381.40	6.045
381.76	6.111
382.11	6.209
382.46	6.269
382.82	6.366
383.17	6.468
383.52	6.546
383.88	6.552
384.23	6.603
384.58	6.686
384.94	6.722
385.29	6.790
385.64	6.823
385.99	6.862
386.35	6.855
386.70	6.869
387.05	6.847
387.41	6.922
387.76	7.005
388.11	7.111
388.47	7.175
388.82	7.265
389.17	7.320
389.52	7.388
389.88	7.438
390.23	7.583
390.58	7.647
390.93	7.729
391.29	7.737
391.64	7.830
391.99	7.850
392.34	7.910
392.70	7.984
393.05	8.045
393.40	8.120
393.75	8.199
394.11	8.192
394.46	8.277
394.81	8.397
395.16	8.447
395.52	8.523
395.87	8.545
396.22	8.593
396.57	8.672
396.92	8.760
397.28	8.809
397.63	8.892
397.98	8.966
398.33	9.001
398.68	9.040
399.04	9.091
399.39	9.082
399.74	9.156
400.09	9.234
400.44	9.265
400.80	9.321
401.15	9.377
401.50	9.428
401.85	9.505
402.20	9.573
402.55	9.639
402.90	9.719
403.26	9.806
403.61	9.914
403.96	10.011
404.31	10.071
404.66	10.135
405.01	10.167
405.36	10.248
405.72	10.354
406.07	10.429
406.42	10.502
406.77	10.573
407.12	10.655
407.47	10.709
407.82	10.740
408.17	10.821
408.53	10.886
408.88	10.967
409.23	11.022
409.58	11.026
409.93	11.063
410.28	11.108
410.63	11.207
410.98	11.240
411.33	11.340
411.68	11.418
412.03	11.503
412.38	11.591
412.73	11.657
413.09	11.712
413.44	11.778
413.79	11.850
414.14	11.890
414.49	11.897
414.84	11.987
415.19	11.995
415.54	12.042
415.89	12.086
416.24	12.118
416.59	12.172
416.94	12.217
417.29	12.249
417.64	12.307
417.99	12.357
418.34	12.416
418.69	12.437
419.04	12.497
419.39	12.538
419.74	12.576
420.09	12.631
420.44	12.666
420.79	12.714
421.14	12.767
421.49	12.791
421.84	12.842
422.19	12.865
422.54	12.928
422.89	12.988
423.24	13.043
423.59	13.103
423.94	13.116
424.29	13.173
424.64	13.207
424.99	13.257
425.34	13.324
425.68	13.363
426.03	13.437
426.38	13.466
426.73	13.471
427.08	13.513
427.43	13.549
427.78	13.629
428.13	13.684
428.48	13.742
428.83	13.797
429.18	13.858
429.53	13.873
429.87	13.941
430.22	13.979
430.57	14.020
430.92	14.087
431.27	14.146
431.62	14.163
431.97	14.169
432.32	14.206
432.67	14.242
433.01	14.267
433.36	14.337
433.71	14.364
434.06	14.392
434.41	14.420
434.76	14.427
435.11	14.435
435.45	14.487
435.80	14.532
436.15	14.559
436.50	14.580
436.85	14.618
437.20	14.655
437.54	14.684
437.89	14.722
438.24	14.770
438.59	14.786
438.94	14.807
439.29	14.819
439.63	14.867
439.98	14.922
440.33	14.969
440.68	14.985
441.03	14.996
441.37	15.022
441.72	15.056
442.07	15.095
442.42	15.124
442.76	15.167
443.11	15.202
443.46	15.224
443.81	15.233
444.16	15.254
444.50	15.292
444.85	15.312
445.20	15.343
445.55	15.363
445.89	15.359
446.24	15.380
446.59	15.380
446.94	15.401
447.28	15.411
447.63	15.402
447.98	15.404
448.32	15.434
448.67	15.498
449.02	15.513
449.37	15.547
449.71	15.591
450.06	15.633
450.41	15.671
450.75	15.716
451.10	15.756
451.45	15.817
451.79	15.874
452.14	15.899
452.49	15.912
452.84	15.951
453.18	15.969
453.53	16.039
453.88	16.056
454.22	16.086
454.57	16.101
454.92	16.124
455.26	16.132
455.61	16.143
455.95	16.120
456.30	16.132
456.65	16.148
456.99	16.195
457.34	16.189
457.69	16.200
458.03	16.207
458.38	16.240
458.73	16.259
459.07	16.277
459.42	16.292
459.76	16.360
460.11	16.397
460.46	16.432
460.80	16.451
461.15	16.508
461.49	16.554
461.84	16.608
462.19	16.628
462.53	16.679
462.88	16.710
463.22	16.766
463.57	16.760
463.91	16.788
464.26	16.818
464.61	16.879
464.95	16.878
465.30	16.940
465.64	16.965
465.99	17.017
466.33	17.053
466.68	17.098
467.02	17.106
467.37	17.168
467.71	17.190
468.06	17.223
468.41	17.205
468.75	17.251
469.10	17.262
469.44	17.327
469.79	17.341
470.13	17.382
470.48	17.417
470.82	17.463
471.17	17.485
471.51	17.513
471.86	17.515
472.20	17.563
472.55	17.588
472.89	17.581
473.23	17.585
473.58	17.611
473.92	17.613
474.27	17.649
474.61	17.662
474.96	17.674
475.30	17.708
475.65	17.767
475.99	17.816
476.34	17.808
476.68	17.845
477.02	17.864
477.37	17.886
477.71	17.888
478.06	17.921
478.40	17.940
478.75	18.013
479.09	18.077
479.43	18.140
479.78	18.229
480.12	18.344
480.47	18.430
480.81	18.511
481.15	18.590
481.50	18.656
481.84	18.730
482.19	18.815
482.53	18.878
482.87	18.931
483.22	18.966
483.56	18.966
483.90	18.973
484.25	18.982
484.59	18.973
484.94	18.958
485.28	18.963
485.62	18.938
485.97	18.915
486.31	18.904
486.65	18.895
487.00	18.906
487.34	18.926
487.68	18.946
488.03	18.951
488.37	18.973
488.71	18.990
489.06	19.001
489.40	19.024
489.74	19.055
490.09	19.069
490.43	19.080
490.77	19.083
491.11	19.122
491.46	19.131
491.80	19.163
492.14	19.200
492.49	19.268
492.83	19.307
493.17	19.366
493.51	19.413
493.86	19.472
494.20	19.531
494.54	19.611
494.88	19.666
495.23	19.735
495.57	19.810
495.91	19.866
496.25	19.895
496.60	19.988
496.94	20.049
497.28	20.114
497.62	20.172
497.97	20.268
498.31	20.325
498.65	20.422
498.99	20.509
499.33	20.571
499.68	20.688
500.02	20.777
500.36	20.870
500.70	20.973
501.04	21.041
501.39	21.119
501.73	21.203
502.07	21.324
502.41	21.393
502.75	21.464
503.09	21.552
503.44	21.618
503.78	21.708
504.12	21.769
504.46	21.825
504.80	21.909
505.14	22.005
505.49	22.055
505.83	22.119
506.17	22.178
506.51	22.243
506.85	22.337
507.19	22.406
507.53	22.479
507.87	22.538
508.22	22.597
508.56	22.673
508.90	22.746
509.24	22.835
509.58	22.911
509.92	22.984
510.26	23.064
510.60	23.114
510.94	23.182
511.28	23.256
511.63	23.365
511.97	23.459
512.31	23.551
512.65	23.623
512.99	23.721
513.33	23.832
513.67	23.930
514.01	24.030
514.35	24.113
514.69	24.206
515.03	24.279
515.37	24.359
515.71	24.443
516.05	24.488
516.39	24.532
516.73	24.555
517.07	24.583
517.41	24.636
517.75	24.676
518.09	24.743
518.43	24.774
518.77	24.818
519.11	24.858
519.45	24.901
519.79	24.947
520.13	25.065
520.47	25.139
520.81	25.170
521.15	25.238
521.49	25.315
521.83	25.391
522.17	25.450
522.51	25.501
522.85	25.557
523.19	25.633
523.53	25.754
523.87	25.858
524.21	26.004
524.55	26.158
524.89	26.275
525.23	26.392
525.57	26.483
525.91	26.589
526.25	26.686
526.58	26.770
526.92	26.855
527.26	26.898
527.60	26.932
527.94	26.939
528.28	26.948
528.62	26.959
528.96	26.960
529.30	26.942
529.64	26.916
529.97	26.889
530.31	26.870
530.65	26.839
530.99	26.854
531.33	26.842
531.67	26.879
532.01	26.882
532.35	26.855
532.68	26.850
533.02	26.867
533.36	26.889
533.70	26.916
534.04	26.924
534.38	26.931
534.71	26.925
535.05	26.931
535.39	26.907
535.73	26.927
536.07	26.977
536.41	27.004
536.74	27.044
537.08	27.095
537.42	27.127
537.76	27.194
538.10	27.250
538.43	27.326
538.77	27.399
539.11	27.473
539.45	27.510
539.79	27.547
540.12	27.590
540.46	27.621
540.80	27.642
541.14	27.680
541.47	27.686
541.81	27.685
542.15	27.660
542.49	27.635
542.82	27.609
543.16	27.642
543.50	27.649
543.84	27.620
544.17	27.631
544.51	27.636
544.85	27.626
545.18	27.626
545.52	27.636
545.86	27.677
546.20	27.684
546.53	27.738
546.87	27.733
547.21	27.742
547.54	27.751
547.88	27.767
548.22	27.793
548.55	27.812
548.89	27.826
549.23	27.866
549.56	27.871
549.90	27.919
550.24	27.904
550.57	27.895
550.91	27.884
551.25	27.948
551.58	27.973
551.92	28.005
552.26	28.038
552.59	28.085
552.93	28.118
553.27	28.130
553.60	28.169
553.94	28.170
554.27	28.208
554.61	28.264
554.95	28.292
555.28	28.292
555.62	28.297
555.95	28.281
556.29	28.316
556.63	28.352
556.96	28.424
557.30	28.442
557.63	28.433
557.97	28.465
558.31	28.493
558.64	28.506
558.98	28.544
559.31	28.539
559.65	28.557
559.98	28.543
560.32	28.485
560.65	28.469
560.99	28.451
561.33	28.479
561.66	28.496
562.00	28.476
562.33	28.464
562.67	28.456
563.00	28.472
563.34	28.479
563.67	28.455
564.01	28.467
564.34	28.468
564.68	28.493
565.01	28.489
565.35	28.480
565.68	28.485
566.02	28.513
566.35	28.520
566.69	28.553
567.02	28.572
567.36	28.588
567.69	28.619
568.03	28.615
568.36	28.598
568.69	28.618
569.03	28.609
569.36	28.619
569.70	28.610
570.03	28.577
570.37	28.558
570.70	28.569
571.04	28.583
571.37	28.552
571.70	28.566
572.04	28.560
572.37	28.587
572.71	28.576
573.04	28.561
573.37	28.555
573.71	28.598
574.04	28.595
574.38	28.581
574.71	28.593
575.04	28.605
575.38	28.578
575.71	28.621
576.05	28.593
576.38	28.599
576.71	28.621
577.05	28.602
577.38	28.586
577.71	28.594
578.05	28.625
578.38	28.576
578.71	28.619
579.05	28.591
579.38	28.515
579.71	28.479
580.05	28.464
580.38	28.446
580.71	28.418
581.05	28.423
581.38	28.442
581.71	28.406
582.05	28.431
582.38	28.343
582.71	28.368
583.04	28.399
583.38	28.444
583.71	28.405
584.04	28.401
584.38	28.415
584.71	28.345
585.04	28.249
585.37	28.267
585.71	28.228
586.04	28.237
586.37	28.243
586.70	28.236
587.04	28.198
587.37	28.180
587.70	28.147
588.03	28.143
588.37	28.151
588.70	28.163
589.03	28.162
589.36	28.149
589.69	28.145
590.03	28.093
590.36	28.049
590.69	28.055
591.02	28.075
591.35	28.078
591.69	28.039
592.02	28.028
592.35	28.033
592.68	27.959
593.01	27.902
593.35	27.855
593.68	27.865
594.01	27.865
594.34	27.810
594.67	27.793
595.00	27.772
595.34	27.723
595.67	27.717
596.00	27.693
596.33	27.685
596.66	27.701
596.99	27.684
597.32	27.673
597.65	27.624
597.99	27.644
598.32	27.589
598.65	27.541
598.98	27.561
599.31	27.516
599.64	27.462
599.97	27.419
600.30	27.411
600.63	27.432
600.96	27.350
601.30	27.299
601.63	27.266
601.96	27.252
602.29	27.260
602.62	27.294
602.95	27.283
603.28	27.301
603.61	27.292
603.94	27.246
604.27	27.205
604.60	27.202
604.93	27.182
605.26	27.134
605.59	27.101
605.92	27.023
606.25	26.922
606.58	26.875
606.91	26.784
607.24	26.758
607.57	26.705
607.90	26.698
608.23	26.677
608.56	26.715
608.89	26.663
609.22	26.615
609.55	26.574
609.88	26.552
610.21	26.502
610.54	26.475
610.87	26.445
611.20	26.500
611.53	26.426
611.86	26.374
612.19	26.316
612.52	26.368
612.85	26.326
613.18	26.337
613.51	26.301
613.84	26.248
614.17	26.203
614.49	26.168
614.82	26.084
615.15	26.044
615.48	26.043
615.81	26.023
616.14	25.955
616.47	25.905
616.80	25.889
617.13	25.864
617.46	25.824
617.78	25.829
618.11	25.773
618.44	25.709
618.77	25.647
619.10	25.575
619.43	25.472
619.76	25.405
620.09	25.423
620.41	25.411
620.74	25.327
621.07	25.327
621.40	25.277
621.73	25.200
622.06	25.143
622.38	25.151
622.71	25.142
623.04	25.175
623.37	25.169
623.70	25.209
624.02	25.155
624.35	25.144
624.68	25.157
625.01	25.179
625.34	25.179
625.66	25.179
625.99	25.143
626.32	25.075
626.65	25.004
626.98	24.942
627.30	24.837
627.63	24.778
627.96	24.764
628.29	24.693
628.61	24.611
628.94	24.544
629.27	24.497
629.60	24.465
629.92	24.416
630.25	24.377
630.58	24.266
630.91	24.237
631.23	24.196
631.56	24.156
631.89	24.075
632.21	24.069
632.54	24.053
632.87	24.045
633.19	24.022
633.52	24.031
633.85	23.984
634.18	24.056
634.50	23.985
634.83	23.952
635.16	23.914
635.48	23.879
635.81	23.777
636.14	23.780
636.46	23.699
636.79	23.623
637.11	23.604
637.44	23.577
637.77	23.466
638.09	23.519
638.42	23.494
638.75	23.420
639.07	23.382
639.40	23.294
639.73	23.161
640.05	23.154
640.38	23.137
640.70	23.029
641.03	22.927
641.36	22.872
641.68	22.753
642.01	22.599
642.33	22.490
642.66	22.460
642.98	22.472
643.31	22.461
643.64	22.411
643.96	22.308
644.29	22.216
644.61	22.197
644.94	22.148
645.26	22.043
645.59	22.042
645.91	22.018
646.24	21.951
646.56	21.896
646.89	21.826
647.22	21.739
647.54	21.673
647.87	21.667
648.19	21.634
648.52	21.574
648.84	21.608
649.17	21.607
649.49	21.605
649.82	21.571
650.14	21.538
650.47	21.499
650.79	21.463
651.11	21.494
651.44	21.457
651.76	21.450
652.09	21.462
652.41	21.411
652.74	21.350
653.06	21.272
653.39	21.201
653.71	21.161
654.04	21.076
654.36	21.064
654.68	21.037
655.01	21.035
655.33	21.000
655.66	21.015
655.98	20.995
656.30	20.966
656.63	20.993
656.95	21.018
657.28	20.955
657.60	21.012
657.92	20.929
658.25	20.857
658.57	20.814
658.90	20.736
659.22	20.658
659.54	20.611
659.87	20.608
660.19	20.497
660.51	20.434
660.84	20.376
661.16	20.307
661.48	20.290
661.81	20.233
662.13	20.136
662.45	20.051
662.78	20.061
663.10	20.007
663.42	19.930
663.75	19.868
664.07	19.864
664.39	19.904
664.72	19.844
665.04	19.786
665.36	19.759
665.69	19.668
666.01	19.686
666.33	19.565
666.65	19.453
666.98	19.346
667.30	19.344
667.62	19.337
667.94	19.275
668.27	19.231
668.59	19.232
668.91	19.244
669.23	19.256
669.56	19.166
669.88	19.154
670.20	19.223
670.52	19.287
670.85	19.312
671.17	19.250
671.49	19.297
671.81	19.321
672.13	19.302
672.46	19.256
672.78	19.229
673.10	19.290
673.42	19.355
673.74	19.277
674.07	19.271
674.39	19.196
674.71	19.210
675.03	19.089
675.35	19.059
675.67	19.069
676.00	19.087
676.32	19.158
676.64	19.129
676.96	19.107
677.28	19.189
677.60	19.172
677.92	19.239
678.25	19.195
678.57	19.251
678.89	19.300
679.21	19.328
679.53	19.393
679.85	19.391
680.17	19.343
680.49	19.342
680.81	19.250
681.13	19.239
681.46	19.228
681.78	19.279
682.10	19.250
682.42	19.184
682.74	19.138
683.06	19.038
683.38	19.083
683.70	19.191
684.02	19.219
684.34	19.314
684.66	19.371
684.98	19.398
685.30	19.354
685.62	19.385
685.94	19.426
686.26	19.470
686.58	19.541
686.90	19.544
687.22	19.610
687.54	19.516
687.86	19.468
688.18	19.461
688.50	19.559
688.82	19.622
689.14	19.634
689.46	19.627
689.78	19.718
690.10	19.647
690.42	19.652
690.74	19.611
691.06	19.733
691.38	19.728
691.70	19.698
692.02	19.555
692.34	19.440
692.66	19.385
692.98	19.314
693.30	19.264
693.62	19.392
693.94	19.364
694.26	19.428
694.57	19.418
694.89	19.401
695.21	19.454
695.53	19.509
695.85	19.581
696.17	19.546
696.49	19.572
696.81	19.476
697.13	19.392
697.44	19.428
697.76	19.321
698.08	19.264
698.40	19.282
698.72	19.199
699.04	19.181
699.36	19.130
699.67	19.098
699.99	19.128
700.31	19.141
700.63	19.141
700.95	18.968
701.27	19.059
701.58	19.007
701.90	18.989
702.22	18.973
702.54	18.847
702.86	18.797
703.17	18.889
703.49	18.810
703.81	18.874
704.13	18.840
704.45	18.958
704.76	18.845
705.08	18.831
705.40	18.902
705.72	18.954
706.03	18.793
706.35	18.777
706.67	18.738
706.99	18.846
707.30	18.772
707.62	18.756
707.94	18.703
708.26	18.750
708.57	18.824
708.89	18.688
709.21	18.656
709.53	18.856
709.84	18.918
710.16	18.967
710.48	18.869
710.79	18.966
711.11	18.936
711.43	19.030
711.74	18.872
712.06	18.883
712.38	18.881
712.69	18.859
713.01	18.889
713.33	18.804
713.64	18.785
713.96	18.858
714.28	18.661
714.59	18.748
714.91	18.584
715.23	18.620
715.54	18.515
715.86	18.581
716.17	18.671
716.49	18.654
716.81	18.690
717.12	18.684
717.44	18.623
717.76	18.705
718.07	18.619
718.39	18.800
718.70	18.912
719.02	18.966
719.33	18.936
719.65	18.865
719.97	18.680
720.28	18.760
720.60	18.671
720.91	18.775
721.23	18.827
721.54	18.917
721.86	18.703
722.17	18.742
722.49	18.733
722.81	18.688
723.12	18.603
723.44	18.733
723.75	18.656
724.07	18.709
724.38	18.506
724.70	18.562
725.01	18.396
725.33	18.539
725.64	18.421
725.96	18.439
726.27	18.471
726.59	18.456
726.90	18.444
727.22	18.330
727.53	18.371
727.84	18.454
728.16	18.181
728.47	18.233
728.79	18.178
729.10	18.228
729.42	18.161
729.73	18.093
730.05	18.111
730.36	17.985
730.67	18.004
730.99	17.978
731.30	17.965
731.62	18.179
731.93	18.031
732.24	18.003
732.56	17.920
732.87	18.031
733.19	18.033
733.50	17.993
733.81	18.057
734.13	18.056
734.44	18.013
734.76	17.925
735.07	17.912
735.38	17.917
735.70	17.909
736.01	17.953
736.32	17.831
736.64	18.028
736.95	18.179
737.26	18.260
737.58	18.240
737.89	18.082
738.20	17.869
738.52	17.747
738.83	18.028
739.14	18.020
739.45	17.909
739.77	17.867
740.08	17.653
740.39	17.622
740.71	17.588
741.02	17.689
741.33	17.806
741.64	18.166
741.96	18.123
742.27	17.924
742.58	17.958
742.90	17.996
743.21	18.126
743.52	17.976
743.83	17.752
744.14	17.670
744.46	17.437
744.77	17.357
745.08	17.095
745.39	17.022
745.71	16.810
746.02	16.535
746.33	16.581
746.64	16.415
746.95	16.544
747.27	16.745
747.58	16.789
747.89	16.978
748.20	16.962
748.51	17.024
748.82	17.149
749.14	17.344
749.45	17.477
749.76	17.258
750.07	17.112
750.38	17.276
750.69	17.088
751.01	16.950
751.32	16.908
751.63	16.903
751.94	17.017
752.25	17.163
752.56	17.234
752.87	17.109
753.18	17.326
753.49	17.538
753.81	17.408
754.12	17.410
754.43	17.353
754.74	17.377
755.05	17.323
755.36	17.351
755.67	17.150
755.98	17.209
756.29	17.249
756.60	17.333
756.91	17.325
757.22	17.584
757.53	17.742
757.84	17.708
758.15	17.792
758.46	17.909
758.77	17.779
759.09	17.986
759.40	17.896
759.71	17.914
760.02	17.844
760.33	17.781
760.64	17.634
760.95	17.453
761.26	17.695
761.57	17.505
761.88	17.589
762.18	17.594
762.49	17.507
762.80	17.537
763.11	17.485
763.42	17.463
763.73	17.510
764.04	17.480
764.35	17.622
764.66	17.502
764.97	17.612
765.28	17.529
765.59	17.512
765.90	17.518
766.21	17.349
766.52	17.407
766.83	17.321
767.14	17.307
767.44	17.382
767.75	17.169
768.06	17.165
768.37	17.264
768.68	17.180
768.99	17.119
769.30	17.114
769.61	17.051
769.91	17.130
770.22	17.257
770.53	17.198
770.84	17.038
771.15	17.311
771.46	17.265
771.77	17.028
772.07	16.993
772.38	17.049
772.69	16.925
773.00	17.265
773.31	17.340
773.61	17.428
773.92	17.556
774.23	17.626
774.54	17.457
774.85	17.501
775.15	17.324
775.46	17.169
775.77	17.122
776.08	16.833
776.39	16.326
776.69	16.127
777.00	15.887
777.31	15.825
777.62	15.649
777.92	15.668
778.23	15.389
778.54	15.806
778.85	16.199
779.15	16.437
779.46	16.905
779.77	17.206
780.07	17.485
780.38	17.459
780.69	17.256
781.00	17.237
781.30	17.323
781.61	17.428
781.92	17.333
782.22	16.973
782.53	16.798
782.84	16.685
783.14	16.580
783.45	16.600
783.76	17.020
784.06	17.222
784.37	17.371
784.68	17.190
784.98	17.381
785.29	17.585
785.60	17.952
785.90	17.743
786.21	17.824
786.51	17.678
786.82	17.552
787.13	17.220
787.43	17.009
787.74	17.025
788.04	17.174
788.35	17.102
788.66	17.149
788.96	16.851
789.27	17.350
789.57	17.423
789.88	17.435
790.19	17.461
790.49	17.525
790.80	17.712
791.10	17.947
791.41	18.088
791.71	17.756
792.02	17.446
792.32	17.599
792.63	17.032
792.93	16.863
793.24	16.871
793.54	16.570
793.85	16.446
794.15	16.614
794.46	16.235
794.76	16.110
795.07	16.481
795.37	16.763
795.68	16.526
795.98	16.790
796.29	16.696
796.59	16.818
796.90	17.142
797.20	17.117
797.51	16.904
797.81	17.110
798.12	16.869
798.42	17.010
798.72	16.753
799.03	16.915
799.33	17.152
799.64	17.104
799.94	17.366
800.25	17.162
800.55	17.265
800.85	17.376
801.16	17.192
801.46	17.911
801.77	17.604
802.07	17.767
802.37	17.820
802.68	17.494
802.98	17.149
803.28	16.992
803.59	17.081
803.89	17.572
804.20	17.330
804.50	17.356
804.80	17.015
805.11	17.204
805.41	17.135
805.71	17.153
806.02	17.202
806.32	17.865
806.62	18.340
806.93	18.351
807.23	17.622
807.53	18.061
807.83	18.448
808.14	18.541
808.44	18.673
808.74	18.414
809.05	18.217
809.35	17.961
809.65	17.661
809.95	17.324
810.26	17.318
810.56	18.072
810.86	18.080
811.16	17.975
811.47	17.841
811.77	18.069
812.07	17.684
812.37	17.988
812.68	18.378
812.98	18.332
813.28	18.664
813.58	18.315
813.88	17.858
814.19	17.453
814.49	16.703
814.79	16.580
815.09	15.414
815.39	15.863
815.70	16.263
816.00	16.243
816.30	16.205
816.60	16.016
816.90	16.605
817.20	16.517
817.50	16.702
817.81	16.811
818.11	16.608
818.41	16.937
818.71	17.133
819.01	16.989
819.31	16.927
819.61	16.952
819.92	16.892
820.22	16.936
820.52	16.967
820.82	16.991
821.12	17.006
821.42	17.055
821.72	17.123
822.02	16.974
822.32	16.949
822.62	17.029
822.92	17.021
823.22	17.019
823.52	16.902
823.83	16.907
824.13	16.802
824.43	16.890
824.73	16.866
825.03	16.765
825.33	16.971
825.63	17.016
825.93	16.958
826.23	17.114
826.53	17.200
826.83	17.349
827.13	17.350
827.43	17.724
827.73	17.776
828.03	18.108
828.33	18.323
828.63	18.159
828.93	18.126
829.23	18.229
829.53	18.120
829.83	18.292
830.13	18.148
830.42	18.455
830.72	18.086
831.02	18.106
831.32	17.590
831.62	17.361
831.92	17.651
832.22	17.804
832.52	17.635
832.82	17.584
833.12	17.246
833.42	17.214
833.72	16.877
834.01	16.701
834.31	16.704
834.61	16.684
834.91	16.802
835.21	16.490
835.51	16.473
835.81	16.599
836.11	16.547
836.40	16.919
836.70	16.973
837.00	17.555
837.30	17.515
837.60	17.444
837.90	17.894
838.19	18.076
838.49	18.559
838.79	18.445
839.09	18.100
839.39	18.299
839.68	18.221
839.98	18.488
840.28	18.096
840.58	18.497
840.88	18.310
841.17	17.870
841.47	18.068
841.77	17.345
842.07	17.899
842.36	18.023
842.66	17.883
842.96	17.206
843.26	17.710
843.55	17.615
843.85	17.722
844.15	18.009
844.45	18.002
844.74	15.975
845.04	17.415
845.34	15.505
845.63	17.719
845.93	18.043
846.23	17.690
846.53	17.682
846.82	18.236
847.12	19.558
847.42	18.573
847.71	19.047
848.01	21.326
848.31	21.017
848.60	21.467
848.90	18.732
849.19	19.322
849.49	19.412
849.79	18.893
850.08	18.569
850.38	16.400
850.68	16.133
850.97	17.063
851.27	15.788
851.56	15.572
851.86	16.835
852.16	17.390
852.45	16.826
852.75	18.715
853.04	17.086
853.34	17.713
853.64	17.710
853.93	17.349
854.23	16.250
854.52	17.140
854.82	17.687
855.11	17.768
855.41	17.785
855.70	16.479
856.00	15.189
856.30	16.681
856.59	14.997
856.89	17.877
857.18	18.608
857.48	18.640
857.77	20.062
858.07	19.788
858.36	20.713
858.66	19.558
858.95	19.380
859.25	19.279
859.54	20.687
859.84	21.866
860.13	18.978
860.42	19.081
860.72	18.497
861.01	15.973
861.31	15.846
861.60	14.307
861.90	16.157
862.19	18.568
862.49	18.699
862.78	17.439
863.07	16.947
863.37	18.754
863.66	20.433
863.96	22.285
864.25	23.595
864.54	22.780
864.84	22.964
865.13	23.751
865.43	23.132
865.72	29.373
866.01	10.015
866.31	21.291
866.60	34.182
866.89	21.931
>>>>>End Spectral Data<<<<<
