OOIBase32 Version 2.0.0.6 Data File
++++++++++++++++++++++++++++++++++++
Date: 01-20-2012, 23:14:24
User: Valued Ocean Optics Customer
Spectrometer Serial Number: USB2E2917
Spectrometer Channel: Master
Integration Time (msec): 3
Spectra Averaged: 10
Boxcar Smoothing: 5
Correct for Electrical Dark: Enabled
Time Normalized: Disabled
Dual-beam Reference: Disabled
Reference Channel: Master
Temperature: Not acquired
Spectrometer Type: S2000
ADC Type: USB2000
Number of Pixels in File: 2048
Graph Title: 
>>>>>Begin Spectral Data<<<<<
180.30	0.000
180.67	0.000
181.03	106.152
181.40	-309.890
181.77	955.899
182.14	1406.321
182.51	-13.177
182.88	138.350
183.25	-77.575
183.62	134.030
183.99	-1.202
184.36	23.003
184.73	39.423
185.10	107.085
185.46	-31.834
185.83	325.466
186.20	60.898
186.57	182.844
186.94	207.527
187.31	106.241
187.68	-108.969
188.05	17.748
188.42	6.257
188.78	47.620
189.15	66.717
189.52	43.853
189.89	48.944
190.26	45.318
190.63	38.062
191.00	25.738
191.37	14.916
191.73	-8.994
192.10	-7.489
192.47	-6.162
192.84	-7.256
193.21	-0.909
193.58	-12.938
193.94	-6.483
194.31	-13.630
194.68	-18.816
195.05	-0.839
195.42	-1.108
195.79	0.731
196.15	-8.743
196.52	2.074
196.89	-21.616
197.26	-42.602
197.63	-33.528
198.00	-134.480
198.36	-272.247
198.73	2710.869
199.10	-8541.265
199.47	752.716
199.84	-340.096
200.20	-145.621
200.57	-207.422
200.94	-930.322
201.31	-350.232
201.68	-128.722
202.04	-11.441
202.41	-3.704
202.78	-2.549
203.15	3.020
203.51	-9.166
203.88	-10.889
204.25	-11.621
204.62	-17.475
204.98	5.601
205.35	7.841
205.72	23.750
206.09	45.036
206.46	50.235
206.82	45.810
207.19	36.925
207.56	51.799
207.92	55.918
208.29	46.855
208.66	38.774
209.03	20.480
209.39	10.743
209.76	14.792
210.13	-1.302
210.50	-12.538
210.86	3.793
211.23	6.883
211.60	12.666
211.96	6.510
212.33	10.644
212.70	30.785
213.07	60.982
213.43	80.729
213.80	77.266
214.17	67.695
214.53	84.040
214.90	69.136
215.27	62.071
215.63	54.963
216.00	53.340
216.37	51.568
216.74	31.258
217.10	13.172
217.47	18.084
217.84	14.173
218.20	19.631
218.57	7.318
218.94	10.415
219.30	19.073
219.67	9.442
220.04	10.444
220.40	11.617
220.77	13.134
221.13	11.338
221.50	-1.771
221.87	-12.471
222.23	-27.504
222.60	-16.721
222.97	-14.416
223.33	-2.516
223.70	2.836
224.07	-2.270
224.43	-1.120
224.80	1.550
225.16	1.857
225.53	0.644
225.90	2.054
226.26	4.003
226.63	4.512
226.99	3.097
227.36	-0.092
227.73	0.196
228.09	0.861
228.46	0.684
228.82	-1.231
229.19	-0.177
229.56	0.065
229.92	1.182
230.29	2.032
230.65	1.407
231.02	3.754
231.38	3.716
231.75	3.544
232.12	2.999
232.48	3.430
232.85	4.503
233.21	3.024
233.58	4.424
233.94	4.578
234.31	3.385
234.68	2.226
235.04	0.229
235.41	0.075
235.77	-1.569
236.14	-1.332
236.50	-0.898
236.87	-0.159
237.23	0.111
237.60	-1.068
237.96	-1.534
238.33	-1.198
238.69	-1.243
239.06	-1.307
239.42	-0.389
239.79	-0.428
240.15	-0.339
240.52	-0.277
240.88	-0.437
241.25	0.058
241.61	0.164
241.98	0.556
242.34	1.160
242.71	1.555
243.07	1.389
243.44	1.148
243.80	1.454
244.17	1.776
244.53	1.859
244.90	2.086
245.26	2.352
245.63	2.389
245.99	2.281
246.36	2.023
246.72	1.742
247.09	2.114
247.45	1.877
247.81	1.864
248.18	1.836
248.54	1.643
248.91	1.596
249.27	1.613
249.64	1.744
250.00	1.868
250.36	2.423
250.73	3.223
251.09	3.191
251.46	3.394
251.82	3.434
252.19	2.890
252.55	2.965
252.91	2.626
253.28	1.878
253.64	1.839
254.01	1.406
254.37	0.712
254.73	-0.011
255.10	-0.054
255.46	0.405
255.83	0.121
256.19	0.715
256.55	0.831
256.92	1.020
257.28	1.097
257.65	1.250
258.01	1.374
258.37	1.465
258.74	1.900
259.10	1.814
259.46	1.765
259.83	2.164
260.19	2.293
260.55	2.250
260.92	2.404
261.28	2.423
261.64	2.280
262.01	2.223
262.37	2.316
262.73	2.004
263.10	2.439
263.46	2.309
263.82	2.423
264.19	2.252
264.55	2.369
264.91	2.537
265.28	2.583
265.64	2.689
266.00	2.985
266.37	2.872
266.73	2.626
267.09	2.283
267.46	2.516
267.82	2.551
268.18	2.426
268.54	2.198
268.91	2.081
269.27	2.182
269.63	2.118
270.00	1.935
270.36	2.052
270.72	2.233
271.08	2.443
271.45	2.350
271.81	2.248
272.17	2.201
272.53	2.440
272.90	2.566
273.26	2.207
273.62	2.157
273.98	2.003
274.35	2.142
274.71	2.305
275.07	1.863
275.43	1.830
275.80	1.566
276.16	1.464
276.52	1.255
276.88	1.005
277.25	1.343
277.61	1.432
277.97	1.721
278.33	1.591
278.69	1.073
279.06	1.236
279.42	1.566
279.78	1.705
280.14	1.640
280.50	1.353
280.87	1.306
281.23	1.204
281.59	1.235
281.95	1.028
282.31	0.911
282.68	1.139
283.04	1.229
283.40	1.235
283.76	1.371
284.12	1.384
284.48	1.751
284.85	1.907
285.21	2.143
285.57	2.007
285.93	2.050
286.29	1.908
286.65	1.873
287.02	1.945
287.38	1.647
287.74	1.494
288.10	1.579
288.46	1.638
288.82	1.503
289.18	1.272
289.54	1.254
289.91	1.265
290.27	1.467
290.63	1.509
290.99	1.338
291.35	1.485
291.71	1.571
292.07	1.691
292.43	1.668
292.79	1.625
293.16	1.596
293.52	1.853
293.88	1.861
294.24	1.951
294.60	2.090
294.96	2.203
295.32	2.143
295.68	2.232
296.04	2.243
296.40	2.083
296.76	2.095
297.12	2.201
297.49	1.997
297.85	1.873
298.21	1.905
298.57	1.830
298.93	1.945
299.29	1.952
299.65	1.964
300.01	1.877
300.37	1.992
300.73	2.097
301.09	2.164
301.45	2.312
301.81	2.560
302.17	2.547
302.53	2.740
302.89	2.809
303.25	2.966
303.61	2.996
303.97	3.177
304.33	3.175
304.69	3.091
305.05	2.963
305.41	2.995
305.77	3.123
306.13	2.998
306.49	2.817
306.85	2.679
307.21	2.498
307.57	2.361
307.93	2.258
308.29	2.310
308.65	2.339
309.01	2.530
309.37	2.631
309.73	2.574
310.09	2.743
310.45	2.797
310.81	2.929
311.17	3.114
311.53	3.181
311.89	3.290
312.25	3.242
312.61	3.207
312.96	3.027
313.32	2.878
313.68	2.898
314.04	2.920
314.40	2.805
314.76	2.560
315.12	2.478
315.48	2.529
315.84	2.493
316.20	2.557
316.56	2.497
316.92	2.742
317.27	2.917
317.63	2.903
317.99	2.794
318.35	2.913
318.71	2.957
319.07	3.019
319.43	2.971
319.79	2.883
320.15	2.935
320.50	2.977
320.86	2.842
321.22	2.761
321.58	2.779
321.94	2.760
322.30	2.792
322.66	2.812
323.01	2.808
323.37	2.798
323.73	2.802
324.09	2.695
324.45	2.882
324.81	2.963
325.17	2.903
325.52	2.895
325.88	2.852
326.24	2.756
326.60	2.815
326.96	2.882
327.31	2.929
327.67	2.974
328.03	3.021
328.39	2.895
328.75	2.835
329.11	2.912
329.46	2.819
329.82	2.842
330.18	2.990
330.54	2.980
330.90	2.769
331.25	2.792
331.61	2.766
331.97	2.824
332.33	2.800
332.68	2.809
333.04	2.726
333.40	2.657
333.76	2.693
334.11	2.582
334.47	2.585
334.83	2.762
335.19	2.597
335.54	2.630
335.90	2.498
336.26	2.577
336.62	2.666
336.97	2.700
337.33	2.831
337.69	2.847
338.05	2.886
338.40	2.859
338.76	2.756
339.12	2.974
339.48	2.968
339.83	3.154
340.19	3.119
340.55	2.969
340.90	2.935
341.26	2.938
341.62	2.982
341.97	2.869
342.33	2.768
342.69	2.734
343.04	2.677
343.40	2.615
343.76	2.481
344.12	2.528
344.47	2.506
344.83	2.538
345.19	2.441
345.54	2.292
345.90	2.337
346.26	2.376
346.61	2.351
346.97	2.175
347.32	2.119
347.68	2.060
348.04	2.032
348.39	2.087
348.75	2.156
349.11	2.234
349.46	2.372
349.82	2.424
350.18	2.416
350.53	2.444
350.89	2.545
351.24	2.626
351.60	2.688
351.96	2.641
352.31	2.610
352.67	2.571
353.02	2.533
353.38	2.453
353.74	2.351
354.09	2.413
354.45	2.423
354.80	2.470
355.16	2.461
355.52	2.463
355.87	2.504
356.23	2.516
356.58	2.466
356.94	2.393
357.29	2.328
357.65	2.334
358.00	2.280
358.36	2.274
358.72	2.271
359.07	2.280
359.43	2.234
359.78	2.232
360.14	2.169
360.49	2.179
360.85	2.222
361.20	2.277
361.56	2.273
361.91	2.260
362.27	2.224
362.62	2.196
362.98	2.136
363.33	2.169
363.69	2.119
364.04	2.185
364.40	2.166
364.75	2.186
365.11	2.148
365.46	2.171
365.82	2.196
366.17	2.225
366.53	2.228
366.88	2.265
367.24	2.252
367.59	2.278
367.95	2.232
368.30	2.307
368.66	2.275
369.01	2.251
369.37	2.246
369.72	2.265
370.08	2.214
370.43	2.205
370.78	2.160
371.14	2.122
371.49	2.067
371.85	2.085
372.20	2.044
372.56	1.972
372.91	1.991
373.26	1.967
373.62	1.931
373.97	1.938
374.33	1.882
374.68	1.942
375.03	1.960
375.39	1.989
375.74	1.938
376.10	1.877
376.45	1.968
376.80	2.010
377.16	1.960
377.51	1.925
377.87	1.905
378.22	1.923
378.57	1.880
378.93	1.858
379.28	1.887
379.63	1.922
379.99	1.935
380.34	1.892
380.70	1.792
381.05	1.824
381.40	1.860
381.76	1.898
382.11	1.912
382.46	1.925
382.82	1.934
383.17	1.864
383.52	1.857
383.88	1.858
384.23	1.867
384.58	1.945
384.94	1.978
385.29	1.967
385.64	1.942
385.99	1.886
386.35	1.857
386.70	1.877
387.05	1.838
387.41	1.781
387.76	1.746
388.11	1.740
388.47	1.702
388.82	1.716
389.17	1.736
389.52	1.776
389.88	1.740
390.23	1.743
390.58	1.716
390.93	1.725
391.29	1.729
391.64	1.743
391.99	1.682
392.34	1.653
392.70	1.587
393.05	1.562
393.40	1.512
393.75	1.576
394.11	1.592
394.46	1.605
394.81	1.621
395.16	1.674
395.52	1.645
395.87	1.685
396.22	1.710
396.57	1.723
396.92	1.709
397.28	1.704
397.63	1.684
397.98	1.644
398.33	1.633
398.68	1.628
399.04	1.604
399.39	1.625
399.74	1.593
400.09	1.588
400.44	1.631
400.80	1.603
401.15	1.632
401.50	1.644
401.85	1.618
402.20	1.598
402.55	1.574
402.90	1.572
403.26	1.563
403.61	1.593
403.96	1.593
404.31	1.552
404.66	1.569
405.01	1.573
405.36	1.559
405.72	1.538
406.07	1.536
406.42	1.549
406.77	1.523
407.12	1.523
407.47	1.497
407.82	1.456
408.17	1.442
408.53	1.423
408.88	1.390
409.23	1.400
409.58	1.433
409.93	1.449
410.28	1.480
410.63	1.498
410.98	1.488
411.33	1.492
411.68	1.497
412.03	1.509
412.38	1.491
412.73	1.464
413.09	1.453
413.44	1.463
413.79	1.436
414.14	1.406
414.49	1.407
414.84	1.430
415.19	1.439
415.54	1.459
415.89	1.450
416.24	1.463
416.59	1.486
416.94	1.487
417.29	1.491
417.64	1.507
417.99	1.524
418.34	1.527
418.69	1.533
419.04	1.547
419.39	1.540
419.74	1.559
420.09	1.568
420.44	1.563
420.79	1.574
421.14	1.578
421.49	1.573
421.84	1.557
422.19	1.544
422.54	1.530
422.89	1.506
423.24	1.504
423.59	1.485
423.94	1.483
424.29	1.484
424.64	1.486
424.99	1.463
425.34	1.450
425.68	1.462
426.03	1.481
426.38	1.487
426.73	1.522
427.08	1.534
427.43	1.528
427.78	1.506
428.13	1.524
428.48	1.531
428.83	1.540
429.18	1.572
429.53	1.564
429.87	1.535
430.22	1.525
430.57	1.493
430.92	1.510
431.27	1.507
431.62	1.523
431.97	1.519
432.32	1.509
432.67	1.510
433.01	1.496
433.36	1.484
433.71	1.496
434.06	1.505
434.41	1.524
434.76	1.500
435.11	1.525
435.45	1.521
435.80	1.534
436.15	1.510
436.50	1.518
436.85	1.498
437.20	1.531
437.54	1.540
437.89	1.535
438.24	1.534
438.59	1.532
438.94	1.513
439.29	1.515
439.63	1.482
439.98	1.495
440.33	1.486
440.68	1.506
441.03	1.474
441.37	1.468
441.72	1.457
442.07	1.455
442.42	1.479
442.76	1.503
443.11	1.498
443.46	1.524
443.81	1.519
444.16	1.529
444.50	1.528
444.85	1.545
445.20	1.528
445.55	1.542
445.89	1.532
446.24	1.505
446.59	1.478
446.94	1.464
447.28	1.443
447.63	1.434
447.98	1.423
448.32	1.400
448.67	1.381
449.02	1.371
449.37	1.368
449.71	1.385
450.06	1.404
450.41	1.412
450.75	1.423
451.10	1.425
451.45	1.407
451.79	1.410
452.14	1.433
452.49	1.437
452.84	1.417
453.18	1.373
453.53	1.357
453.88	1.365
454.22	1.361
454.57	1.366
454.92	1.346
455.26	1.366
455.61	1.376
455.95	1.366
456.30	1.367
456.65	1.398
456.99	1.432
457.34	1.440
457.69	1.424
458.03	1.421
458.38	1.431
458.73	1.435
459.07	1.437
459.42	1.436
459.76	1.446
460.11	1.449
460.46	1.471
460.80	1.459
461.15	1.432
461.49	1.420
461.84	1.402
462.19	1.366
462.53	1.369
462.88	1.384
463.22	1.362
463.57	1.347
463.91	1.331
464.26	1.320
464.61	1.308
464.95	1.314
465.30	1.336
465.64	1.360
465.99	1.364
466.33	1.350
466.68	1.333
467.02	1.353
467.37	1.352
467.71	1.353
468.06	1.336
468.41	1.341
468.75	1.330
469.10	1.329
469.44	1.316
469.79	1.322
470.13	1.345
470.48	1.323
470.82	1.304
471.17	1.321
471.51	1.329
471.86	1.339
472.20	1.344
472.55	1.379
472.89	1.373
473.23	1.374
473.58	1.376
473.92	1.371
474.27	1.365
474.61	1.341
474.96	1.329
475.30	1.337
475.65	1.335
475.99	1.322
476.34	1.321
476.68	1.313
477.02	1.317
477.37	1.314
477.71	1.309
478.06	1.343
478.40	1.369
478.75	1.388
479.09	1.393
479.43	1.417
479.78	1.442
480.12	1.455
480.47	1.476
480.81	1.498
481.15	1.518
481.50	1.529
481.84	1.532
482.19	1.556
482.53	1.566
482.87	1.573
483.22	1.579
483.56	1.583
483.90	1.581
484.25	1.575
484.59	1.567
484.94	1.558
485.28	1.556
485.62	1.554
485.97	1.535
486.31	1.525
486.65	1.524
487.00	1.517
487.34	1.504
487.68	1.494
488.03	1.502
488.37	1.497
488.71	1.492
489.06	1.484
489.40	1.472
489.74	1.465
490.09	1.450
490.43	1.443
490.77	1.426
491.11	1.427
491.46	1.425
491.80	1.401
492.14	1.386
492.49	1.365
492.83	1.360
493.17	1.331
493.51	1.321
493.86	1.299
494.20	1.270
494.54	1.279
494.88	1.256
495.23	1.251
495.57	1.252
495.91	1.262
496.25	1.265
496.60	1.259
496.94	1.281
497.28	1.271
497.62	1.277
497.97	1.282
498.31	1.261
498.65	1.259
498.99	1.247
499.33	1.237
499.68	1.228
500.02	1.217
500.36	1.201
500.70	1.186
501.04	1.177
501.39	1.174
501.73	1.167
502.07	1.165
502.41	1.181
502.75	1.181
503.09	1.206
503.44	1.186
503.78	1.192
504.12	1.193
504.46	1.193
504.80	1.196
505.14	1.182
505.49	1.167
505.83	1.175
506.17	1.162
506.51	1.163
506.85	1.144
507.19	1.148
507.53	1.162
507.87	1.168
508.22	1.174
508.56	1.179
508.90	1.178
509.24	1.171
509.58	1.174
509.92	1.159
510.26	1.164
510.60	1.186
510.94	1.187
511.28	1.175
511.63	1.168
511.97	1.156
512.31	1.160
512.65	1.172
512.99	1.200
513.33	1.189
513.67	1.195
514.01	1.195
514.35	1.174
514.69	1.188
515.03	1.189
515.37	1.202
515.71	1.233
516.05	1.234
516.39	1.238
516.73	1.235
517.07	1.225
517.41	1.242
517.75	1.243
518.09	1.232
518.43	1.223
518.77	1.223
519.11	1.210
519.45	1.183
519.79	1.154
520.13	1.149
520.47	1.147
520.81	1.155
521.15	1.148
521.49	1.151
521.83	1.173
522.17	1.179
522.51	1.207
522.85	1.215
523.19	1.249
523.53	1.278
523.87	1.296
524.21	1.303
524.55	1.319
524.89	1.328
525.23	1.340
525.57	1.350
525.91	1.373
526.25	1.370
526.58	1.376
526.92	1.378
527.26	1.382
527.60	1.382
527.94	1.384
528.28	1.380
528.62	1.383
528.96	1.373
529.30	1.373
529.64	1.358
529.97	1.357
530.31	1.352
530.65	1.341
530.99	1.327
531.33	1.317
531.67	1.311
532.01	1.316
532.35	1.312
532.68	1.310
533.02	1.299
533.36	1.274
533.70	1.260
534.04	1.260
534.38	1.234
534.71	1.224
535.05	1.217
535.39	1.222
535.73	1.209
536.07	1.209
536.41	1.214
536.74	1.205
537.08	1.244
537.42	1.247
537.76	1.247
538.10	1.263
538.43	1.276
538.77	1.300
539.11	1.289
539.45	1.284
539.79	1.284
540.12	1.299
540.46	1.309
540.80	1.293
541.14	1.290
541.47	1.276
541.81	1.280
542.15	1.272
542.49	1.243
542.82	1.248
543.16	1.235
543.50	1.209
543.84	1.180
544.17	1.163
544.51	1.169
544.85	1.154
545.18	1.157
545.52	1.157
545.86	1.159
546.20	1.136
546.53	1.115
546.87	1.126
547.21	1.139
547.54	1.130
547.88	1.123
548.22	1.109
548.55	1.118
548.89	1.117
549.23	1.089
549.56	1.089
549.90	1.093
550.24	1.094
550.57	1.101
550.91	1.104
551.25	1.100
551.58	1.104
551.92	1.086
552.26	1.101
552.59	1.106
552.93	1.109
553.27	1.103
553.60	1.116
553.94	1.140
554.27	1.137
554.61	1.137
554.95	1.147
555.28	1.156
555.62	1.164
555.95	1.141
556.29	1.154
556.63	1.172
556.96	1.192
557.30	1.189
557.63	1.160
557.97	1.141
558.31	1.159
558.64	1.145
558.98	1.148
559.31	1.172
559.65	1.178
559.98	1.176
560.32	1.172
560.65	1.152
560.99	1.165
561.33	1.187
561.66	1.199
562.00	1.193
562.33	1.208
562.67	1.225
563.00	1.242
563.34	1.257
563.67	1.256
564.01	1.255
564.34	1.280
564.68	1.273
565.01	1.257
565.35	1.254
565.68	1.246
566.02	1.256
566.35	1.246
566.69	1.198
567.02	1.203
567.36	1.223
567.69	1.247
568.03	1.240
568.36	1.242
568.69	1.261
569.03	1.285
569.36	1.265
569.70	1.252
570.03	1.241
570.37	1.275
570.70	1.282
571.04	1.271
571.37	1.266
571.70	1.275
572.04	1.303
572.37	1.310
572.71	1.288
573.04	1.310
573.37	1.326
573.71	1.313
574.04	1.331
574.38	1.327
574.71	1.318
575.04	1.293
575.38	1.271
575.71	1.248
576.05	1.236
576.38	1.258
576.71	1.244
577.05	1.246
577.38	1.272
577.71	1.245
578.05	1.247
578.38	1.238
578.71	1.271
579.05	1.257
579.38	1.274
579.71	1.266
580.05	1.211
580.38	1.238
580.71	1.215
581.05	1.174
581.38	1.162
581.71	1.150
582.05	1.160
582.38	1.110
582.71	1.139
583.04	1.130
583.38	1.135
583.71	1.217
584.04	1.194
584.38	1.213
584.71	1.265
585.04	1.286
585.37	1.283
585.71	1.278
586.04	1.351
586.37	1.376
586.70	1.396
587.04	1.413
587.37	1.401
587.70	1.416
588.03	1.393
588.37	1.354
588.70	1.348
589.03	1.383
589.36	1.409
589.69	1.365
590.03	1.358
590.36	1.363
590.69	1.354
591.02	1.342
591.35	1.304
591.69	1.327
592.02	1.372
592.35	1.367
592.68	1.353
593.01	1.321
593.35	1.312
593.68	1.294
594.01	1.288
594.34	1.302
594.67	1.303
595.00	1.323
595.34	1.324
595.67	1.313
596.00	1.324
596.33	1.318
596.66	1.349
596.99	1.389
597.32	1.392
597.65	1.366
597.99	1.375
598.32	1.388
598.65	1.364
598.98	1.377
599.31	1.392
599.64	1.361
599.97	1.353
600.30	1.342
600.63	1.319
600.96	1.329
601.30	1.350
601.63	1.344
601.96	1.351
602.29	1.403
602.62	1.389
602.95	1.378
603.28	1.414
603.61	1.431
603.94	1.431
604.27	1.449
604.60	1.472
604.93	1.497
605.26	1.527
605.59	1.540
605.92	1.525
606.25	1.535
606.58	1.536
606.91	1.488
607.24	1.478
607.57	1.526
607.90	1.533
608.23	1.500
608.56	1.495
608.89	1.475
609.22	1.447
609.55	1.466
609.88	1.475
610.21	1.454
610.54	1.492
610.87	1.499
611.20	1.449
611.53	1.406
611.86	1.401
612.19	1.381
612.52	1.337
612.85	1.335
613.18	1.335
613.51	1.334
613.84	1.367
614.17	1.376
614.49	1.388
614.82	1.375
615.15	1.384
615.48	1.412
615.81	1.400
616.14	1.433
616.47	1.455
616.80	1.423
617.13	1.419
617.46	1.411
617.78	1.406
618.11	1.360
618.44	1.376
618.77	1.371
619.10	1.328
619.43	1.333
619.76	1.338
620.09	1.326
620.41	1.326
620.74	1.289
621.07	1.319
621.40	1.317
621.73	1.345
622.06	1.365
622.38	1.366
622.71	1.377
623.04	1.371
623.37	1.380
623.70	1.385
624.02	1.399
624.35	1.465
624.68	1.450
625.01	1.440
625.34	1.441
625.66	1.417
625.99	1.446
626.32	1.464
626.65	1.495
626.98	1.474
627.30	1.469
627.63	1.497
627.96	1.434
628.29	1.431
628.61	1.435
628.94	1.423
629.27	1.446
629.60	1.425
629.92	1.424
630.25	1.398
630.58	1.410
630.91	1.407
631.23	1.352
631.56	1.344
631.89	1.350
632.21	1.399
632.54	1.381
632.87	1.341
633.19	1.342
633.52	1.331
633.85	1.322
634.18	1.329
634.50	1.332
634.83	1.340
635.16	1.357
635.48	1.354
635.81	1.303
636.14	1.369
636.46	1.428
636.79	1.446
637.11	1.459
637.44	1.496
637.77	1.508
638.09	1.514
638.42	1.530
638.75	1.486
639.07	1.463
639.40	1.471
639.73	1.421
640.05	1.420
640.38	1.434
640.70	1.397
641.03	1.363
641.36	1.367
641.68	1.352
642.01	1.367
642.33	1.432
642.66	1.444
642.98	1.481
643.31	1.485
643.64	1.504
643.96	1.463
644.29	1.488
644.61	1.490
644.94	1.467
645.26	1.461
645.59	1.448
645.91	1.470
646.24	1.451
646.56	1.462
646.89	1.498
647.22	1.446
647.54	1.511
647.87	1.546
648.19	1.567
648.52	1.558
648.84	1.561
649.17	1.570
649.49	1.544
649.82	1.547
650.14	1.473
650.47	1.428
650.79	1.437
651.11	1.334
651.44	1.292
651.76	1.240
652.09	1.233
652.41	1.276
652.74	1.239
653.06	1.203
653.39	1.241
653.71	1.301
654.04	1.365
654.36	1.353
654.68	1.434
655.01	1.470
655.33	1.522
655.66	1.552
655.98	1.515
656.30	1.533
656.63	1.612
656.95	1.633
657.28	1.549
657.60	1.503
657.92	1.516
658.25	1.495
658.57	1.482
658.90	1.471
659.22	1.444
659.54	1.433
659.87	1.450
660.19	1.403
660.51	1.387
660.84	1.479
661.16	1.477
661.48	1.431
661.81	1.403
662.13	1.392
662.45	1.337
662.78	1.347
663.10	1.345
663.42	1.357
663.75	1.347
664.07	1.335
664.39	1.306
664.72	1.318
665.04	1.374
665.36	1.417
665.69	1.376
666.01	1.456
666.33	1.425
666.65	1.456
666.98	1.401
667.30	1.431
667.62	1.457
667.94	1.420
668.27	1.406
668.59	1.391
668.91	1.325
669.23	1.377
669.56	1.352
669.88	1.358
670.20	1.337
670.52	1.297
670.85	1.276
671.17	1.241
671.49	1.263
671.81	1.247
672.13	1.260
672.46	1.308
672.78	1.269
673.10	1.283
673.42	1.317
673.74	1.326
674.07	1.375
674.39	1.356
674.71	1.285
675.03	1.284
675.35	1.275
675.67	1.241
676.00	1.244
676.32	1.227
676.64	1.230
676.96	1.246
677.28	1.238
677.60	1.215
677.92	1.214
678.25	1.272
678.57	1.290
678.89	1.288
679.21	1.287
679.53	1.259
679.85	1.305
680.17	1.250
680.49	1.226
680.81	1.226
681.13	1.304
681.46	1.357
681.78	1.410
682.10	1.408
682.42	1.394
682.74	1.396
683.06	1.506
683.38	1.558
683.70	1.667
684.02	1.613
684.34	1.593
684.66	1.599
684.98	1.635
685.30	1.655
685.62	1.659
685.94	1.703
686.26	1.804
686.58	1.754
686.90	1.812
687.22	1.794
687.54	1.796
687.86	1.737
688.18	1.674
688.50	1.652
688.82	1.550
689.14	1.620
689.46	1.628
689.78	1.590
690.10	1.582
690.42	1.517
690.74	1.470
691.06	1.540
691.38	1.637
691.70	1.619
692.02	1.565
692.34	1.558
692.66	1.493
692.98	1.513
693.30	1.503
693.62	1.451
693.94	1.477
694.26	1.511
694.57	1.531
694.89	1.548
695.21	1.579
695.53	1.594
695.85	1.648
696.17	1.687
696.49	1.694
696.81	1.687
697.13	1.729
697.44	1.668
697.76	1.634
698.08	1.616
698.40	1.640
698.72	1.676
699.04	1.658
699.36	1.581
699.67	1.448
699.99	1.443
700.31	1.369
700.63	1.306
700.95	1.304
701.27	1.367
701.58	1.329
701.90	1.325
702.22	1.381
702.54	1.402
702.86	1.463
703.17	1.457
703.49	1.484
703.81	1.516
704.13	1.514
704.45	1.501
704.76	1.529
705.08	1.628
705.40	1.645
705.72	1.615
706.03	1.658
706.35	1.789
706.67	1.827
706.99	1.746
707.30	1.756
707.62	1.770
707.94	1.781
708.26	1.646
708.57	1.653
708.89	1.569
709.21	1.552
709.53	1.532
709.84	1.433
710.16	1.404
710.48	1.435
710.79	1.350
711.11	1.401
711.43	1.453
711.74	1.536
712.06	1.452
712.38	1.529
712.69	1.462
713.01	1.411
713.33	1.416
713.64	1.512
713.96	1.486
714.28	1.589
714.59	1.631
714.91	1.571
715.23	1.529
715.54	1.610
715.86	1.589
716.17	1.745
716.49	1.855
716.81	1.824
717.12	1.832
717.44	1.975
717.76	1.977
718.07	1.901
718.39	1.945
718.70	1.913
719.02	1.844
719.33	1.818
719.65	1.689
719.97	1.556
720.28	1.647
720.60	1.700
720.91	1.612
721.23	1.650
721.54	1.772
721.86	1.771
722.17	1.763
722.49	1.789
722.81	1.894
723.12	1.992
723.44	1.995
723.75	1.982
724.07	1.878
724.38	1.865
724.70	1.829
725.01	1.745
725.33	1.828
725.64	1.943
725.96	2.122
726.27	2.183
726.59	2.202
726.90	2.279
727.22	2.165
727.53	2.247
727.84	2.212
728.16	2.225
728.47	2.121
728.79	2.137
729.10	2.123
729.42	2.007
729.73	1.801
730.05	1.640
730.36	1.574
730.67	1.591
730.99	1.559
731.30	1.646
731.62	1.678
731.93	1.723
732.24	1.620
732.56	1.537
732.87	1.523
733.19	1.544
733.50	1.437
733.81	1.506
734.13	1.473
734.44	1.463
734.76	1.462
735.07	1.328
735.38	1.202
735.70	1.174
736.01	1.241
736.32	1.242
736.64	1.327
736.95	1.502
737.26	1.544
737.58	1.656
737.89	1.615
738.20	1.602
738.52	1.624
738.83	1.699
739.14	1.751
739.45	1.719
739.77	1.596
740.08	1.580
740.39	1.432
740.71	1.191
741.02	1.072
741.33	1.100
741.64	0.888
741.96	0.913
742.27	1.189
742.58	1.190
742.90	1.188
743.21	1.141
743.52	0.908
743.83	1.024
744.14	1.250
744.46	1.425
744.77	1.480
745.08	1.913
745.39	2.041
745.71	1.804
746.02	1.891
746.33	1.952
746.64	2.008
746.95	2.174
747.27	2.319
747.58	2.249
747.89	2.040
748.20	1.828
748.51	1.504
748.82	1.168
749.14	1.182
749.45	0.999
749.76	1.113
750.07	1.184
750.38	0.941
750.69	0.815
751.01	0.965
751.32	0.934
751.63	1.103
751.94	1.122
752.25	1.078
752.56	0.947
752.87	0.792
753.18	0.592
753.49	0.577
753.81	0.660
754.12	0.606
754.43	0.253
754.74	0.179
755.05	0.034
755.36	0.027
755.67	0.100
755.98	0.177
756.29	0.367
756.60	0.229
756.91	0.224
757.22	0.326
757.53	0.258
757.84	0.338
758.15	0.693
758.46	0.848
758.77	0.882
759.09	1.230
759.40	1.278
759.71	1.313
760.02	1.451
760.33	1.482
760.64	1.514
760.95	1.648
761.26	1.726
761.57	1.633
761.88	1.536
762.18	1.542
762.49	1.565
762.80	1.559
763.11	1.529
763.42	1.438
763.73	1.301
764.04	1.377
764.35	1.287
764.66	1.213
764.97	1.169
765.28	1.217
765.59	1.207
765.90	0.977
766.21	0.997
766.52	0.852
766.83	0.768
767.14	0.866
767.44	0.860
767.75	0.802
768.06	0.679
768.37	0.566
768.68	0.530
768.99	0.544
769.30	0.572
769.61	0.202
769.91	0.372
770.22	0.468
770.53	0.445
770.84	0.491
771.15	0.607
771.46	0.989
771.77	1.121
772.07	1.145
772.38	0.813
772.69	0.439
773.00	0.665
773.31	0.472
773.61	0.486
773.92	0.481
774.23	0.050
774.54	0.110
774.85	-0.274
775.15	-0.186
775.46	-0.034
775.77	0.155
776.08	0.323
776.39	0.486
776.69	0.655
777.00	0.559
777.31	0.397
777.62	0.704
777.92	0.588
778.23	0.596
778.54	0.273
778.85	0.086
779.15	0.112
779.46	0.355
779.77	0.039
780.07	-0.199
780.38	-0.128
780.69	0.059
781.00	-0.224
781.30	-0.127
781.61	-0.070
781.92	0.014
782.22	0.090
782.53	0.288
782.84	0.058
783.14	0.404
783.45	0.901
783.76	1.199
784.06	0.933
784.37	1.124
784.68	1.093
784.98	1.427
785.29	1.455
785.60	1.505
785.90	1.225
786.21	1.286
786.51	1.197
786.82	0.824
787.13	0.609
787.43	0.859
787.74	0.797
788.04	0.802
788.35	0.465
788.66	0.087
788.96	-0.066
789.27	-0.155
789.57	0.056
789.88	0.171
790.19	0.426
790.49	0.373
790.80	0.308
791.10	0.199
791.41	-0.058
791.71	0.170
792.02	0.701
792.32	0.911
792.63	0.974
792.93	0.856
793.24	0.970
793.54	0.731
793.85	0.875
794.15	0.925
794.46	1.284
794.76	1.876
795.07	1.921
795.37	1.962
795.68	1.684
795.98	1.692
796.29	1.608
796.59	1.234
796.90	1.325
797.20	1.457
797.51	1.239
797.81	1.034
798.12	0.777
798.42	0.896
798.72	0.705
799.03	1.092
799.33	1.400
799.64	1.406
799.94	1.673
800.25	1.650
800.55	1.717
800.85	1.888
801.16	1.572
801.46	1.552
801.77	1.245
802.07	1.282
802.37	0.894
802.68	0.943
802.98	0.724
803.28	0.158
803.59	0.194
803.89	-0.186
804.20	0.176
804.50	0.449
804.80	0.486
805.11	0.743
805.41	1.131
805.71	0.935
806.02	0.622
806.32	0.863
806.62	1.960
806.93	1.947
807.23	2.255
807.53	1.868
807.83	2.383
808.14	1.895
808.44	1.753
808.74	1.174
809.05	1.844
809.35	2.039
809.65	1.676
809.95	1.435
810.26	1.258
810.56	0.912
810.86	1.013
811.16	1.072
811.47	1.634
811.77	1.314
812.07	1.188
812.37	0.798
812.68	1.286
812.98	1.822
813.28	1.296
813.58	1.631
813.88	1.723
814.19	2.141
814.49	1.919
814.79	1.663
815.09	2.267
815.39	3.073
815.70	2.903
816.00	2.237
816.30	2.049
816.60	2.279
816.90	2.197
817.20	2.301
817.50	2.212
817.81	2.058
818.11	2.379
818.41	2.292
818.71	2.266
819.01	2.474
819.31	2.544
819.61	2.590
819.92	2.589
820.22	2.603
820.52	2.548
820.82	2.559
821.12	2.506
821.42	2.475
821.72	2.519
822.02	2.466
822.32	2.403
822.62	2.430
822.92	2.458
823.22	2.433
823.52	2.371
823.83	2.429
824.13	2.397
824.43	2.445
824.73	2.446
825.03	2.401
825.33	2.472
825.63	2.453
825.93	2.398
826.23	2.246
826.53	2.196
826.83	2.331
827.13	2.325
827.43	2.151
827.73	2.015
828.03	2.091
828.33	2.079
828.63	1.990
828.93	1.875
829.23	1.860
829.53	1.969
829.83	2.058
830.13	1.889
830.42	1.688
830.72	1.765
831.02	2.194
831.32	2.238
831.62	2.294
831.92	2.413
832.22	2.590
832.52	2.579
832.82	2.245
833.12	2.210
833.42	1.897
833.72	1.951
834.01	2.206
834.31	1.842
834.61	1.307
834.91	1.295
835.21	0.945
835.51	1.165
835.81	0.763
836.11	1.523
836.40	1.591
836.70	2.427
837.00	2.275
837.30	1.961
837.60	2.701
837.90	3.033
838.19	2.563
838.49	2.986
838.79	2.000
839.09	3.335
839.39	2.874
839.68	2.424
839.98	1.658
840.28	1.871
840.58	1.804
840.88	1.081
841.17	1.391
841.47	1.512
841.77	1.108
842.07	2.544
842.36	0.896
842.66	0.742
842.96	1.633
843.26	1.354
843.55	1.974
843.85	2.375
844.15	2.898
844.45	1.823
844.74	1.649
845.04	1.958
845.34	-0.009
845.63	0.380
845.93	-0.079
846.23	-1.780
846.53	-1.213
846.82	-2.103
847.12	-2.911
847.42	-3.298
847.71	-2.029
848.01	-1.828
848.31	-0.847
848.60	0.728
848.90	0.756
849.19	0.276
849.49	2.400
849.79	3.438
850.08	4.105
850.38	4.652
850.68	4.150
850.97	3.968
851.27	3.422
851.56	-0.033
851.86	0.462
852.16	0.852
852.45	1.710
852.75	3.602
853.04	2.776
853.34	2.353
853.64	0.983
853.93	2.624
854.23	0.747
854.52	2.199
854.82	4.631
855.11	2.445
855.41	2.138
855.70	1.913
856.00	-1.106
856.30	-0.703
856.59	0.819
856.89	2.624
857.18	1.229
857.48	2.751
857.77	1.487
858.07	0.222
858.36	-0.357
858.66	-1.124
858.95	0.160
859.25	-1.231
859.54	-2.169
859.84	-4.715
860.13	-7.163
860.42	-7.579
860.72	-7.014
861.01	-6.688
861.31	-7.307
861.60	-5.043
861.90	-4.288
862.19	-5.337
862.49	-4.169
862.78	-3.843
863.07	-3.192
863.37	-0.696
863.66	-0.757
863.96	-2.595
864.25	-2.559
864.54	-0.839
864.84	-2.056
865.13	-1.442
865.43	-1.687
865.72	2.002
866.01	-0.152
866.31	-5.372
866.60	7.146
866.89	-2.658
>>>>>End Spectral Data<<<<<
