OOIBase32 Version 2.0.0.6 Data File
++++++++++++++++++++++++++++++++++++
Date: 01-20-2012, 23:11:46
User: Valued Ocean Optics Customer
Spectrometer Serial Number: USB2E2917
Spectrometer Channel: Master
Integration Time (msec): 3
Spectra Averaged: 10
Boxcar Smoothing: 5
Correct for Electrical Dark: Enabled
Time Normalized: Disabled
Dual-beam Reference: Disabled
Reference Channel: Master
Temperature: Not acquired
Spectrometer Type: S2000
ADC Type: USB2000
Number of Pixels in File: 2048
Graph Title: 
>>>>>Begin Spectral Data<<<<<
180.30	0.000
180.67	0.000
181.03	55.558
181.40	-302.527
181.77	9.982
182.14	-328.627
182.51	140.933
182.88	57.059
183.25	2.597
183.62	-149.749
183.99	2169.626
184.36	265.738
184.73	25.406
185.10	26.952
185.46	-53.818
185.83	-261.929
186.20	54.870
186.57	53.722
186.94	301.060
187.31	69.067
187.68	-547.546
188.05	-6.904
188.42	7.503
188.78	-74.260
189.15	46.033
189.52	55.581
189.89	105.888
190.26	74.675
190.63	64.758
191.00	56.977
191.37	36.288
191.73	48.872
192.10	55.226
192.47	30.219
192.84	34.353
193.21	35.526
193.58	29.541
193.94	32.217
194.31	28.274
194.68	12.941
195.05	-11.225
195.42	-50.300
195.79	-255.142
196.15	-274.415
196.52	-85.873
196.89	2118204.688
197.26	725.142
197.63	-3110.596
198.00	-1955.586
198.36	980.737
198.73	-1062.361
199.10	-3711.612
199.47	-349.382
199.84	-744.748
200.20	-388.776
200.57	-291.436
200.94	-29.449
201.31	-45.353
201.68	-44.608
202.04	-6.632
202.41	22.549
202.78	26.455
203.15	17.483
203.51	-8.717
203.88	4.719
204.25	0.993
204.62	7.112
204.98	-7.101
205.35	3.096
205.72	-4.328
206.09	-4.060
206.46	-3.840
206.82	-12.546
207.19	-6.989
207.56	16.299
207.92	2.809
208.29	8.461
208.66	-5.761
209.03	-3.418
209.39	22.668
209.76	54.645
210.13	67.600
210.50	73.186
210.86	74.014
211.23	66.239
211.60	47.916
211.96	31.980
212.33	31.083
212.70	31.009
213.07	24.137
213.43	5.989
213.80	-10.791
214.17	-42.477
214.53	-117.093
214.90	-102.613
215.27	-104.261
215.63	-90.785
216.00	-45.254
216.37	-52.029
216.74	-80.182
217.10	-42.856
217.47	-23.687
217.84	-10.609
218.20	-5.008
218.57	6.813
218.94	19.402
219.30	26.292
219.67	24.519
220.04	30.042
220.40	31.380
220.77	35.583
221.13	25.227
221.50	23.351
221.87	26.162
222.23	33.136
222.60	28.358
222.97	19.584
223.33	12.422
223.70	9.940
224.07	1.993
224.43	5.288
224.80	10.314
225.16	12.008
225.53	10.438
225.90	9.730
226.26	10.010
226.63	12.732
226.99	12.153
227.36	13.351
227.73	15.211
228.09	15.189
228.46	13.981
228.82	12.853
229.19	12.547
229.56	14.351
229.92	12.454
230.29	10.016
230.65	8.352
231.02	11.429
231.38	11.429
231.75	11.221
232.12	12.217
232.48	12.914
232.85	12.467
233.21	12.696
233.58	11.646
233.94	12.647
234.31	12.999
234.68	12.820
235.04	10.335
235.41	7.704
235.77	8.219
236.14	8.980
236.50	8.676
236.87	10.234
237.23	10.694
237.60	10.802
237.96	11.044
238.33	11.068
238.69	11.151
239.06	11.352
239.42	12.553
239.79	11.767
240.15	11.825
240.52	12.303
240.88	11.496
241.25	11.274
241.61	10.788
241.98	11.259
242.34	11.446
242.71	11.796
243.07	11.106
243.44	10.605
243.80	10.716
244.17	10.635
244.53	10.644
244.90	10.943
245.26	11.086
245.63	11.571
245.99	11.938
246.36	11.905
246.72	11.792
247.09	12.011
247.45	12.020
247.81	12.327
248.18	12.130
248.54	12.298
248.91	12.259
249.27	12.421
249.64	12.227
250.00	11.210
250.36	11.330
250.73	11.133
251.09	11.435
251.46	11.630
251.82	11.170
252.19	11.584
252.55	10.846
252.91	10.782
253.28	10.288
253.64	10.102
254.01	10.284
254.37	9.927
254.73	9.514
255.10	9.253
255.46	8.898
255.83	9.085
256.19	8.697
256.55	8.944
256.92	8.986
257.28	9.305
257.65	9.686
258.01	10.189
258.37	10.441
258.74	10.706
259.10	10.787
259.46	11.044
259.83	11.149
260.19	11.574
260.55	11.858
260.92	12.126
261.28	12.098
261.64	11.929
262.01	11.389
262.37	11.102
262.73	11.030
263.10	11.408
263.46	11.339
263.82	11.281
264.19	10.963
264.55	10.714
264.91	10.560
265.28	10.592
265.64	10.590
266.00	10.348
266.37	10.399
266.73	10.605
267.09	10.319
267.46	10.490
267.82	10.572
268.18	10.524
268.54	10.408
268.91	10.339
269.27	10.378
269.63	10.385
270.00	10.674
270.36	11.022
270.72	10.879
271.08	11.009
271.45	10.884
271.81	10.730
272.17	10.892
272.53	10.995
272.90	11.078
273.26	10.864
273.62	10.909
273.98	10.849
274.35	10.478
274.71	10.478
275.07	10.250
275.43	10.309
275.80	10.201
276.16	9.997
276.52	10.122
276.88	9.955
277.25	10.049
277.61	9.966
277.97	10.197
278.33	10.148
278.69	9.924
279.06	9.897
279.42	10.197
279.78	10.212
280.14	10.301
280.50	10.255
280.87	10.235
281.23	10.035
281.59	9.888
281.95	9.649
282.31	9.847
282.68	10.029
283.04	10.170
283.40	10.036
283.76	9.993
284.12	9.856
284.48	9.826
284.85	9.900
285.21	10.244
285.57	10.409
285.93	10.552
286.29	10.296
286.65	10.462
287.02	10.591
287.38	10.537
287.74	10.674
288.10	10.750
288.46	10.792
288.82	10.896
289.18	10.958
289.54	10.864
289.91	10.804
290.27	10.971
290.63	10.512
290.99	10.411
291.35	10.351
291.71	10.331
292.07	10.407
292.43	10.397
292.79	10.354
293.16	9.990
293.52	10.053
293.88	10.110
294.24	10.134
294.60	10.528
294.96	10.468
295.32	10.501
295.68	10.572
296.04	10.574
296.40	10.537
296.76	10.654
297.12	10.799
297.49	10.906
297.85	11.162
298.21	11.450
298.57	11.608
298.93	11.767
299.29	11.960
299.65	12.006
300.01	12.255
300.37	12.604
300.73	12.708
301.09	12.844
301.45	13.091
301.81	13.073
302.17	13.230
302.53	13.271
302.89	13.394
303.25	13.543
303.61	13.829
303.97	14.161
304.33	14.299
304.69	14.693
305.05	15.183
305.41	15.430
305.77	15.635
306.13	15.690
306.49	16.033
306.85	16.318
307.21	16.553
307.57	16.807
307.93	16.882
308.29	17.088
308.65	17.092
309.01	17.155
309.37	17.360
309.73	17.490
310.09	17.556
310.45	17.683
310.81	17.799
311.17	17.991
311.53	18.169
311.89	18.196
312.25	18.310
312.61	18.485
312.96	18.666
313.32	18.554
313.68	18.696
314.04	18.877
314.40	18.879
314.76	18.858
315.12	18.807
315.48	18.783
315.84	18.845
316.20	18.810
316.56	18.863
316.92	18.702
317.27	18.791
317.63	18.876
317.99	19.082
318.35	18.949
318.71	19.033
319.07	19.082
319.43	19.114
319.79	19.073
320.15	19.171
320.50	19.103
320.86	19.103
321.22	19.021
321.58	18.998
321.94	18.867
322.30	18.998
322.66	18.922
323.01	18.792
323.37	18.697
323.73	18.660
324.09	18.651
324.45	18.561
324.81	18.654
325.17	18.616
325.52	18.470
325.88	18.352
326.24	18.232
326.60	18.338
326.96	18.369
327.31	18.284
327.67	18.289
328.03	18.128
328.39	18.189
328.75	17.988
329.11	17.994
329.46	17.880
329.82	17.757
330.18	17.633
330.54	17.468
330.90	17.466
331.25	17.393
331.61	17.384
331.97	17.287
332.33	17.192
332.68	17.271
333.04	17.242
333.40	17.218
333.76	17.324
334.11	17.298
334.47	17.292
334.83	17.233
335.19	17.214
335.54	17.140
335.90	17.240
336.26	17.167
336.62	17.011
336.97	16.828
337.33	16.935
337.69	16.925
338.05	16.924
338.40	16.838
338.76	16.837
339.12	16.848
339.48	16.711
339.83	16.522
340.19	16.604
340.55	16.571
340.90	16.615
341.26	16.565
341.62	16.443
341.97	16.361
342.33	16.341
342.69	16.172
343.04	16.077
343.40	16.041
343.76	16.034
344.12	15.975
344.47	15.965
344.83	15.941
345.19	15.949
345.54	15.882
345.90	15.858
346.26	15.835
346.61	15.835
346.97	15.809
347.32	15.750
347.68	15.645
348.04	15.564
348.39	15.555
348.75	15.555
349.11	15.371
349.46	15.385
349.82	15.377
350.18	15.337
350.53	15.431
350.89	15.417
351.24	15.463
351.60	15.479
351.96	15.448
352.31	15.391
352.67	15.260
353.02	15.273
353.38	15.267
353.74	15.275
354.09	15.307
354.45	15.208
354.80	15.127
355.16	15.025
355.52	14.943
355.87	14.836
356.23	14.801
356.58	14.896
356.94	14.830
357.29	14.740
357.65	14.628
358.00	14.540
358.36	14.491
358.72	14.418
359.07	14.341
359.43	14.403
359.78	14.454
360.14	14.404
360.49	14.289
360.85	14.271
361.20	14.315
361.56	14.241
361.91	14.220
362.27	14.171
362.62	14.174
362.98	14.185
363.33	14.119
363.69	14.022
364.04	14.005
364.40	13.963
364.75	13.912
365.11	13.750
365.46	13.728
365.82	13.727
366.17	13.741
366.53	13.790
366.88	13.787
367.24	13.740
367.59	13.685
367.95	13.669
368.30	13.650
368.66	13.586
369.01	13.570
369.37	13.564
369.72	13.517
370.08	13.435
370.43	13.325
370.78	13.251
371.14	13.160
371.49	13.184
371.85	13.088
372.20	13.027
372.56	12.991
372.91	13.002
373.26	12.974
373.62	12.890
373.97	12.895
374.33	12.883
374.68	12.912
375.03	12.954
375.39	12.892
375.74	12.918
376.10	12.923
376.45	12.896
376.80	12.883
377.16	12.911
377.51	12.895
377.87	12.817
378.22	12.741
378.57	12.686
378.93	12.653
379.28	12.620
379.63	12.594
379.99	12.553
380.34	12.555
380.70	12.519
381.05	12.469
381.40	12.510
381.76	12.499
382.11	12.501
382.46	12.448
382.82	12.432
383.17	12.376
383.52	12.349
383.88	12.288
384.23	12.236
384.58	12.192
384.94	12.136
385.29	12.034
385.64	11.964
385.99	11.957
386.35	11.951
386.70	11.857
387.05	11.807
387.41	11.706
387.76	11.698
388.11	11.685
388.47	11.664
388.82	11.676
389.17	11.640
389.52	11.634
389.88	11.612
390.23	11.610
390.58	11.590
390.93	11.581
391.29	11.616
391.64	11.577
391.99	11.521
392.34	11.495
392.70	11.434
393.05	11.394
393.40	11.337
393.75	11.251
394.11	11.180
394.46	11.148
394.81	11.131
395.16	11.052
395.52	11.091
395.87	11.020
396.22	10.946
396.57	10.900
396.92	10.884
397.28	10.850
397.63	10.815
397.98	10.802
398.33	10.796
398.68	10.734
399.04	10.728
399.39	10.655
399.74	10.730
400.09	10.697
400.44	10.684
400.80	10.627
401.15	10.635
401.50	10.637
401.85	10.610
402.20	10.568
402.55	10.552
402.90	10.465
403.26	10.409
403.61	10.352
403.96	10.360
404.31	10.328
404.66	10.310
405.01	10.261
405.36	10.201
405.72	10.182
406.07	10.185
406.42	10.187
406.77	10.219
407.12	10.206
407.47	10.156
407.82	10.110
408.17	10.091
408.53	10.066
408.88	10.038
409.23	10.031
409.58	10.005
409.93	9.958
410.28	9.944
410.63	9.948
410.98	9.909
411.33	9.906
411.68	9.893
412.03	9.847
412.38	9.837
412.73	9.796
413.09	9.765
413.44	9.733
413.79	9.720
414.14	9.693
414.49	9.624
414.84	9.619
415.19	9.594
415.54	9.571
415.89	9.590
416.24	9.579
416.59	9.580
416.94	9.573
417.29	9.564
417.64	9.549
417.99	9.542
418.34	9.539
418.69	9.526
419.04	9.510
419.39	9.509
419.74	9.488
420.09	9.497
420.44	9.478
420.79	9.464
421.14	9.436
421.49	9.425
421.84	9.404
422.19	9.400
422.54	9.391
422.89	9.401
423.24	9.390
423.59	9.391
423.94	9.367
424.29	9.367
424.64	9.371
424.99	9.401
425.34	9.396
425.68	9.372
426.03	9.404
426.38	9.395
426.73	9.371
427.08	9.373
427.43	9.369
427.78	9.375
428.13	9.377
428.48	9.386
428.83	9.390
429.18	9.398
429.53	9.424
429.87	9.408
430.22	9.405
430.57	9.416
430.92	9.422
431.27	9.409
431.62	9.399
431.97	9.412
432.32	9.397
432.67	9.373
433.01	9.375
433.36	9.375
433.71	9.351
434.06	9.376
434.41	9.369
434.76	9.363
435.11	9.353
435.45	9.374
435.80	9.374
436.15	9.379
436.50	9.379
436.85	9.381
437.20	9.370
437.54	9.396
437.89	9.376
438.24	9.410
438.59	9.430
438.94	9.459
439.29	9.458
439.63	9.451
439.98	9.485
440.33	9.517
440.68	9.540
441.03	9.568
441.37	9.569
441.72	9.611
442.07	9.613
442.42	9.628
442.76	9.647
443.11	9.646
443.46	9.670
443.81	9.661
444.16	9.666
444.50	9.675
444.85	9.690
445.20	9.707
445.55	9.695
445.89	9.672
446.24	9.649
446.59	9.636
446.94	9.643
447.28	9.632
447.63	9.621
447.98	9.619
448.32	9.610
448.67	9.598
449.02	9.601
449.37	9.617
449.71	9.633
450.06	9.661
450.41	9.655
450.75	9.660
451.10	9.685
451.45	9.703
451.79	9.708
452.14	9.719
452.49	9.704
452.84	9.701
453.18	9.698
453.53	9.728
453.88	9.711
454.22	9.695
454.57	9.695
454.92	9.707
455.26	9.702
455.61	9.699
455.95	9.706
456.30	9.731
456.65	9.731
456.99	9.726
457.34	9.710
457.69	9.712
458.03	9.741
458.38	9.764
458.73	9.744
459.07	9.746
459.42	9.724
459.76	9.718
460.11	9.722
460.46	9.714
460.80	9.719
461.15	9.714
461.49	9.717
461.84	9.721
462.19	9.699
462.53	9.731
462.88	9.733
463.22	9.765
463.57	9.762
463.91	9.779
464.26	9.772
464.61	9.772
464.95	9.783
465.30	9.804
465.64	9.774
465.99	9.793
466.33	9.799
466.68	9.794
467.02	9.797
467.37	9.807
467.71	9.786
468.06	9.818
468.41	9.847
468.75	9.843
469.10	9.829
469.44	9.848
469.79	9.803
470.13	9.795
470.48	9.801
470.82	9.790
471.17	9.774
471.51	9.761
471.86	9.748
472.20	9.734
472.55	9.727
472.89	9.703
473.23	9.699
473.58	9.738
473.92	9.720
474.27	9.706
474.61	9.713
474.96	9.704
475.30	9.717
475.65	9.707
475.99	9.700
476.34	9.708
476.68	9.702
477.02	9.689
477.37	9.653
477.71	9.616
478.06	9.611
478.40	9.639
478.75	9.675
479.09	9.712
479.43	9.766
479.78	9.817
480.12	9.867
480.47	9.911
480.81	9.924
481.15	9.950
481.50	9.983
481.84	10.021
482.19	10.041
482.53	10.067
482.87	10.071
483.22	10.050
483.56	10.022
483.90	9.993
484.25	9.974
484.59	9.962
484.94	9.944
485.28	9.924
485.62	9.882
485.97	9.843
486.31	9.795
486.65	9.764
487.00	9.755
487.34	9.752
487.68	9.753
488.03	9.749
488.37	9.748
488.71	9.735
489.06	9.734
489.40	9.732
489.74	9.725
490.09	9.728
490.43	9.710
490.77	9.696
491.11	9.684
491.46	9.660
491.80	9.647
492.14	9.635
492.49	9.650
492.83	9.645
493.17	9.659
493.51	9.662
493.86	9.656
494.20	9.666
494.54	9.700
494.88	9.711
495.23	9.727
495.57	9.750
495.91	9.778
496.25	9.789
496.60	9.787
496.94	9.798
497.28	9.803
497.62	9.808
497.97	9.846
498.31	9.832
498.65	9.857
498.99	9.889
499.33	9.898
499.68	9.911
500.02	9.919
500.36	9.958
500.70	9.975
501.04	10.004
501.39	10.034
501.73	10.053
502.07	10.108
502.41	10.128
502.75	10.154
503.09	10.183
503.44	10.213
503.78	10.232
504.12	10.263
504.46	10.270
504.80	10.301
505.14	10.339
505.49	10.363
505.83	10.372
506.17	10.404
506.51	10.439
506.85	10.458
507.19	10.483
507.53	10.527
507.87	10.543
508.22	10.574
508.56	10.587
508.90	10.591
509.24	10.608
509.58	10.627
509.92	10.629
510.26	10.629
510.60	10.640
510.94	10.651
511.28	10.648
511.63	10.684
511.97	10.700
512.31	10.731
512.65	10.766
512.99	10.776
513.33	10.823
513.67	10.847
514.01	10.857
514.35	10.888
514.69	10.922
515.03	10.944
515.37	10.926
515.71	10.947
516.05	10.947
516.39	10.948
516.73	10.966
517.07	10.951
517.41	10.971
517.75	10.967
518.09	10.971
518.43	10.973
518.77	10.974
519.11	10.994
519.45	10.989
519.79	10.980
520.13	10.988
520.47	10.974
520.81	10.996
521.15	10.981
521.49	10.996
521.83	10.988
522.17	10.960
522.51	10.952
522.85	10.932
523.19	10.929
523.53	10.989
523.87	11.063
524.21	11.097
524.55	11.111
524.89	11.132
525.23	11.148
525.57	11.161
525.91	11.183
526.25	11.189
526.58	11.200
526.92	11.214
527.26	11.189
527.60	11.134
527.94	11.104
528.28	11.073
528.62	11.041
528.96	11.016
529.30	10.995
529.64	10.951
529.97	10.921
530.31	10.887
530.65	10.841
530.99	10.807
531.33	10.795
531.67	10.791
532.01	10.790
532.35	10.787
532.68	10.761
533.02	10.714
533.36	10.706
533.70	10.693
534.04	10.686
534.38	10.675
534.71	10.646
535.05	10.626
535.39	10.587
535.73	10.560
536.07	10.530
536.41	10.544
536.74	10.572
537.08	10.582
537.42	10.594
537.76	10.604
538.10	10.605
538.43	10.618
538.77	10.615
539.11	10.631
539.45	10.622
539.79	10.624
540.12	10.614
540.46	10.588
540.80	10.564
541.14	10.533
541.47	10.499
541.81	10.481
542.15	10.449
542.49	10.425
542.82	10.388
543.16	10.373
543.50	10.349
543.84	10.327
544.17	10.319
544.51	10.303
544.85	10.290
545.18	10.285
545.52	10.279
545.86	10.291
546.20	10.265
546.53	10.241
546.87	10.226
547.21	10.208
547.54	10.171
547.88	10.175
548.22	10.178
548.55	10.191
548.89	10.184
549.23	10.163
549.56	10.135
549.90	10.145
550.24	10.159
550.57	10.130
550.91	10.118
551.25	10.124
551.58	10.133
551.92	10.118
552.26	10.105
552.59	10.091
552.93	10.093
553.27	10.104
553.60	10.116
553.94	10.128
554.27	10.144
554.61	10.164
554.95	10.178
555.28	10.159
555.62	10.165
555.95	10.188
556.29	10.181
556.63	10.207
556.96	10.224
557.30	10.228
557.63	10.208
557.97	10.250
558.31	10.239
558.64	10.243
558.98	10.234
559.31	10.246
559.65	10.224
559.98	10.246
560.32	10.220
560.65	10.230
560.99	10.206
561.33	10.211
561.66	10.191
562.00	10.207
562.33	10.195
562.67	10.186
563.00	10.166
563.34	10.189
563.67	10.186
564.01	10.199
564.34	10.196
564.68	10.215
565.01	10.206
565.35	10.185
565.68	10.163
566.02	10.148
566.35	10.163
566.69	10.178
567.02	10.143
567.36	10.138
567.69	10.141
568.03	10.138
568.36	10.142
568.69	10.149
569.03	10.149
569.36	10.149
569.70	10.163
570.03	10.146
570.37	10.141
570.70	10.194
571.04	10.179
571.37	10.137
571.70	10.131
572.04	10.120
572.37	10.134
572.71	10.135
573.04	10.139
573.37	10.125
573.71	10.130
574.04	10.099
574.38	10.060
574.71	10.077
575.04	10.108
575.38	10.086
575.71	10.067
576.05	10.045
576.38	10.055
576.71	10.058
577.05	10.075
577.38	10.069
577.71	10.087
578.05	10.097
578.38	10.109
578.71	10.122
579.05	10.132
579.38	10.147
579.71	10.171
580.05	10.216
580.38	10.229
580.71	10.255
581.05	10.290
581.38	10.347
581.71	10.362
582.05	10.361
582.38	10.361
582.71	10.424
583.04	10.449
583.38	10.482
583.71	10.444
584.04	10.471
584.38	10.481
584.71	10.502
585.04	10.491
585.37	10.495
585.71	10.531
586.04	10.553
586.37	10.539
586.70	10.568
587.04	10.594
587.37	10.640
587.70	10.629
588.03	10.658
588.37	10.641
588.70	10.665
589.03	10.735
589.36	10.744
589.69	10.739
590.03	10.770
590.36	10.793
590.69	10.805
591.02	10.801
591.35	10.848
591.69	10.878
592.02	10.970
592.35	11.024
592.68	11.003
593.01	11.040
593.35	11.085
593.68	11.074
594.01	11.082
594.34	11.081
594.67	11.129
595.00	11.160
595.34	11.167
595.67	11.168
596.00	11.185
596.33	11.234
596.66	11.232
596.99	11.264
597.32	11.318
597.65	11.374
597.99	11.394
598.32	11.432
598.65	11.449
598.98	11.473
599.31	11.477
599.64	11.476
599.97	11.489
600.30	11.514
600.63	11.553
600.96	11.565
601.30	11.554
601.63	11.587
601.96	11.574
602.29	11.594
602.62	11.611
602.95	11.631
603.28	11.648
603.61	11.632
603.94	11.650
604.27	11.643
604.60	11.665
604.93	11.679
605.26	11.666
605.59	11.662
605.92	11.670
606.25	11.668
606.58	11.660
606.91	11.643
607.24	11.676
607.57	11.665
607.90	11.694
608.23	11.690
608.56	11.734
608.89	11.717
609.22	11.743
609.55	11.728
609.88	11.718
610.21	11.736
610.54	11.730
610.87	11.747
611.20	11.796
611.53	11.771
611.86	11.750
612.19	11.722
612.52	11.763
612.85	11.699
613.18	11.706
613.51	11.743
613.84	11.756
614.17	11.788
614.49	11.759
614.82	11.756
615.15	11.758
615.48	11.764
615.81	11.736
616.14	11.771
616.47	11.802
616.80	11.832
617.13	11.831
617.46	11.765
617.78	11.812
618.11	11.791
618.44	11.752
618.77	11.731
619.10	11.766
619.43	11.736
619.76	11.707
620.09	11.742
620.41	11.712
620.74	11.677
621.07	11.768
621.40	11.713
621.73	11.725
622.06	11.736
622.38	11.790
622.71	11.758
623.04	11.797
623.37	11.812
623.70	11.856
624.02	11.910
624.35	11.942
624.68	11.912
625.01	11.921
625.34	11.897
625.66	11.919
625.99	11.871
626.32	11.869
626.65	11.868
626.98	11.834
627.30	11.788
627.63	11.718
627.96	11.716
628.29	11.706
628.61	11.702
628.94	11.749
629.27	11.739
629.60	11.727
629.92	11.706
630.25	11.734
630.58	11.742
630.91	11.758
631.23	11.765
631.56	11.763
631.89	11.763
632.21	11.770
632.54	11.727
632.87	11.730
633.19	11.732
633.52	11.787
633.85	11.762
634.18	11.820
634.50	11.773
634.83	11.786
635.16	11.807
635.48	11.802
635.81	11.784
636.14	11.789
636.46	11.736
636.79	11.758
637.11	11.711
637.44	11.701
637.77	11.623
638.09	11.674
638.42	11.654
638.75	11.596
639.07	11.568
639.40	11.561
639.73	11.495
640.05	11.496
640.38	11.490
640.70	11.487
641.03	11.492
641.36	11.521
641.68	11.523
642.01	11.550
642.33	11.531
642.66	11.512
642.98	11.450
643.31	11.520
643.64	11.586
643.96	11.600
644.29	11.637
644.61	11.668
644.94	11.634
645.26	11.599
645.59	11.586
645.91	11.600
646.24	11.576
646.56	11.627
646.89	11.637
647.22	11.590
647.54	11.545
647.87	11.528
648.19	11.474
648.52	11.510
648.84	11.469
649.17	11.440
649.49	11.482
649.82	11.523
650.14	11.517
650.47	11.467
650.79	11.485
651.11	11.470
651.44	11.473
651.76	11.463
652.09	11.448
652.41	11.478
652.74	11.513
653.06	11.470
653.39	11.559
653.71	11.565
654.04	11.567
654.36	11.520
654.68	11.549
655.01	11.555
655.33	11.532
655.66	11.520
655.98	11.499
656.30	11.495
656.63	11.563
656.95	11.522
657.28	11.502
657.60	11.521
657.92	11.485
658.25	11.466
658.57	11.477
658.90	11.489
659.22	11.435
659.54	11.475
659.87	11.480
660.19	11.340
660.51	11.316
660.84	11.325
661.16	11.327
661.48	11.406
661.81	11.381
662.13	11.311
662.45	11.255
662.78	11.301
663.10	11.281
663.42	11.276
663.75	11.283
664.07	11.215
664.39	11.256
664.72	11.261
665.04	11.190
665.36	11.222
665.69	11.206
666.01	11.245
666.33	11.267
666.65	11.272
666.98	11.171
667.30	11.119
667.62	11.209
667.94	11.131
668.27	11.098
668.59	11.128
668.91	11.107
669.23	11.125
669.56	11.098
669.88	11.073
670.20	11.056
670.52	11.140
670.85	11.261
671.17	11.265
671.49	11.244
671.81	11.298
672.13	11.282
672.46	11.232
672.78	11.156
673.10	11.217
673.42	11.238
673.74	11.219
674.07	11.227
674.39	11.150
674.71	11.093
675.03	11.138
675.35	11.072
675.67	11.102
676.00	11.164
676.32	11.221
676.64	11.190
676.96	11.150
677.28	11.095
677.60	11.116
677.92	11.139
678.25	11.131
678.57	11.091
678.89	11.119
679.21	11.115
679.53	11.198
679.85	11.211
680.17	11.199
680.49	11.243
680.81	11.283
681.13	11.241
681.46	11.229
681.78	11.252
682.10	11.269
682.42	11.293
682.74	11.308
683.06	11.185
683.38	11.259
683.70	11.283
684.02	11.278
684.34	11.336
684.66	11.335
684.98	11.317
685.30	11.285
685.62	11.345
685.94	11.366
686.26	11.367
686.58	11.360
686.90	11.251
687.22	11.345
687.54	11.341
687.86	11.209
688.18	11.176
688.50	11.329
688.82	11.466
689.14	11.453
689.46	11.363
689.78	11.370
690.10	11.391
690.42	11.470
690.74	11.436
691.06	11.481
691.38	11.608
691.70	11.698
692.02	11.583
692.34	11.508
692.66	11.445
692.98	11.492
693.30	11.548
693.62	11.643
693.94	11.713
694.26	11.650
694.57	11.651
694.89	11.635
695.21	11.618
695.53	11.655
695.85	11.639
696.17	11.692
696.49	11.701
696.81	11.618
697.13	11.569
697.44	11.508
697.76	11.495
698.08	11.456
698.40	11.409
698.72	11.346
699.04	11.189
699.36	11.087
699.67	11.070
699.99	10.956
700.31	10.867
700.63	10.799
700.95	10.733
701.27	10.636
701.58	10.667
701.90	10.652
702.22	10.730
702.54	10.890
702.86	10.926
703.17	10.838
703.49	10.909
703.81	10.987
704.13	11.005
704.45	11.040
704.76	11.122
705.08	11.010
705.40	11.148
705.72	11.120
706.03	11.007
706.35	10.969
706.67	11.019
706.99	11.127
707.30	11.100
707.62	11.124
707.94	10.967
708.26	10.964
708.57	10.994
708.89	11.030
709.21	11.035
709.53	11.204
709.84	11.252
710.16	11.289
710.48	11.181
710.79	11.358
711.11	11.372
711.43	11.534
711.74	11.483
712.06	11.553
712.38	11.473
712.69	11.513
713.01	11.522
713.33	11.510
713.64	11.522
713.96	11.607
714.28	11.479
714.59	11.545
714.91	11.515
715.23	11.621
715.54	11.538
715.86	11.580
716.17	11.443
716.49	11.319
716.81	11.362
717.12	11.351
717.44	11.283
717.76	11.334
718.07	11.280
718.39	11.310
718.70	11.330
719.02	11.347
719.33	11.233
719.65	11.313
719.97	11.316
720.28	11.298
720.60	11.268
720.91	11.390
721.23	11.334
721.54	11.383
721.86	11.423
722.17	11.472
722.49	11.375
722.81	11.448
723.12	11.445
723.44	11.498
723.75	11.454
724.07	11.248
724.38	11.040
724.70	11.017
725.01	10.848
725.33	10.717
725.64	10.644
725.96	10.798
726.27	10.673
726.59	10.744
726.90	10.750
727.22	10.647
727.53	10.895
727.84	11.012
728.16	10.949
728.47	11.033
728.79	11.031
729.10	11.111
729.42	11.068
729.73	11.159
730.05	11.053
730.36	11.002
730.67	11.159
730.99	11.185
731.30	11.117
731.62	11.236
731.93	11.176
732.24	11.104
732.56	11.009
732.87	10.948
733.19	10.988
733.50	11.058
733.81	10.930
734.13	10.898
734.44	10.948
734.76	11.000
735.07	10.935
735.38	10.953
735.70	11.032
736.01	10.789
736.32	10.820
736.64	10.902
736.95	10.849
737.26	10.913
737.58	10.908
737.89	10.585
738.20	10.501
738.52	10.469
738.83	10.487
739.14	10.481
739.45	10.613
739.77	10.523
740.08	10.302
740.39	10.227
740.71	10.245
741.02	10.297
741.33	10.295
741.64	10.310
741.96	10.257
742.27	10.341
742.58	10.547
742.90	10.601
743.21	10.782
743.52	10.692
743.83	10.688
744.14	10.844
744.46	10.639
744.77	10.690
745.08	10.720
745.39	10.757
745.71	10.485
746.02	10.177
746.33	10.208
746.64	10.295
746.95	10.231
747.27	10.389
747.58	10.234
747.89	10.249
748.20	10.361
748.51	10.350
748.82	10.418
749.14	10.502
749.45	10.665
749.76	10.452
750.07	10.301
750.38	10.633
750.69	10.562
751.01	10.634
751.32	10.653
751.63	10.629
751.94	10.505
752.25	10.700
752.56	10.901
752.87	10.869
753.18	11.093
753.49	11.096
753.81	11.180
754.12	11.137
754.43	11.022
754.74	11.247
755.05	11.190
755.36	11.436
755.67	11.304
755.98	11.277
756.29	11.289
756.60	11.306
756.91	11.392
757.22	11.326
757.53	11.533
757.84	11.813
758.15	11.781
758.46	11.878
758.77	11.834
759.09	11.797
759.40	11.822
759.71	11.780
760.02	11.743
760.33	11.644
760.64	11.450
760.95	11.240
761.26	11.117
761.57	11.075
761.88	11.085
762.18	11.046
762.49	11.000
762.80	10.900
763.11	10.926
763.42	10.950
763.73	11.063
764.04	11.200
764.35	11.235
764.66	11.246
764.97	11.268
765.28	11.247
765.59	11.164
765.90	11.217
766.21	11.129
766.52	11.299
766.83	11.236
767.14	10.962
767.44	10.895
767.75	10.733
768.06	10.835
768.37	10.869
768.68	11.004
768.99	11.211
769.30	11.048
769.61	11.290
769.91	11.231
770.22	11.379
770.53	11.365
770.84	11.080
771.15	11.458
771.46	11.168
771.77	11.029
772.07	10.767
772.38	10.495
772.69	10.711
773.00	10.654
773.31	10.482
773.61	10.277
773.92	10.451
774.23	10.606
774.54	10.767
774.85	11.006
775.15	11.089
775.46	11.134
775.77	11.122
776.08	10.837
776.39	10.760
776.69	10.594
777.00	10.666
777.31	10.692
777.62	10.786
777.92	10.493
778.23	10.553
778.54	10.557
778.85	10.745
779.15	11.050
779.46	11.567
779.77	11.238
780.07	11.525
780.38	11.399
780.69	11.302
781.00	11.113
781.30	11.060
781.61	10.884
781.92	10.792
782.22	10.258
782.53	10.044
782.84	9.610
783.14	9.821
783.45	9.620
783.76	10.023
784.06	10.137
784.37	10.477
784.68	10.294
784.98	10.434
785.29	10.799
785.60	11.233
785.90	11.044
786.21	11.637
786.51	11.541
786.82	11.742
787.13	11.411
787.43	11.351
787.74	11.245
788.04	11.629
788.35	11.614
788.66	11.530
788.96	11.432
789.27	11.981
789.57	11.421
789.88	11.756
790.19	11.556
790.49	11.640
790.80	11.789
791.10	12.106
791.41	11.785
791.71	11.737
792.02	11.676
792.32	11.802
792.63	11.439
792.93	11.662
793.24	11.446
793.54	11.473
793.85	11.424
794.15	11.491
794.46	11.124
794.76	11.736
795.07	11.870
795.37	11.761
795.68	11.482
795.98	11.467
796.29	11.587
796.59	11.673
796.90	11.635
797.20	12.003
797.51	12.031
797.81	12.144
798.12	11.568
798.42	11.366
798.72	11.701
799.03	12.323
799.33	12.507
799.64	12.031
799.94	12.356
800.25	12.547
800.55	11.731
800.85	11.404
801.16	11.247
801.46	11.423
801.77	11.126
802.07	11.065
802.37	10.923
802.68	10.971
802.98	11.268
803.28	10.988
803.59	11.085
803.89	11.764
804.20	11.796
804.50	11.842
804.80	12.153
805.11	12.525
805.41	12.176
805.71	11.722
806.02	11.396
806.32	11.383
806.62	11.763
806.93	11.938
807.23	11.560
807.53	12.108
807.83	12.294
808.14	12.191
808.44	12.078
808.74	12.044
809.05	12.295
809.35	11.903
809.65	11.746
809.95	11.081
810.26	10.685
810.56	10.977
810.86	10.434
811.16	10.732
811.47	10.491
811.77	10.749
812.07	10.388
812.37	10.487
812.68	11.039
812.98	11.028
813.28	11.542
813.58	11.442
813.88	11.353
814.19	11.025
814.49	10.542
814.79	10.610
815.09	9.887
815.39	9.983
815.70	10.007
816.00	10.219
816.30	10.361
816.60	10.564
816.90	10.903
817.20	10.942
817.50	11.537
817.81	11.932
818.11	11.942
818.41	12.041
818.71	12.442
819.01	12.276
819.31	12.191
819.61	12.206
819.92	12.169
820.22	12.102
820.52	12.139
820.82	12.041
821.12	11.965
821.42	11.896
821.72	11.942
822.02	11.808
822.32	11.795
822.62	11.840
822.92	11.763
823.22	11.704
823.52	11.613
823.83	11.556
824.13	11.471
824.43	11.382
824.73	11.459
825.03	11.525
825.33	11.579
825.63	11.669
825.93	11.590
826.23	11.689
826.53	11.797
826.83	11.967
827.13	11.918
827.43	12.078
827.73	12.170
828.03	12.204
828.33	12.126
828.63	11.922
828.93	11.858
829.23	11.943
829.53	11.916
829.83	11.613
830.13	11.472
830.42	11.557
830.72	11.708
831.02	11.826
831.32	11.839
831.62	11.745
831.92	11.991
832.22	11.893
832.52	11.728
832.82	11.625
833.12	11.643
833.42	11.540
833.72	11.637
834.01	11.486
834.31	11.339
834.61	11.217
834.91	11.097
835.21	10.950
835.51	11.034
835.81	11.081
836.11	11.169
836.40	11.060
836.70	11.598
837.00	11.805
837.30	11.446
837.60	11.734
837.90	11.676
838.19	12.193
838.49	12.875
838.79	13.065
839.09	12.814
839.39	12.622
839.68	12.267
839.98	11.879
840.28	11.691
840.58	12.904
840.88	12.759
841.17	12.885
841.47	12.905
841.77	11.649
842.07	11.019
842.36	11.804
842.66	11.821
842.96	13.010
843.26	12.805
843.55	11.961
843.85	11.135
844.15	11.792
844.45	11.360
844.74	9.396
845.04	10.985
845.34	10.584
845.63	9.651
845.93	10.234
846.23	8.152
846.53	9.895
846.82	10.456
847.12	11.096
847.42	10.412
847.71	10.702
848.01	13.054
848.31	11.474
848.60	11.642
848.90	11.435
849.19	11.338
849.49	13.296
849.79	12.084
850.08	11.761
850.38	10.000
850.68	9.461
850.97	11.180
851.27	11.282
851.56	11.001
851.86	11.338
852.16	10.673
852.45	9.428
852.75	9.479
853.04	8.942
853.34	10.604
853.64	11.033
853.93	10.683
854.23	9.557
854.52	8.493
854.82	10.417
855.11	11.988
855.41	13.277
855.70	13.422
856.00	11.850
856.30	10.726
856.59	8.243
856.89	9.185
857.18	9.112
857.48	8.074
857.77	8.897
858.07	7.548
858.36	8.325
858.66	7.584
858.95	7.434
859.25	6.744
859.54	8.368
859.84	9.120
860.13	7.377
860.42	7.398
860.72	7.911
861.01	6.629
861.31	6.547
861.60	3.233
861.90	3.164
862.19	5.198
862.49	7.616
862.78	6.896
863.07	6.258
863.37	7.158
863.66	9.539
863.96	8.931
864.25	11.338
864.54	10.493
864.84	11.414
865.13	13.589
865.43	13.642
865.72	31.802
866.01	-5.307
866.31	8.559
866.60	27.810
866.89	18.279
>>>>>End Spectral Data<<<<<
