OOIBase32 Version 2.0.0.6 Data File
++++++++++++++++++++++++++++++++++++
Date: 01-23-2012, 22:08:55
User: Valued Ocean Optics Customer
Spectrometer Serial Number: USB2E2917
Spectrometer Channel: Master
Integration Time (msec): 5
Spectra Averaged: 10
Boxcar Smoothing: 5
Correct for Electrical Dark: Enabled
Time Normalized: Disabled
Dual-beam Reference: Disabled
Reference Channel: Master
Temperature: Not acquired
Spectrometer Type: S2000
ADC Type: USB2000
Number of Pixels in File: 2048
Graph Title: 
>>>>>Begin Spectral Data<<<<<
180.30	0.000
180.67	0.000
181.03	265.462
181.40	4.245
181.77	14611.200
182.14	68.658
182.51	-15.811
182.88	2234.216
183.25	148.284
183.62	64.075
183.99	31.832
184.36	98.471
184.73	259.596
185.10	65.287
185.46	104.627
185.83	2.680
186.20	-43.371
186.57	243.375
186.94	-75.639
187.31	100.733
187.68	-219.445
188.05	103.493
188.42	91.352
188.78	92.260
189.15	61.822
189.52	65.177
189.89	44.127
190.26	20.898
190.63	36.868
191.00	31.112
191.37	44.364
191.73	49.253
192.10	57.165
192.47	44.462
192.84	39.581
193.21	44.093
193.58	41.547
193.94	47.440
194.31	50.211
194.68	54.365
195.05	43.224
195.42	20.753
195.79	13.765
196.15	2.463
196.52	13.036
196.89	15.091
197.26	8.841
197.63	-2.494
198.00	-9.536
198.36	-11.036
198.73	-19.182
199.10	-11.868
199.47	-3.039
199.84	-18.620
200.20	-4.540
200.57	-38.844
200.94	-42.410
201.31	-32.654
201.68	-10.798
202.04	-8.999
202.41	2.063
202.78	-3.310
203.15	-1.819
203.51	-27.630
203.88	-23.017
204.25	-41.338
204.62	-11.860
204.98	-5.730
205.35	-11.233
205.72	-1.337
206.09	2.309
206.46	-9.898
206.82	-19.971
207.19	-34.744
207.56	-14.488
207.92	-21.001
208.29	-15.536
208.66	-26.112
209.03	-20.110
209.39	-31.756
209.76	-51.288
210.13	-52.432
210.50	-62.321
210.86	-44.128
211.23	-11.022
211.60	-8.343
211.96	7.698
212.33	9.169
212.70	20.462
213.07	15.588
213.43	19.144
213.80	21.771
214.17	15.973
214.53	24.890
214.90	22.515
215.27	12.036
215.63	12.227
216.00	-0.388
216.37	1.493
216.74	-11.106
217.10	-12.903
217.47	-12.217
217.84	-6.897
218.20	2.658
218.57	7.380
218.94	7.191
219.30	13.334
219.67	11.893
220.04	17.368
220.40	11.178
220.77	3.267
221.13	3.134
221.50	0.144
221.87	-0.841
222.23	-5.635
222.60	-5.169
222.97	-6.909
223.33	-11.182
223.70	-9.038
224.07	-5.954
224.43	-1.822
224.80	4.006
225.16	4.176
225.53	4.398
225.90	-1.634
226.26	-2.200
226.63	-4.031
226.99	-2.445
227.36	-1.305
227.73	-2.046
228.09	-5.606
228.46	-6.007
228.82	-5.689
229.19	-6.113
229.56	-8.461
229.92	-5.793
230.29	-5.365
230.65	-5.299
231.02	-5.206
231.38	-7.126
231.75	-6.436
232.12	-2.323
232.48	-0.604
232.85	-2.469
233.21	0.680
233.58	3.137
233.94	5.001
234.31	4.152
234.68	2.829
235.04	1.358
235.41	2.789
235.77	3.030
236.14	2.090
236.50	0.279
236.87	2.099
237.23	-0.645
237.60	0.360
237.96	0.077
238.33	1.902
238.69	3.248
239.06	2.530
239.42	2.297
239.79	2.299
240.15	2.601
240.52	2.666
240.88	2.330
241.25	2.687
241.61	2.550
241.98	2.799
242.34	2.231
242.71	2.514
243.07	3.285
243.44	3.422
243.80	3.247
244.17	3.128
244.53	3.201
244.90	2.844
245.26	2.795
245.63	2.851
245.99	2.722
246.36	2.971
246.72	2.306
247.09	2.084
247.45	1.888
247.81	1.913
248.18	1.989
248.54	1.979
248.91	2.041
249.27	2.404
249.64	2.316
250.00	2.502
250.36	2.181
250.73	2.466
251.09	2.491
251.46	2.530
251.82	2.703
252.19	2.440
252.55	2.491
252.91	2.654
253.28	1.843
253.64	1.627
254.01	1.418
254.37	1.148
254.73	1.609
255.10	2.320
255.46	2.537
255.83	2.012
256.19	1.990
256.55	1.951
256.92	1.924
257.28	2.263
257.65	2.516
258.01	2.748
258.37	2.775
258.74	2.609
259.10	2.341
259.46	2.406
259.83	2.649
260.19	2.609
260.55	2.660
260.92	2.683
261.28	2.494
261.64	2.069
262.01	2.150
262.37	2.190
262.73	2.428
263.10	2.467
263.46	2.804
263.82	2.858
264.19	2.810
264.55	2.682
264.91	2.609
265.28	2.869
265.64	2.985
266.00	2.231
266.37	2.388
266.73	2.590
267.09	2.513
267.46	2.331
267.82	2.393
268.18	2.652
268.54	2.598
268.91	2.881
269.27	2.878
269.63	2.843
270.00	3.217
270.36	2.961
270.72	2.637
271.08	2.392
271.45	2.321
271.81	2.361
272.17	2.280
272.53	2.302
272.90	2.060
273.26	1.910
273.62	1.880
273.98	1.711
274.35	1.755
274.71	1.915
275.07	2.499
275.43	2.737
275.80	2.686
276.16	2.759
276.52	2.710
276.88	2.761
277.25	2.739
277.61	2.904
277.97	2.924
278.33	2.784
278.69	2.569
279.06	2.571
279.42	2.061
279.78	1.862
280.14	1.919
280.50	2.003
280.87	1.969
281.23	2.191
281.59	2.177
281.95	2.094
282.31	2.313
282.68	2.501
283.04	2.354
283.40	2.728
283.76	2.658
284.12	2.582
284.48	2.598
284.85	2.711
285.21	2.556
285.57	2.526
285.93	2.666
286.29	2.646
286.65	2.683
287.02	2.661
287.38	2.605
287.74	2.895
288.10	3.048
288.46	3.076
288.82	2.901
289.18	2.798
289.54	2.844
289.91	2.898
290.27	2.887
290.63	2.953
290.99	2.982
291.35	3.067
291.71	3.117
292.07	2.872
292.43	2.971
292.79	3.389
293.16	3.546
293.52	3.647
293.88	3.796
294.24	4.022
294.60	3.885
294.96	3.958
295.32	3.966
295.68	3.846
296.04	4.127
296.40	4.181
296.76	4.262
297.12	4.554
297.49	4.635
297.85	4.693
298.21	4.716
298.57	5.061
298.93	5.275
299.29	5.480
299.65	5.630
300.01	5.821
300.37	5.827
300.73	5.979
301.09	6.166
301.45	6.421
301.81	6.822
302.17	7.061
302.53	7.154
302.89	7.325
303.25	7.486
303.61	7.836
303.97	7.968
304.33	8.379
304.69	8.519
305.05	8.772
305.41	8.933
305.77	8.990
306.13	9.168
306.49	9.431
306.85	9.656
307.21	9.779
307.57	9.962
307.93	10.213
308.29	10.517
308.65	10.580
309.01	10.631
309.37	10.857
309.73	10.943
310.09	11.047
310.45	11.160
310.81	11.181
311.17	11.211
311.53	11.269
311.89	11.350
312.25	11.203
312.61	11.346
312.96	11.468
313.32	11.450
313.68	11.348
314.04	11.420
314.40	11.455
314.76	11.696
315.12	11.892
315.48	12.039
315.84	11.861
316.20	11.952
316.56	12.033
316.92	12.086
317.27	12.055
317.63	12.163
317.99	12.203
318.35	12.214
318.71	12.121
319.07	12.181
319.43	12.261
319.79	12.434
320.15	12.347
320.50	12.108
320.86	12.018
321.22	12.085
321.58	12.076
321.94	11.958
322.30	11.913
322.66	11.854
323.01	11.725
323.37	11.575
323.73	11.528
324.09	11.571
324.45	11.694
324.81	11.563
325.17	11.375
325.52	11.358
325.88	11.300
326.24	11.288
326.60	11.282
326.96	11.338
327.31	11.253
327.67	11.171
328.03	11.089
328.39	11.078
328.75	11.122
329.11	11.283
329.46	11.196
329.82	11.204
330.18	11.186
330.54	11.229
330.90	11.168
331.25	11.172
331.61	11.112
331.97	11.180
332.33	11.172
332.68	11.104
333.04	11.030
333.40	11.158
333.76	11.092
334.11	10.960
334.47	10.803
334.83	10.722
335.19	10.778
335.54	10.895
335.90	10.875
336.26	10.837
336.62	10.808
336.97	10.726
337.33	10.633
337.69	10.641
338.05	10.702
338.40	10.793
338.76	10.801
339.12	10.676
339.48	10.518
339.83	10.459
340.19	10.370
340.55	10.354
340.90	10.327
341.26	10.266
341.62	10.279
341.97	10.290
342.33	10.300
342.69	10.265
343.04	10.188
343.40	10.175
343.76	10.109
344.12	10.129
344.47	10.174
344.83	10.116
345.19	10.102
345.54	10.151
345.90	10.080
346.26	9.940
346.61	9.965
346.97	10.035
347.32	10.034
347.68	10.010
348.04	9.995
348.39	9.932
348.75	10.057
349.11	9.999
349.46	9.853
349.82	9.855
350.18	9.867
350.53	9.792
350.89	9.733
351.24	9.684
351.60	9.677
351.96	9.564
352.31	9.502
352.67	9.389
353.02	9.416
353.38	9.418
353.74	9.308
354.09	9.236
354.45	9.143
354.80	9.097
355.16	9.021
355.52	8.953
355.87	8.911
356.23	8.905
356.58	8.889
356.94	8.778
357.29	8.729
357.65	8.787
358.00	8.770
358.36	8.820
358.72	8.880
359.07	8.906
359.43	8.924
359.78	8.983
360.14	8.923
360.49	8.900
360.85	8.884
361.20	8.900
361.56	8.863
361.91	8.867
362.27	8.790
362.62	8.633
362.98	8.540
363.33	8.501
363.69	8.357
364.04	8.371
364.40	8.323
364.75	8.301
365.11	8.322
365.46	8.300
365.82	8.155
366.17	8.122
366.53	8.187
366.88	8.178
367.24	8.213
367.59	8.248
367.95	8.248
368.30	8.217
368.66	8.206
369.01	8.104
369.37	8.076
369.72	8.076
370.08	8.049
370.43	7.994
370.78	7.981
371.14	7.895
371.49	7.924
371.85	7.873
372.20	7.920
372.56	7.907
372.91	7.856
373.26	7.764
373.62	7.746
373.97	7.711
374.33	7.693
374.68	7.649
375.03	7.670
375.39	7.589
375.74	7.561
376.10	7.453
376.45	7.398
376.80	7.404
377.16	7.403
377.51	7.395
377.87	7.329
378.22	7.280
378.57	7.280
378.93	7.195
379.28	7.202
379.63	7.193
379.99	7.205
380.34	7.186
380.70	7.182
381.05	7.176
381.40	7.154
381.76	7.141
382.11	7.118
382.46	7.039
382.82	7.008
383.17	6.956
383.52	6.859
383.88	6.809
384.23	6.783
384.58	6.714
384.94	6.666
385.29	6.633
385.64	6.654
385.99	6.615
386.35	6.646
386.70	6.610
387.05	6.536
387.41	6.536
387.76	6.485
388.11	6.436
388.47	6.402
388.82	6.373
389.17	6.326
389.52	6.255
389.88	6.228
390.23	6.202
390.58	6.176
390.93	6.165
391.29	6.103
391.64	6.083
391.99	6.040
392.34	6.014
392.70	5.966
393.05	5.915
393.40	5.886
393.75	5.845
394.11	5.792
394.46	5.743
394.81	5.684
395.16	5.654
395.52	5.613
395.87	5.589
396.22	5.512
396.57	5.471
396.92	5.468
397.28	5.442
397.63	5.383
397.98	5.343
398.33	5.314
398.68	5.316
399.04	5.274
399.39	5.228
399.74	5.160
400.09	5.151
400.44	5.088
400.80	5.041
401.15	4.999
401.50	4.966
401.85	4.951
402.20	4.942
402.55	4.920
402.90	4.890
403.26	4.868
403.61	4.871
403.96	4.852
404.31	4.856
404.66	4.828
405.01	4.813
405.36	4.815
405.72	4.771
406.07	4.739
406.42	4.708
406.77	4.669
407.12	4.640
407.47	4.640
407.82	4.616
408.17	4.577
408.53	4.537
408.88	4.529
409.23	4.522
409.58	4.496
409.93	4.433
410.28	4.397
410.63	4.361
410.98	4.345
411.33	4.293
411.68	4.260
412.03	4.254
412.38	4.272
412.73	4.257
413.09	4.217
413.44	4.197
413.79	4.219
414.14	4.202
414.49	4.214
414.84	4.197
415.19	4.213
415.54	4.222
415.89	4.207
416.24	4.185
416.59	4.172
416.94	4.169
417.29	4.180
417.64	4.172
417.99	4.180
418.34	4.185
418.69	4.176
419.04	4.157
419.39	4.154
419.74	4.160
420.09	4.162
420.44	4.159
420.79	4.157
421.14	4.135
421.49	4.130
421.84	4.125
422.19	4.119
422.54	4.132
422.89	4.108
423.24	4.085
423.59	4.077
423.94	4.068
424.29	4.042
424.64	4.030
424.99	4.033
425.34	4.013
425.68	4.005
426.03	4.013
426.38	3.990
426.73	4.012
427.08	4.013
427.43	4.003
427.78	4.016
428.13	4.049
428.48	4.052
428.83	4.071
429.18	4.072
429.53	4.062
429.87	4.044
430.22	4.016
430.57	4.022
430.92	4.014
431.27	4.015
431.62	3.995
431.97	3.962
432.32	3.970
432.67	3.958
433.01	3.952
433.36	3.965
433.71	3.980
434.06	4.004
434.41	4.025
434.76	4.066
435.11	4.059
435.45	4.076
435.80	4.092
436.15	4.097
436.50	4.110
436.85	4.117
437.20	4.113
437.54	4.104
437.89	4.109
438.24	4.088
438.59	4.078
438.94	4.096
439.29	4.111
439.63	4.125
439.98	4.131
440.33	4.134
440.68	4.145
441.03	4.149
441.37	4.152
441.72	4.168
442.07	4.186
442.42	4.202
442.76	4.190
443.11	4.184
443.46	4.194
443.81	4.204
444.16	4.204
444.50	4.201
444.85	4.216
445.20	4.216
445.55	4.203
445.89	4.194
446.24	4.180
446.59	4.192
446.94	4.182
447.28	4.169
447.63	4.132
447.98	4.130
448.32	4.136
448.67	4.121
449.02	4.110
449.37	4.105
449.71	4.092
450.06	4.078
450.41	4.062
450.75	4.057
451.10	4.054
451.45	4.070
451.79	4.053
452.14	4.023
452.49	4.014
452.84	4.017
453.18	4.012
453.53	4.022
453.88	4.026
454.22	4.051
454.57	4.062
454.92	4.074
455.26	4.077
455.61	4.099
455.95	4.126
456.30	4.149
456.65	4.165
456.99	4.185
457.34	4.188
457.69	4.209
458.03	4.200
458.38	4.205
458.73	4.209
459.07	4.222
459.42	4.223
459.76	4.222
460.11	4.201
460.46	4.193
460.80	4.198
461.15	4.205
461.49	4.180
461.84	4.181
462.19	4.182
462.53	4.174
462.88	4.162
463.22	4.173
463.57	4.201
463.91	4.221
464.26	4.250
464.61	4.255
464.95	4.285
465.30	4.316
465.64	4.326
465.99	4.328
466.33	4.345
466.68	4.370
467.02	4.371
467.37	4.368
467.71	4.375
468.06	4.376
468.41	4.380
468.75	4.371
469.10	4.368
469.44	4.374
469.79	4.395
470.13	4.419
470.48	4.402
470.82	4.395
471.17	4.389
471.51	4.378
471.86	4.349
472.20	4.335
472.55	4.343
472.89	4.332
473.23	4.334
473.58	4.315
473.92	4.298
474.27	4.301
474.61	4.307
474.96	4.292
475.30	4.280
475.65	4.310
475.99	4.310
476.34	4.290
476.68	4.293
477.02	4.278
477.37	4.275
477.71	4.271
478.06	4.285
478.40	4.312
478.75	4.365
479.09	4.432
479.43	4.478
479.78	4.542
480.12	4.617
480.47	4.696
480.81	4.779
481.15	4.867
481.50	4.944
481.84	5.042
482.19	5.135
482.53	5.214
482.87	5.243
483.22	5.225
483.56	5.166
483.90	5.084
484.25	4.974
484.59	4.875
484.94	4.796
485.28	4.715
485.62	4.608
485.97	4.495
486.31	4.393
486.65	4.332
487.00	4.314
487.34	4.344
487.68	4.373
488.03	4.434
488.37	4.472
488.71	4.476
489.06	4.475
489.40	4.468
489.74	4.458
490.09	4.449
490.43	4.441
490.77	4.432
491.11	4.418
491.46	4.412
491.80	4.400
492.14	4.374
492.49	4.367
492.83	4.363
493.17	4.348
493.51	4.354
493.86	4.373
494.20	4.382
494.54	4.395
494.88	4.401
495.23	4.423
495.57	4.428
495.91	4.469
496.25	4.487
496.60	4.500
496.94	4.528
497.28	4.548
497.62	4.546
497.97	4.569
498.31	4.594
498.65	4.611
498.99	4.635
499.33	4.666
499.68	4.696
500.02	4.715
500.36	4.736
500.70	4.773
501.04	4.798
501.39	4.827
501.73	4.861
502.07	4.893
502.41	4.931
502.75	4.951
503.09	4.988
503.44	5.013
503.78	5.059
504.12	5.112
504.46	5.152
504.80	5.199
505.14	5.241
505.49	5.281
505.83	5.339
506.17	5.396
506.51	5.437
506.85	5.456
507.19	5.511
507.53	5.548
507.87	5.586
508.22	5.626
508.56	5.649
508.90	5.687
509.24	5.725
509.58	5.753
509.92	5.772
510.26	5.818
510.60	5.870
510.94	5.882
511.28	5.898
511.63	5.951
511.97	5.984
512.31	6.040
512.65	6.071
512.99	6.103
513.33	6.140
513.67	6.190
514.01	6.235
514.35	6.285
514.69	6.342
515.03	6.387
515.37	6.402
515.71	6.438
516.05	6.448
516.39	6.481
516.73	6.519
517.07	6.533
517.41	6.553
517.75	6.556
518.09	6.565
518.43	6.553
518.77	6.559
519.11	6.565
519.45	6.568
519.79	6.570
520.13	6.565
520.47	6.553
520.81	6.568
521.15	6.576
521.49	6.601
521.83	6.608
522.17	6.669
522.51	6.706
522.85	6.747
523.19	6.800
523.53	6.878
523.87	6.952
524.21	7.025
524.55	7.078
524.89	7.132
525.23	7.187
525.57	7.234
525.91	7.269
526.25	7.297
526.58	7.311
526.92	7.328
527.26	7.328
527.60	7.314
527.94	7.289
528.28	7.265
528.62	7.237
528.96	7.195
529.30	7.166
529.64	7.125
529.97	7.091
530.31	7.066
530.65	7.015
530.99	6.990
531.33	6.975
531.67	6.970
532.01	6.966
532.35	6.951
532.68	6.943
533.02	6.915
533.36	6.891
533.70	6.868
534.04	6.844
534.38	6.839
534.71	6.816
535.05	6.787
535.39	6.757
535.73	6.741
536.07	6.723
536.41	6.729
536.74	6.751
537.08	6.757
537.42	6.773
537.76	6.792
538.10	6.812
538.43	6.827
538.77	6.848
539.11	6.856
539.45	6.860
539.79	6.877
540.12	6.869
540.46	6.848
540.80	6.835
541.14	6.809
541.47	6.782
541.81	6.743
542.15	6.697
542.49	6.644
542.82	6.609
543.16	6.573
543.50	6.517
543.84	6.476
544.17	6.447
544.51	6.423
544.85	6.398
545.18	6.378
545.52	6.361
545.86	6.346
546.20	6.337
546.53	6.296
546.87	6.268
547.21	6.259
547.54	6.233
547.88	6.212
548.22	6.200
548.55	6.180
548.89	6.177
549.23	6.163
549.56	6.144
549.90	6.167
550.24	6.194
550.57	6.187
550.91	6.162
551.25	6.147
551.58	6.139
551.92	6.120
552.26	6.115
552.59	6.078
552.93	6.064
553.27	6.080
553.60	6.039
553.94	6.032
554.27	6.019
554.61	6.032
554.95	6.065
555.28	6.064
555.62	6.074
555.95	6.082
556.29	6.098
556.63	6.111
556.96	6.109
557.30	6.126
557.63	6.120
557.97	6.129
558.31	6.137
558.64	6.128
558.98	6.108
559.31	6.111
559.65	6.132
559.98	6.136
560.32	6.118
560.65	6.126
560.99	6.130
561.33	6.149
561.66	6.166
562.00	6.173
562.33	6.181
562.67	6.210
563.00	6.237
563.34	6.242
563.67	6.236
564.01	6.256
564.34	6.241
564.68	6.259
565.01	6.244
565.35	6.225
565.68	6.238
566.02	6.242
566.35	6.252
566.69	6.229
567.02	6.226
567.36	6.248
567.69	6.257
568.03	6.283
568.36	6.281
568.69	6.309
569.03	6.336
569.36	6.346
569.70	6.333
570.03	6.340
570.37	6.353
570.70	6.364
571.04	6.378
571.37	6.378
571.70	6.374
572.04	6.374
572.37	6.363
572.71	6.360
573.04	6.360
573.37	6.386
573.71	6.393
574.04	6.389
574.38	6.388
574.71	6.381
575.04	6.373
575.38	6.380
575.71	6.385
576.05	6.389
576.38	6.401
576.71	6.379
577.05	6.379
577.38	6.378
577.71	6.387
578.05	6.361
578.38	6.356
578.71	6.372
579.05	6.365
579.38	6.356
579.71	6.335
580.05	6.320
580.38	6.336
580.71	6.331
581.05	6.323
581.38	6.326
581.71	6.345
582.05	6.342
582.38	6.356
582.71	6.369
583.04	6.384
583.38	6.398
583.71	6.403
584.04	6.405
584.38	6.402
584.71	6.414
585.04	6.438
585.37	6.464
585.71	6.491
586.04	6.491
586.37	6.508
586.70	6.534
587.04	6.560
587.37	6.591
587.70	6.598
588.03	6.630
588.37	6.630
588.70	6.619
589.03	6.609
589.36	6.613
589.69	6.586
590.03	6.567
590.36	6.560
590.69	6.574
591.02	6.569
591.35	6.575
591.69	6.572
592.02	6.595
592.35	6.598
592.68	6.626
593.01	6.637
593.35	6.686
593.68	6.722
594.01	6.723
594.34	6.724
594.67	6.720
595.00	6.726
595.34	6.721
595.67	6.725
596.00	6.715
596.33	6.691
596.66	6.680
596.99	6.679
597.32	6.681
597.65	6.674
597.99	6.665
598.32	6.678
598.65	6.689
598.98	6.675
599.31	6.672
599.64	6.695
599.97	6.728
600.30	6.734
600.63	6.729
600.96	6.712
601.30	6.732
601.63	6.747
601.96	6.758
602.29	6.748
602.62	6.777
602.95	6.787
603.28	6.767
603.61	6.748
603.94	6.736
604.27	6.726
604.60	6.728
604.93	6.703
605.26	6.693
605.59	6.678
605.92	6.688
606.25	6.661
606.58	6.644
606.91	6.668
607.24	6.689
607.57	6.688
607.90	6.703
608.23	6.667
608.56	6.678
608.89	6.639
609.22	6.618
609.55	6.584
609.88	6.567
610.21	6.553
610.54	6.508
610.87	6.461
611.20	6.443
611.53	6.410
611.86	6.417
612.19	6.418
612.52	6.423
612.85	6.415
613.18	6.403
613.51	6.379
613.84	6.384
614.17	6.410
614.49	6.398
614.82	6.372
615.15	6.378
615.48	6.381
615.81	6.368
616.14	6.380
616.47	6.361
616.80	6.372
617.13	6.379
617.46	6.358
617.78	6.313
618.11	6.314
618.44	6.324
618.77	6.299
619.10	6.285
619.43	6.274
619.76	6.247
620.09	6.262
620.41	6.262
620.74	6.279
621.07	6.251
621.40	6.273
621.73	6.273
622.06	6.278
622.38	6.260
622.71	6.246
623.04	6.225
623.37	6.236
623.70	6.231
624.02	6.225
624.35	6.244
624.68	6.268
625.01	6.298
625.34	6.290
625.66	6.303
625.99	6.331
626.32	6.348
626.65	6.347
626.98	6.352
627.30	6.349
627.63	6.353
627.96	6.320
628.29	6.301
628.61	6.264
628.94	6.288
629.27	6.241
629.60	6.228
629.92	6.221
630.25	6.243
630.58	6.200
630.91	6.181
631.23	6.178
631.56	6.187
631.89	6.214
632.21	6.202
632.54	6.151
632.87	6.153
633.19	6.135
633.52	6.080
633.85	6.053
634.18	6.028
634.50	6.034
634.83	5.996
635.16	5.957
635.48	5.867
635.81	5.850
636.14	5.861
636.46	5.848
636.79	5.828
637.11	5.838
637.44	5.815
637.77	5.855
638.09	5.791
638.42	5.764
638.75	5.751
639.07	5.797
639.40	5.754
639.73	5.747
640.05	5.771
640.38	5.753
640.70	5.731
641.03	5.717
641.36	5.715
641.68	5.743
642.01	5.729
642.33	5.746
642.66	5.735
642.98	5.770
643.31	5.723
643.64	5.699
643.96	5.676
644.29	5.695
644.61	5.688
644.94	5.683
645.26	5.688
645.59	5.718
645.91	5.728
646.24	5.759
646.56	5.753
646.89	5.737
647.22	5.771
647.54	5.775
647.87	5.777
648.19	5.792
648.52	5.781
648.84	5.781
649.17	5.783
649.49	5.735
649.82	5.722
650.14	5.767
650.47	5.801
650.79	5.740
651.11	5.748
651.44	5.762
651.76	5.753
652.09	5.734
652.41	5.747
652.74	5.708
653.06	5.729
653.39	5.717
653.71	5.663
654.04	5.698
654.36	5.709
654.68	5.713
655.01	5.689
655.33	5.683
655.66	5.701
655.98	5.675
656.30	5.705
656.63	5.709
656.95	5.703
657.28	5.714
657.60	5.670
657.92	5.641
658.25	5.636
658.57	5.626
658.90	5.593
659.22	5.517
659.54	5.496
659.87	5.412
660.19	5.353
660.51	5.338
660.84	5.288
661.16	5.245
661.48	5.222
661.81	5.172
662.13	5.139
662.45	5.105
662.78	5.088
663.10	5.071
663.42	5.114
663.75	5.103
664.07	5.056
664.39	5.003
664.72	5.006
665.04	4.990
665.36	5.018
665.69	5.037
666.01	5.043
666.33	5.073
666.65	5.067
666.98	5.042
667.30	5.039
667.62	5.011
667.94	5.045
668.27	5.028
668.59	5.038
668.91	4.997
669.23	5.006
669.56	4.970
669.88	4.947
670.20	4.881
670.52	4.827
670.85	4.860
671.17	4.828
671.49	4.791
671.81	4.795
672.13	4.773
672.46	4.767
672.78	4.626
673.10	4.587
673.42	4.544
673.74	4.590
674.07	4.625
674.39	4.559
674.71	4.587
675.03	4.624
675.35	4.611
675.67	4.651
676.00	4.661
676.32	4.751
676.64	4.813
676.96	4.865
677.28	4.875
677.60	4.880
677.92	4.926
678.25	4.923
678.57	4.913
678.89	4.894
679.21	4.866
679.53	4.888
679.85	4.881
680.17	4.884
680.49	4.867
680.81	4.867
681.13	4.886
681.46	4.885
681.78	4.888
682.10	4.890
682.42	4.950
682.74	5.012
683.06	4.986
683.38	5.056
683.70	5.075
684.02	5.074
684.34	5.098
684.66	5.126
684.98	5.149
685.30	5.255
685.62	5.290
685.94	5.265
686.26	5.229
686.58	5.232
686.90	5.226
687.22	5.214
687.54	5.237
687.86	5.212
688.18	5.164
688.50	5.085
688.82	4.996
689.14	4.939
689.46	4.927
689.78	4.887
690.10	4.860
690.42	4.785
690.74	4.775
691.06	4.751
691.38	4.728
691.70	4.690
692.02	4.688
692.34	4.663
692.66	4.676
692.98	4.652
693.30	4.691
693.62	4.642
693.94	4.651
694.26	4.706
694.57	4.707
694.89	4.785
695.21	4.876
695.53	4.938
695.85	4.984
696.17	4.989
696.49	5.069
696.81	5.116
697.13	5.188
697.44	5.197
697.76	5.156
698.08	5.203
698.40	5.160
698.72	5.084
699.04	5.018
699.36	4.934
699.67	4.845
699.99	4.641
700.31	4.479
700.63	4.382
700.95	4.308
701.27	4.187
701.58	4.052
701.90	3.956
702.22	3.915
702.54	3.799
702.86	3.686
703.17	3.629
703.49	3.711
703.81	3.742
704.13	3.739
704.45	3.775
704.76	3.794
705.08	3.748
705.40	3.670
705.72	3.666
706.03	3.707
706.35	3.761
706.67	3.834
706.99	3.792
707.30	3.707
707.62	3.654
707.94	3.569
708.26	3.526
708.57	3.535
708.89	3.579
709.21	3.503
709.53	3.519
709.84	3.578
710.16	3.555
710.48	3.608
710.79	3.687
711.11	3.741
711.43	3.692
711.74	3.709
712.06	3.766
712.38	3.740
712.69	3.864
713.01	3.963
713.33	3.937
713.64	4.001
713.96	4.003
714.28	4.121
714.59	4.144
714.91	4.349
715.23	4.524
715.54	4.577
715.86	4.758
716.17	4.795
716.49	4.695
716.81	4.753
717.12	4.662
717.44	4.738
717.76	4.573
718.07	4.544
718.39	4.433
718.70	4.319
719.02	4.236
719.33	4.064
719.65	3.999
719.97	4.028
720.28	3.968
720.60	4.015
720.91	4.007
721.23	4.010
721.54	4.062
721.86	4.088
722.17	4.006
722.49	4.002
722.81	3.968
723.12	3.924
723.44	3.910
723.75	3.911
724.07	3.959
724.38	3.966
724.70	4.040
725.01	4.064
725.33	4.026
725.64	4.058
725.96	4.027
726.27	4.048
726.59	4.053
726.90	4.090
727.22	4.074
727.53	4.069
727.84	3.959
728.16	3.785
728.47	3.719
728.79	3.753
729.10	3.713
729.42	3.728
729.73	3.755
730.05	3.773
730.36	3.694
730.67	3.713
730.99	3.645
731.30	3.548
731.62	3.555
731.93	3.471
732.24	3.339
732.56	3.354
732.87	3.279
733.19	3.147
733.50	2.980
733.81	2.872
734.13	2.784
734.44	2.727
734.76	2.772
735.07	2.610
735.38	2.601
735.70	2.514
736.01	2.259
736.32	2.143
736.64	2.227
736.95	2.214
737.26	2.213
737.58	2.063
737.89	1.997
738.20	1.805
738.52	1.786
738.83	1.741
739.14	1.693
739.45	1.768
739.77	1.865
740.08	1.790
740.39	1.754
740.71	1.688
741.02	1.920
741.33	1.840
741.64	1.792
741.96	1.741
742.27	1.650
742.58	1.496
742.90	1.499
743.21	1.303
743.52	1.125
743.83	1.152
744.14	1.094
744.46	0.777
744.77	0.684
745.08	0.877
745.39	0.776
745.71	0.675
746.02	0.663
746.33	0.478
746.64	0.539
746.95	0.503
747.27	0.470
747.58	0.584
747.89	0.664
748.20	0.630
748.51	0.507
748.82	0.697
749.14	0.621
749.45	0.824
749.76	0.858
750.07	0.792
750.38	0.873
750.69	0.961
751.01	0.968
751.32	0.942
751.63	0.902
751.94	0.930
752.25	0.966
752.56	1.130
752.87	1.054
753.18	1.067
753.49	0.992
753.81	0.987
754.12	0.912
754.43	1.007
754.74	1.022
755.05	1.142
755.36	1.335
755.67	1.525
755.98	1.827
756.29	2.125
756.60	2.389
756.91	2.875
757.22	3.294
757.53	3.682
757.84	3.884
758.15	4.203
758.46	4.698
758.77	4.876
759.09	4.986
759.40	5.109
759.71	5.304
760.02	5.408
760.33	5.451
760.64	5.485
760.95	5.485
761.26	5.570
761.57	5.605
761.88	5.471
762.18	5.452
762.49	5.396
762.80	5.271
763.11	5.005
763.42	4.885
763.73	4.719
764.04	4.324
764.35	3.999
764.66	3.629
764.97	3.272
765.28	3.050
765.59	2.679
765.90	2.333
766.21	2.149
766.52	1.898
766.83	1.687
767.14	1.350
767.44	1.292
767.75	1.190
768.06	1.065
768.37	1.027
768.68	0.870
768.99	0.752
769.30	0.695
769.61	0.163
769.91	0.011
770.22	-0.108
770.53	-0.101
770.84	-0.082
771.15	0.021
771.46	-0.152
771.77	-0.437
772.07	-0.600
772.38	-0.817
772.69	-0.773
773.00	-0.771
773.31	-0.436
773.61	-0.545
773.92	-0.435
774.23	-0.534
774.54	-0.758
774.85	-0.658
775.15	-0.445
775.46	-0.384
775.77	-0.244
776.08	-0.300
776.39	-0.225
776.69	-0.389
777.00	-0.149
777.31	-0.216
777.62	-0.183
777.92	-0.307
778.23	-0.398
778.54	-0.750
778.85	-0.696
779.15	-0.350
779.46	-0.294
779.77	-0.343
780.07	-0.404
780.38	-0.679
780.69	-0.840
781.00	-1.056
781.30	-1.112
781.61	-1.036
781.92	-0.549
782.22	-0.665
782.53	-0.939
782.84	-0.721
783.14	-0.459
783.45	-0.373
783.76	0.004
784.06	0.089
784.37	0.492
784.68	0.619
784.98	0.921
785.29	0.828
785.60	1.179
785.90	1.168
786.21	0.894
786.51	1.005
786.82	0.965
787.13	1.082
787.43	1.402
787.74	1.486
788.04	1.826
788.35	1.559
788.66	1.454
788.96	1.276
789.27	1.400
789.57	1.663
789.88	1.643
790.19	1.925
790.49	1.527
790.80	1.422
791.10	1.255
791.41	1.142
791.71	1.180
792.02	1.566
792.32	1.454
792.63	1.425
792.93	1.168
793.24	0.813
793.54	0.587
793.85	0.921
794.15	0.800
794.46	0.770
794.76	0.766
795.07	0.790
795.37	0.556
795.68	0.670
795.98	0.878
796.29	1.228
796.59	1.477
796.90	1.320
797.20	1.024
797.51	1.113
797.81	0.923
798.12	0.798
798.42	0.847
798.72	1.045
799.03	1.003
799.33	0.998
799.64	0.985
799.94	1.126
800.25	1.594
800.55	1.989
800.85	1.820
801.16	2.013
801.46	2.194
801.77	2.030
802.07	1.542
802.37	1.273
802.68	1.000
802.98	0.619
803.28	0.686
803.59	0.546
803.89	0.373
804.20	0.645
804.50	0.808
804.80	0.264
805.11	0.673
805.41	1.101
805.71	1.507
806.02	1.632
806.32	2.050
806.62	2.004
806.93	1.852
807.23	1.984
807.53	1.921
807.83	2.124
808.14	2.468
808.44	2.199
808.74	2.160
809.05	2.153
809.35	2.043
809.65	1.620
809.95	1.430
810.26	1.461
810.56	1.863
810.86	2.124
811.16	1.712
811.47	2.166
811.77	2.595
812.07	2.881
812.37	2.847
812.68	3.045
812.98	3.792
813.28	3.963
813.58	3.925
813.88	3.131
814.19	3.181
814.49	3.271
814.79	2.964
815.09	2.807
815.39	2.892
815.70	3.340
816.00	3.545
816.30	3.154
816.60	3.547
816.90	4.213
817.20	4.795
817.50	4.783
817.81	5.186
818.11	5.571
818.41	5.945
818.71	6.052
819.01	6.046
819.31	6.139
819.61	6.275
819.92	6.219
820.22	6.184
820.52	6.322
820.82	6.375
821.12	6.388
821.42	6.389
821.72	6.427
822.02	6.381
822.32	6.375
822.62	6.348
822.92	6.329
823.22	6.406
823.52	6.428
823.83	6.240
824.13	6.224
824.43	6.160
824.73	6.014
825.03	5.862
825.33	5.837
825.63	5.862
825.93	5.873
826.23	5.824
826.53	5.711
826.83	5.634
827.13	5.736
827.43	5.700
827.73	5.723
828.03	5.860
828.33	5.681
828.63	5.722
828.93	5.487
829.23	5.418
829.53	5.308
829.83	5.260
830.13	5.081
830.42	4.754
830.72	4.709
831.02	4.691
831.32	4.702
831.62	4.853
831.92	4.834
832.22	5.110
832.52	5.080
832.82	5.298
833.12	5.245
833.42	5.258
833.72	5.642
834.01	5.610
834.31	5.712
834.61	5.698
834.91	5.861
835.21	5.848
835.51	5.643
835.81	5.512
836.11	5.206
836.40	5.253
836.70	5.504
837.00	4.850
837.30	4.550
837.60	4.194
837.90	4.167
838.19	3.929
838.49	3.455
838.79	3.275
839.09	3.171
839.39	2.938
839.68	2.947
839.98	2.891
840.28	2.955
840.58	2.943
840.88	2.457
841.17	2.098
841.47	1.613
841.77	1.558
842.07	1.127
842.36	0.963
842.66	0.647
842.96	1.125
843.26	-0.229
843.55	-2.351
843.85	-2.715
844.15	-3.028
844.45	-2.022
844.74	-2.367
845.04	-2.288
845.34	-2.019
845.63	-2.011
845.93	-2.280
846.23	-3.965
846.53	-3.567
846.82	-1.497
847.12	-1.891
847.42	-2.554
847.71	-4.482
848.01	-4.727
848.31	-3.607
848.60	-4.759
848.90	-5.844
849.19	-4.862
849.49	-5.086
849.79	-4.542
850.08	-3.321
850.38	-2.244
850.68	-0.254
850.97	0.974
851.27	1.458
851.56	-0.685
851.86	-0.543
852.16	-0.612
852.45	-1.246
852.75	-1.295
853.04	-1.587
853.34	-4.024
853.64	-6.897
853.93	-7.907
854.23	-8.748
854.52	-9.787
854.82	-8.477
855.11	-7.944
855.41	-7.181
855.70	-6.699
856.00	-5.346
856.30	-5.900
856.59	-6.359
856.89	-3.441
857.18	-1.601
857.48	-2.110
857.77	-2.874
858.07	-2.480
858.36	-2.386
858.66	-2.281
858.95	-2.024
859.25	-3.764
859.54	-3.769
859.84	-1.941
860.13	-3.137
860.42	-3.906
860.72	-2.685
861.01	-1.673
861.31	-2.325
861.60	-2.178
861.90	-2.182
862.19	-3.762
862.49	-3.024
862.78	0.173
863.07	0.100
863.37	0.096
863.66	-0.827
863.96	-1.149
864.25	0.331
864.54	0.989
864.84	1.574
865.13	1.928
865.43	2.167
865.72	12.130
866.01	4.142
866.31	2.302
866.60	1.549
866.89	-6.950
>>>>>End Spectral Data<<<<<
