OOIBase32 Version 2.0.0.6 Data File
++++++++++++++++++++++++++++++++++++
Date: 01-18-2012, 22:23:25
User: Valued Ocean Optics Customer
Spectrometer Serial Number: USB2E2917
Spectrometer Channel: Master
Integration Time (msec): 5
Spectra Averaged: 10
Boxcar Smoothing: 5
Correct for Electrical Dark: Enabled
Time Normalized: Disabled
Dual-beam Reference: Disabled
Reference Channel: Master
Temperature: Not acquired
Spectrometer Type: S2000
ADC Type: USB2000
Number of Pixels in File: 2048
Graph Title: 
>>>>>Begin Spectral Data<<<<<
180.30	0.000
180.67	0.000
181.03	122.782
181.40	176.647
181.77	115.476
182.14	20.760
182.51	-354.130
182.88	96.000
183.25	137.610
183.62	37.317
183.99	168.428
184.36	6380.395
184.73	245.038
185.10	-53.071
185.46	1278.410
185.83	-29.290
186.20	54.587
186.57	-142.957
186.94	-23.809
187.31	-5.258
187.68	38.893
188.05	144.783
188.42	128.240
188.78	288.150
189.15	667.558
189.52	-290.877
189.89	-69.458
190.26	-110.564
190.63	-46.391
191.00	-20.686
191.37	-9.769
191.73	5.665
192.10	-5.180
192.47	-8.888
192.84	12.709
193.21	27.803
193.58	4.091
193.94	-13.971
194.31	-1.951
194.68	6.926
195.05	10.024
195.42	-2.369
195.79	-7.960
196.15	8.066
196.52	14.019
196.89	-6.939
197.26	-7.496
197.63	29.544
198.00	25.833
198.36	40.431
198.73	36.514
199.10	22.198
199.47	7.555
199.84	-51.844
200.20	-170.273
200.57	-74.569
200.94	-134.129
201.31	-92.896
201.68	-233.318
202.04	-111.612
202.41	-98.120
202.78	-68.233
203.15	-51.748
203.51	-29.048
203.88	-10.951
204.25	-3.691
204.62	-10.519
204.98	11.938
205.35	8.621
205.72	12.268
206.09	16.937
206.46	10.691
206.82	3.072
207.19	-4.718
207.56	-3.506
207.92	-0.621
208.29	-9.970
208.66	-4.564
209.03	-12.083
209.39	1.340
209.76	-5.688
210.13	-3.434
210.50	3.763
210.86	-6.911
211.23	2.645
211.60	14.947
211.96	-8.858
212.33	13.884
212.70	19.232
213.07	29.038
213.43	16.407
213.80	27.214
214.17	27.527
214.53	34.500
214.90	33.264
215.27	33.710
215.63	26.095
216.00	30.280
216.37	15.821
216.74	14.676
217.10	4.188
217.47	0.547
217.84	-14.625
218.20	-7.728
218.57	-41.793
218.94	-32.337
219.30	-30.252
219.67	-10.331
220.04	-14.337
220.40	6.156
220.77	-4.787
221.13	1.848
221.50	9.090
221.87	10.629
222.23	7.227
222.60	22.606
222.97	21.959
223.33	18.154
223.70	16.570
224.07	18.474
224.43	14.127
224.80	14.305
225.16	14.028
225.53	11.635
225.90	11.905
226.26	9.051
226.63	7.968
226.99	9.768
227.36	10.292
227.73	9.449
228.09	9.055
228.46	9.555
228.82	8.877
229.19	8.719
229.56	7.777
229.92	6.334
230.29	6.851
230.65	5.295
231.02	1.687
231.38	0.764
231.75	0.495
232.12	1.652
232.48	2.466
232.85	2.597
233.21	2.778
233.58	7.111
233.94	7.749
234.31	7.481
234.68	8.180
235.04	8.838
235.41	8.634
235.77	6.602
236.14	3.309
236.50	3.826
236.87	4.242
237.23	4.031
237.60	1.956
237.96	2.851
238.33	4.048
238.69	3.966
239.06	3.684
239.42	3.463
239.79	4.714
240.15	5.484
240.52	5.394
240.88	5.925
241.25	5.841
241.61	6.092
241.98	5.627
242.34	5.314
242.71	5.344
243.07	5.951
243.44	6.336
243.80	6.209
244.17	5.984
244.53	5.668
244.90	5.005
245.26	4.940
245.63	4.773
245.99	4.756
246.36	5.051
246.72	5.215
247.09	4.949
247.45	5.122
247.81	4.931
248.18	5.257
248.54	5.504
248.91	5.878
249.27	5.742
249.64	5.814
250.00	5.875
250.36	5.822
250.73	5.422
251.09	5.496
251.46	5.028
251.82	5.816
252.19	5.315
252.55	5.406
252.91	5.422
253.28	5.288
253.64	5.594
254.01	5.506
254.37	5.295
254.73	5.635
255.10	5.638
255.46	5.558
255.83	5.282
256.19	5.223
256.55	4.654
256.92	4.936
257.28	4.900
257.65	4.720
258.01	4.971
258.37	5.070
258.74	5.050
259.10	5.129
259.46	4.921
259.83	4.803
260.19	5.069
260.55	5.323
260.92	5.263
261.28	5.316
261.64	5.374
262.01	5.356
262.37	5.290
262.73	5.295
263.10	5.035
263.46	5.312
263.82	5.398
264.19	5.129
264.55	5.232
264.91	5.153
265.28	5.211
265.64	5.311
266.00	4.978
266.37	4.942
266.73	4.966
267.09	5.157
267.46	5.248
267.82	5.025
268.18	4.854
268.54	4.549
268.91	4.444
269.27	4.680
269.63	4.819
270.00	4.773
270.36	4.528
270.72	4.231
271.08	4.284
271.45	4.213
271.81	4.058
272.17	4.217
272.53	4.346
272.90	4.494
273.26	4.225
273.62	3.954
273.98	4.023
274.35	4.123
274.71	4.316
275.07	3.991
275.43	4.146
275.80	4.300
276.16	4.130
276.52	4.097
276.88	4.035
277.25	4.403
277.61	4.173
277.97	4.433
278.33	4.366
278.69	4.366
279.06	4.688
279.42	4.629
279.78	4.647
280.14	4.846
280.50	5.083
280.87	5.144
281.23	4.951
281.59	5.071
281.95	5.019
282.31	5.055
282.68	5.126
283.04	5.006
283.40	4.906
283.76	5.036
284.12	5.076
284.48	4.883
284.85	4.581
285.21	4.487
285.57	4.657
285.93	4.531
286.29	4.427
286.65	4.440
287.02	4.407
287.38	4.581
287.74	4.364
288.10	4.329
288.46	4.256
288.82	4.512
289.18	4.535
289.54	4.428
289.91	4.410
290.27	4.695
290.63	4.538
290.99	4.507
291.35	4.426
291.71	4.430
292.07	4.153
292.43	4.569
292.79	4.472
293.16	4.490
293.52	4.415
293.88	4.507
294.24	4.314
294.60	4.369
294.96	4.598
295.32	4.417
295.68	4.481
296.04	4.661
296.40	4.203
296.76	4.293
297.12	4.297
297.49	4.366
297.85	4.289
298.21	4.257
298.57	4.129
298.93	3.943
299.29	3.963
299.65	4.252
300.01	4.253
300.37	4.456
300.73	4.599
301.09	4.649
301.45	4.741
301.81	4.847
302.17	4.915
302.53	4.990
302.89	5.053
303.25	5.240
303.61	5.173
303.97	5.107
304.33	5.132
304.69	4.956
305.05	4.920
305.41	4.715
305.77	4.595
306.13	4.678
306.49	4.606
306.85	4.609
307.21	4.445
307.57	4.468
307.93	4.476
308.29	4.652
308.65	4.680
309.01	4.672
309.37	4.726
309.73	4.797
310.09	4.681
310.45	4.835
310.81	4.858
311.17	4.981
311.53	5.002
311.89	5.000
312.25	4.782
312.61	4.696
312.96	4.616
313.32	4.667
313.68	4.648
314.04	4.654
314.40	4.568
314.76	4.574
315.12	4.493
315.48	4.371
315.84	4.408
316.20	4.585
316.56	4.703
316.92	4.902
317.27	4.846
317.63	4.835
317.99	4.878
318.35	4.958
318.71	4.822
319.07	4.801
319.43	4.727
319.79	4.731
320.15	4.581
320.50	4.648
320.86	4.452
321.22	4.442
321.58	4.455
321.94	4.439
322.30	4.356
322.66	4.562
323.01	4.525
323.37	4.576
323.73	4.635
324.09	4.744
324.45	4.567
324.81	4.477
325.17	4.560
325.52	4.471
325.88	4.406
326.24	4.445
326.60	4.395
326.96	4.441
327.31	4.297
327.67	4.164
328.03	4.133
328.39	4.257
328.75	4.503
329.11	4.498
329.46	4.574
329.82	4.753
330.18	4.757
330.54	4.614
330.90	4.499
331.25	4.578
331.61	4.767
331.97	4.672
332.33	4.557
332.68	4.519
333.04	4.528
333.40	4.610
333.76	4.524
334.11	4.470
334.47	4.446
334.83	4.599
335.19	4.622
335.54	4.418
335.90	4.445
336.26	4.534
336.62	4.449
336.97	4.356
337.33	4.279
337.69	4.396
338.05	4.330
338.40	4.395
338.76	4.350
339.12	4.398
339.48	4.440
339.83	4.488
340.19	4.478
340.55	4.574
340.90	4.587
341.26	4.600
341.62	4.477
341.97	4.599
342.33	4.635
342.69	4.604
343.04	4.568
343.40	4.648
343.76	4.547
344.12	4.604
344.47	4.481
344.83	4.587
345.19	4.536
345.54	4.531
345.90	4.494
346.26	4.492
346.61	4.534
346.97	4.546
347.32	4.433
347.68	4.532
348.04	4.498
348.39	4.643
348.75	4.628
349.11	4.761
349.46	4.808
349.82	4.837
350.18	4.733
350.53	4.688
350.89	4.694
351.24	4.748
351.60	4.715
351.96	4.771
352.31	4.750
352.67	4.703
353.02	4.624
353.38	4.605
353.74	4.629
354.09	4.719
354.45	4.803
354.80	4.745
355.16	4.779
355.52	4.821
355.87	4.780
356.23	4.789
356.58	4.843
356.94	4.832
357.29	4.820
357.65	4.849
358.00	4.865
358.36	4.846
358.72	4.947
359.07	5.008
359.43	4.998
359.78	5.035
360.14	5.027
360.49	5.025
360.85	5.079
361.20	5.156
361.56	5.099
361.91	5.081
362.27	5.006
362.62	5.016
362.98	4.952
363.33	4.945
363.69	4.913
364.04	4.893
364.40	4.905
364.75	4.885
365.11	4.802
365.46	4.819
365.82	4.764
366.17	4.873
366.53	4.843
366.88	4.816
367.24	4.813
367.59	4.792
367.95	4.861
368.30	4.898
368.66	4.919
369.01	4.941
369.37	4.998
369.72	5.116
370.08	5.089
370.43	5.132
370.78	5.123
371.14	5.136
371.49	5.131
371.85	5.092
372.20	5.043
372.56	5.017
372.91	5.071
373.26	5.092
373.62	5.040
373.97	5.086
374.33	5.066
374.68	5.131
375.03	5.187
375.39	5.298
375.74	5.337
376.10	5.382
376.45	5.412
376.80	5.444
377.16	5.484
377.51	5.544
377.87	5.526
378.22	5.573
378.57	5.598
378.93	5.613
379.28	5.614
379.63	5.668
379.99	5.693
380.34	5.812
380.70	5.849
381.05	5.846
381.40	5.889
381.76	5.920
382.11	5.946
382.46	6.008
382.82	6.055
383.17	6.072
383.52	6.075
383.88	6.109
384.23	6.048
384.58	6.067
384.94	6.063
385.29	6.064
385.64	6.101
385.99	6.143
386.35	6.140
386.70	6.174
387.05	6.183
387.41	6.218
387.76	6.186
388.11	6.239
388.47	6.228
388.82	6.324
389.17	6.335
389.52	6.336
389.88	6.318
390.23	6.355
390.58	6.348
390.93	6.401
391.29	6.406
391.64	6.484
391.99	6.490
392.34	6.537
392.70	6.465
393.05	6.445
393.40	6.498
393.75	6.536
394.11	6.530
394.46	6.540
394.81	6.522
395.16	6.538
395.52	6.542
395.87	6.546
396.22	6.554
396.57	6.607
396.92	6.630
397.28	6.655
397.63	6.658
397.98	6.681
398.33	6.660
398.68	6.667
399.04	6.669
399.39	6.641
399.74	6.672
400.09	6.692
400.44	6.714
400.80	6.787
401.15	6.779
401.50	6.806
401.85	6.814
402.20	6.868
402.55	6.886
402.90	6.916
403.26	6.973
403.61	6.982
403.96	6.977
404.31	6.999
404.66	7.008
405.01	7.080
405.36	7.106
405.72	7.136
406.07	7.167
406.42	7.182
406.77	7.202
407.12	7.204
407.47	7.229
407.82	7.271
408.17	7.279
408.53	7.277
408.88	7.246
409.23	7.235
409.58	7.256
409.93	7.276
410.28	7.298
410.63	7.283
410.98	7.284
411.33	7.312
411.68	7.336
412.03	7.394
412.38	7.420
412.73	7.453
413.09	7.519
413.44	7.540
413.79	7.573
414.14	7.614
414.49	7.665
414.84	7.713
415.19	7.732
415.54	7.757
415.89	7.761
416.24	7.813
416.59	7.827
416.94	7.835
417.29	7.852
417.64	7.892
417.99	7.902
418.34	7.920
418.69	7.953
419.04	7.993
419.39	8.031
419.74	8.056
420.09	8.071
420.44	8.099
420.79	8.109
421.14	8.143
421.49	8.167
421.84	8.205
422.19	8.228
422.54	8.240
422.89	8.244
423.24	8.235
423.59	8.230
423.94	8.218
424.29	8.219
424.64	8.223
424.99	8.228
425.34	8.218
425.68	8.197
426.03	8.217
426.38	8.220
426.73	8.241
427.08	8.286
427.43	8.327
427.78	8.353
428.13	8.405
428.48	8.476
428.83	8.526
429.18	8.566
429.53	8.637
429.87	8.680
430.22	8.713
430.57	8.732
430.92	8.749
431.27	8.783
431.62	8.823
431.97	8.844
432.32	8.867
432.67	8.866
433.01	8.852
433.36	8.847
433.71	8.859
434.06	8.873
434.41	8.896
434.76	8.923
435.11	8.951
435.45	8.989
435.80	9.010
436.15	9.037
436.50	9.052
436.85	9.106
437.20	9.145
437.54	9.157
437.89	9.185
438.24	9.203
438.59	9.198
438.94	9.198
439.29	9.192
439.63	9.194
439.98	9.205
440.33	9.224
440.68	9.219
441.03	9.233
441.37	9.272
441.72	9.296
442.07	9.310
442.42	9.347
442.76	9.383
443.11	9.415
443.46	9.439
443.81	9.455
444.16	9.478
444.50	9.507
444.85	9.502
445.20	9.495
445.55	9.479
445.89	9.495
446.24	9.490
446.59	9.468
446.94	9.460
447.28	9.456
447.63	9.451
447.98	9.452
448.32	9.428
448.67	9.432
449.02	9.447
449.37	9.460
449.71	9.463
450.06	9.500
450.41	9.524
450.75	9.550
451.10	9.564
451.45	9.568
451.79	9.579
452.14	9.608
452.49	9.636
452.84	9.632
453.18	9.673
453.53	9.685
453.88	9.701
454.22	9.722
454.57	9.722
454.92	9.739
455.26	9.775
455.61	9.807
455.95	9.836
456.30	9.874
456.65	9.899
456.99	9.911
457.34	9.938
457.69	9.955
458.03	9.971
458.38	9.995
458.73	10.018
459.07	10.029
459.42	10.037
459.76	10.023
460.11	10.002
460.46	10.022
460.80	10.022
461.15	10.007
461.49	9.997
461.84	10.006
462.19	10.027
462.53	10.051
462.88	10.063
463.22	10.056
463.57	10.112
463.91	10.144
464.26	10.149
464.61	10.167
464.95	10.210
465.30	10.248
465.64	10.276
465.99	10.279
466.33	10.307
466.68	10.313
467.02	10.339
467.37	10.336
467.71	10.309
468.06	10.330
468.41	10.348
468.75	10.347
469.10	10.342
469.44	10.334
469.79	10.348
470.13	10.336
470.48	10.359
470.82	10.372
471.17	10.368
471.51	10.398
471.86	10.375
472.20	10.376
472.55	10.397
472.89	10.388
473.23	10.381
473.58	10.373
473.92	10.366
474.27	10.367
474.61	10.351
474.96	10.369
475.30	10.383
475.65	10.394
475.99	10.414
476.34	10.421
476.68	10.457
477.02	10.486
477.37	10.510
477.71	10.535
478.06	10.570
478.40	10.645
478.75	10.752
479.09	10.881
479.43	11.047
479.78	11.205
480.12	11.363
480.47	11.537
480.81	11.703
481.15	11.896
481.50	12.073
481.84	12.271
482.19	12.503
482.53	12.706
482.87	12.851
483.22	12.879
483.56	12.808
483.90	12.662
484.25	12.451
484.59	12.226
484.94	12.066
485.28	11.938
485.62	11.772
485.97	11.548
486.31	11.334
486.65	11.173
487.00	11.109
487.34	11.149
487.68	11.256
488.03	11.393
488.37	11.562
488.71	11.627
489.06	11.637
489.40	11.624
489.74	11.639
490.09	11.648
490.43	11.648
490.77	11.631
491.11	11.610
491.46	11.567
491.80	11.570
492.14	11.546
492.49	11.512
492.83	11.490
493.17	11.491
493.51	11.469
493.86	11.439
494.20	11.429
494.54	11.463
494.88	11.495
495.23	11.551
495.57	11.566
495.91	11.600
496.25	11.624
496.60	11.659
496.94	11.674
497.28	11.699
497.62	11.716
497.97	11.736
498.31	11.748
498.65	11.756
498.99	11.778
499.33	11.809
499.68	11.826
500.02	11.852
500.36	11.851
500.70	11.886
501.04	11.909
501.39	11.942
501.73	11.964
502.07	11.988
502.41	12.008
502.75	12.055
503.09	12.078
503.44	12.120
503.78	12.156
504.12	12.203
504.46	12.238
504.80	12.280
505.14	12.305
505.49	12.356
505.83	12.413
506.17	12.446
506.51	12.464
506.85	12.508
507.19	12.533
507.53	12.564
507.87	12.589
508.22	12.617
508.56	12.647
508.90	12.693
509.24	12.696
509.58	12.708
509.92	12.716
510.26	12.752
510.60	12.777
510.94	12.811
511.28	12.837
511.63	12.876
511.97	12.920
512.31	12.950
512.65	12.975
512.99	13.026
513.33	13.059
513.67	13.132
514.01	13.184
514.35	13.237
514.69	13.291
515.03	13.358
515.37	13.405
515.71	13.441
516.05	13.494
516.39	13.563
516.73	13.616
517.07	13.662
517.41	13.696
517.75	13.713
518.09	13.725
518.43	13.743
518.77	13.739
519.11	13.762
519.45	13.770
519.79	13.763
520.13	13.770
520.47	13.780
520.81	13.794
521.15	13.845
521.49	13.896
521.83	13.947
522.17	13.988
522.51	14.078
522.85	14.152
523.19	14.270
523.53	14.436
523.87	14.601
524.21	14.779
524.55	14.958
524.89	15.098
525.23	15.232
525.57	15.353
525.91	15.481
526.25	15.577
526.58	15.671
526.92	15.750
527.26	15.809
527.60	15.838
527.94	15.854
528.28	15.850
528.62	15.845
528.96	15.844
529.30	15.840
529.64	15.819
529.97	15.818
530.31	15.805
530.65	15.796
530.99	15.778
531.33	15.774
531.67	15.792
532.01	15.822
532.35	15.842
532.68	15.857
533.02	15.874
533.36	15.892
533.70	15.887
534.04	15.890
534.38	15.893
534.71	15.905
535.05	15.913
535.39	15.908
535.73	15.918
536.07	15.961
536.41	16.031
536.74	16.117
537.08	16.220
537.42	16.352
537.76	16.465
538.10	16.602
538.43	16.713
538.77	16.833
539.11	16.945
539.45	17.040
539.79	17.124
540.12	17.179
540.46	17.214
540.80	17.248
541.14	17.253
541.47	17.266
541.81	17.258
542.15	17.266
542.49	17.254
542.82	17.245
543.16	17.246
543.50	17.248
543.84	17.246
544.17	17.289
544.51	17.307
544.85	17.336
545.18	17.375
545.52	17.411
545.86	17.442
546.20	17.476
546.53	17.497
546.87	17.514
547.21	17.529
547.54	17.562
547.88	17.588
548.22	17.619
548.55	17.676
548.89	17.751
549.23	17.825
549.56	17.860
549.90	17.944
550.24	18.032
550.57	18.091
550.91	18.164
551.25	18.228
551.58	18.289
551.92	18.374
552.26	18.402
552.59	18.438
552.93	18.465
553.27	18.557
553.60	18.601
553.94	18.656
554.27	18.736
554.61	18.800
554.95	18.883
555.28	18.923
555.62	18.953
555.95	19.061
556.29	19.119
556.63	19.190
556.96	19.218
557.30	19.310
557.63	19.360
557.97	19.404
558.31	19.443
558.64	19.476
558.98	19.554
559.31	19.628
559.65	19.652
559.98	19.713
560.32	19.752
560.65	19.823
560.99	19.862
561.33	19.897
561.66	19.947
562.00	20.012
562.33	20.079
562.67	20.129
563.00	20.182
563.34	20.248
563.67	20.302
564.01	20.365
564.34	20.404
564.68	20.449
565.01	20.508
565.35	20.563
565.68	20.624
566.02	20.648
566.35	20.704
566.69	20.754
567.02	20.816
567.36	20.872
567.69	20.951
568.03	21.023
568.36	21.084
568.69	21.160
569.03	21.192
569.36	21.238
569.70	21.318
570.03	21.365
570.37	21.420
570.70	21.445
571.04	21.482
571.37	21.493
571.70	21.516
572.04	21.562
572.37	21.604
572.71	21.676
573.04	21.717
573.37	21.766
573.71	21.825
574.04	21.859
574.38	21.908
574.71	21.983
575.04	22.069
575.38	22.126
575.71	22.186
576.05	22.208
576.38	22.270
576.71	22.322
577.05	22.350
577.38	22.401
577.71	22.462
578.05	22.508
578.38	22.525
578.71	22.569
579.05	22.644
579.38	22.644
579.71	22.731
580.05	22.763
580.38	22.801
580.71	22.862
581.05	22.899
581.38	22.931
581.71	22.986
582.05	23.017
582.38	23.041
582.71	23.084
583.04	23.197
583.38	23.236
583.71	23.315
584.04	23.380
584.38	23.447
584.71	23.466
585.04	23.535
585.37	23.605
585.71	23.680
586.04	23.739
586.37	23.764
586.70	23.805
587.04	23.856
587.37	23.902
587.70	23.949
588.03	23.993
588.37	24.087
588.70	24.157
589.03	24.184
589.36	24.227
589.69	24.262
590.03	24.329
590.36	24.342
590.69	24.380
591.02	24.400
591.35	24.439
591.69	24.434
592.02	24.458
592.35	24.516
592.68	24.550
593.01	24.584
593.35	24.624
593.68	24.690
594.01	24.757
594.34	24.787
594.67	24.827
595.00	24.873
595.34	24.948
595.67	24.991
596.00	24.972
596.33	25.018
596.66	25.046
596.99	25.090
597.32	25.101
597.65	25.117
597.99	25.157
598.32	25.206
598.65	25.226
598.98	25.241
599.31	25.252
599.64	25.328
599.97	25.369
600.30	25.439
600.63	25.454
600.96	25.478
601.30	25.504
601.63	25.497
601.96	25.468
602.29	25.529
602.62	25.582
602.95	25.638
603.28	25.665
603.61	25.698
603.94	25.718
604.27	25.763
604.60	25.789
604.93	25.816
605.26	25.867
605.59	25.948
605.92	25.979
606.25	25.979
606.58	25.967
606.91	26.007
607.24	26.018
607.57	26.046
607.90	26.080
608.23	26.128
608.56	26.195
608.89	26.262
609.22	26.304
609.55	26.335
609.88	26.389
610.21	26.448
610.54	26.478
610.87	26.546
611.20	26.627
611.53	26.686
611.86	26.745
612.19	26.760
612.52	26.796
612.85	26.798
613.18	26.805
613.51	26.862
613.84	26.917
614.17	26.988
614.49	27.034
614.82	27.004
615.15	27.053
615.48	27.084
615.81	27.091
616.14	27.151
616.47	27.247
616.80	27.280
617.13	27.302
617.46	27.350
617.78	27.316
618.11	27.359
618.44	27.422
618.77	27.444
619.10	27.458
619.43	27.493
619.76	27.466
620.09	27.464
620.41	27.486
620.74	27.507
621.07	27.484
621.40	27.541
621.73	27.538
622.06	27.567
622.38	27.559
622.71	27.609
623.04	27.637
623.37	27.684
623.70	27.721
624.02	27.760
624.35	27.763
624.68	27.805
625.01	27.813
625.34	27.827
625.66	27.832
625.99	27.848
626.32	27.832
626.65	27.865
626.98	27.883
627.30	27.871
627.63	27.882
627.96	27.918
628.29	27.954
628.61	27.983
628.94	27.992
629.27	27.997
629.60	28.011
629.92	28.038
630.25	28.069
630.58	28.045
630.91	28.064
631.23	28.077
631.56	28.049
631.89	28.054
632.21	28.039
632.54	28.103
632.87	28.168
633.19	28.197
633.52	28.202
633.85	28.206
634.18	28.252
634.50	28.304
634.83	28.324
635.16	28.418
635.48	28.434
635.81	28.465
636.14	28.430
636.46	28.413
636.79	28.415
637.11	28.412
637.44	28.441
637.77	28.398
638.09	28.359
638.42	28.341
638.75	28.288
639.07	28.288
639.40	28.291
639.73	28.257
640.05	28.243
640.38	28.290
640.70	28.380
641.03	28.378
641.36	28.397
641.68	28.455
642.01	28.496
642.33	28.569
642.66	28.616
642.98	28.615
643.31	28.731
643.64	28.798
643.96	28.783
644.29	28.731
644.61	28.766
644.94	28.871
645.26	28.875
645.59	28.857
645.91	28.889
646.24	28.916
646.56	28.977
646.89	28.940
647.22	28.950
647.54	28.995
647.87	29.014
648.19	29.016
648.52	28.973
648.84	29.008
649.17	29.067
649.49	29.012
649.82	28.972
650.14	28.926
650.47	28.924
650.79	28.861
651.11	28.827
651.44	28.821
651.76	28.825
652.09	28.820
652.41	28.776
652.74	28.769
653.06	28.812
653.39	28.863
653.71	28.890
654.04	28.841
654.36	28.853
654.68	28.871
655.01	28.881
655.33	28.878
655.66	28.889
655.98	28.853
656.30	28.842
656.63	28.808
656.95	28.782
657.28	28.824
657.60	28.820
657.92	28.839
658.25	28.832
658.57	28.851
658.90	28.817
659.22	28.814
659.54	28.852
659.87	28.806
660.19	28.768
660.51	28.751
660.84	28.723
661.16	28.800
661.48	28.752
661.81	28.677
662.13	28.629
662.45	28.639
662.78	28.627
663.10	28.590
663.42	28.603
663.75	28.655
664.07	28.680
664.39	28.642
664.72	28.621
665.04	28.660
665.36	28.743
665.69	28.779
666.01	28.805
666.33	28.795
666.65	28.791
666.98	28.746
667.30	28.716
667.62	28.707
667.94	28.697
668.27	28.658
668.59	28.600
668.91	28.551
669.23	28.454
669.56	28.387
669.88	28.427
670.20	28.429
670.52	28.455
670.85	28.460
671.17	28.427
671.49	28.416
671.81	28.403
672.13	28.489
672.46	28.525
672.78	28.561
673.10	28.581
673.42	28.571
673.74	28.589
674.07	28.614
674.39	28.542
674.71	28.498
675.03	28.521
675.35	28.491
675.67	28.393
676.00	28.346
676.32	28.368
676.64	28.326
676.96	28.270
677.28	28.287
677.60	28.249
677.92	28.323
678.25	28.400
678.57	28.414
678.89	28.477
679.21	28.548
679.53	28.573
679.85	28.591
680.17	28.576
680.49	28.591
680.81	28.574
681.13	28.589
681.46	28.540
681.78	28.488
682.10	28.447
682.42	28.484
682.74	28.463
683.06	28.518
683.38	28.522
683.70	28.554
684.02	28.600
684.34	28.571
684.66	28.691
684.98	28.730
685.30	28.710
685.62	28.777
685.94	28.787
686.26	28.760
686.58	28.677
686.90	28.694
687.22	28.715
687.54	28.729
687.86	28.753
688.18	28.579
688.50	28.487
688.82	28.508
689.14	28.427
689.46	28.313
689.78	28.287
690.10	28.249
690.42	28.126
690.74	28.000
691.06	27.854
691.38	27.786
691.70	27.767
692.02	27.815
692.34	27.738
692.66	27.659
692.98	27.550
693.30	27.499
693.62	27.528
693.94	27.554
694.26	27.639
694.57	27.661
694.89	27.657
695.21	27.756
695.53	27.765
695.85	27.705
696.17	27.690
696.49	27.770
696.81	27.814
697.13	27.798
697.44	27.781
697.76	27.796
698.08	27.767
698.40	27.744
698.72	27.591
699.04	27.502
699.36	27.507
699.67	27.462
699.99	27.351
700.31	27.214
700.63	27.017
700.95	26.911
701.27	26.688
701.58	26.571
701.90	26.357
702.22	26.296
702.54	26.185
702.86	26.135
703.17	25.990
703.49	25.950
703.81	25.886
704.13	25.898
704.45	25.837
704.76	25.911
705.08	25.868
705.40	25.914
705.72	26.002
706.03	26.007
706.35	25.901
706.67	25.956
706.99	25.932
707.30	25.894
707.62	25.943
707.94	25.983
708.26	25.944
708.57	25.993
708.89	26.018
709.21	25.922
709.53	25.909
709.84	25.908
710.16	25.880
710.48	25.895
710.79	25.899
711.11	25.899
711.43	25.894
711.74	25.951
712.06	25.873
712.38	25.870
712.69	25.924
713.01	25.940
713.33	26.002
713.64	26.104
713.96	26.103
714.28	26.143
714.59	26.094
714.91	26.065
715.23	26.076
715.54	26.139
715.86	26.219
716.17	26.229
716.49	26.262
716.81	26.136
717.12	26.077
717.44	25.975
717.76	26.000
718.07	25.975
718.39	25.922
718.70	25.758
719.02	25.597
719.33	25.427
719.65	25.226
719.97	24.980
720.28	24.992
720.60	24.983
720.91	24.980
721.23	24.794
721.54	24.641
721.86	24.577
722.17	24.483
722.49	24.620
722.81	24.588
723.12	24.683
723.44	24.761
723.75	24.772
724.07	24.746
724.38	24.773
724.70	24.707
725.01	24.826
725.33	24.818
725.64	24.888
725.96	24.773
726.27	24.909
726.59	24.876
726.90	24.915
727.22	24.924
727.53	24.856
727.84	24.863
728.16	24.930
728.47	24.883
728.79	24.894
729.10	24.623
729.42	24.551
729.73	24.393
730.05	24.301
730.36	24.176
730.67	24.063
730.99	23.950
731.30	23.828
731.62	23.763
731.93	23.604
732.24	23.607
732.56	23.700
732.87	23.597
733.19	23.417
733.50	23.269
733.81	23.102
734.13	22.852
734.44	22.700
734.76	22.511
735.07	22.404
735.38	22.351
735.70	21.873
736.01	21.773
736.32	21.635
736.64	21.476
736.95	21.382
737.26	21.230
737.58	21.168
737.89	21.007
738.20	20.936
738.52	20.673
738.83	20.503
739.14	20.430
739.45	20.262
739.77	20.189
740.08	20.164
740.39	19.981
740.71	19.920
741.02	19.756
741.33	19.684
741.64	19.294
741.96	19.246
742.27	19.077
742.58	19.049
742.90	18.854
743.21	18.614
743.52	18.273
743.83	18.169
744.14	17.811
744.46	18.062
744.77	17.900
745.08	18.032
745.39	18.065
745.71	18.027
746.02	17.748
746.33	17.805
746.64	17.829
746.95	17.951
747.27	18.023
747.58	18.239
747.89	17.874
748.20	17.861
748.51	17.656
748.82	17.324
749.14	17.299
749.45	17.386
749.76	17.088
750.07	17.079
750.38	17.059
750.69	16.916
751.01	17.027
751.32	17.000
751.63	16.877
751.94	17.126
752.25	17.291
752.56	17.262
752.87	17.400
753.18	17.588
753.49	17.423
753.81	17.368
754.12	17.429
754.43	17.224
754.74	17.504
755.05	17.919
755.36	18.062
755.67	18.501
755.98	18.917
756.29	19.307
756.60	19.907
756.91	20.524
757.22	21.101
757.53	21.501
757.84	22.173
758.15	22.456
758.46	22.644
758.77	23.010
759.09	23.267
759.40	23.517
759.71	23.816
760.02	23.848
760.33	24.102
760.64	24.057
760.95	24.145
761.26	24.072
761.57	24.122
761.88	24.102
762.18	23.929
762.49	23.664
762.80	23.536
763.11	23.195
763.42	22.846
763.73	22.379
764.04	22.038
764.35	21.678
764.66	21.235
764.97	20.705
765.28	20.208
765.59	19.615
765.90	19.037
766.21	18.333
766.52	17.754
766.83	17.164
767.14	16.568
767.44	16.049
767.75	15.518
768.06	15.096
768.37	14.711
768.68	14.540
768.99	14.485
769.30	14.432
769.61	14.293
769.91	14.159
770.22	14.052
770.53	14.062
770.84	13.950
771.15	13.605
771.46	13.534
771.77	13.480
772.07	13.116
772.38	12.894
772.69	12.671
773.00	12.355
773.31	12.298
773.61	12.221
773.92	12.465
774.23	12.376
774.54	12.583
774.85	12.620
775.15	12.371
775.46	12.233
775.77	12.240
776.08	11.960
776.39	11.942
776.69	12.013
777.00	12.092
777.31	11.933
777.62	12.221
777.92	11.928
778.23	11.914
778.54	11.886
778.85	11.840
779.15	11.980
779.46	12.007
779.77	11.923
780.07	11.726
780.38	11.746
780.69	11.284
781.00	11.134
781.30	11.286
781.61	11.065
781.92	11.302
782.22	11.664
782.53	11.392
782.84	11.645
783.14	12.031
783.45	12.078
783.76	12.582
784.06	12.748
784.37	12.902
784.68	13.372
784.98	13.907
785.29	14.027
785.60	14.194
785.90	14.654
786.21	15.056
786.51	15.231
786.82	15.351
787.13	15.330
787.43	15.459
787.74	15.643
788.04	15.257
788.35	15.293
788.66	15.207
788.96	15.023
789.27	14.643
789.57	14.282
789.88	14.022
790.19	14.015
790.49	13.673
790.80	13.924
791.10	13.732
791.41	14.083
791.71	13.745
792.02	14.074
792.32	14.102
792.63	14.300
792.93	14.388
793.24	14.735
793.54	14.852
793.85	15.084
794.15	14.919
794.46	15.070
794.76	14.817
795.07	14.954
795.37	15.149
795.68	15.496
795.98	15.325
796.29	15.338
796.59	15.293
796.90	15.420
797.20	15.261
797.51	15.285
797.81	15.060
798.12	14.937
798.42	14.781
798.72	14.014
799.03	13.819
799.33	14.010
799.64	13.943
799.94	13.797
800.25	13.644
800.55	13.608
800.85	13.410
801.16	13.704
801.46	14.066
801.77	14.176
802.07	15.284
802.37	15.360
802.68	15.411
802.98	15.759
803.28	15.267
803.59	15.135
803.89	14.780
804.20	15.149
804.50	14.740
804.80	14.578
805.11	14.572
805.41	14.103
805.71	13.826
806.02	13.786
806.32	13.620
806.62	14.133
806.93	14.294
807.23	15.014
807.53	14.834
807.83	15.384
808.14	15.754
808.44	15.934
808.74	15.465
809.05	15.226
809.35	15.417
809.65	15.483
809.95	15.469
810.26	15.804
810.56	15.255
810.86	15.423
811.16	15.182
811.47	15.123
811.77	15.472
812.07	16.151
812.37	16.795
812.68	17.118
812.98	17.596
813.28	17.396
813.58	17.097
813.88	17.606
814.19	18.221
814.49	18.365
814.79	18.485
815.09	18.576
815.39	18.558
815.70	18.720
816.00	18.673
816.30	18.821
816.60	18.948
816.90	19.445
817.20	20.211
817.50	20.061
817.81	20.409
818.11	21.044
818.41	21.250
818.71	21.618
819.01	21.890
819.31	22.034
819.61	22.120
819.92	22.319
820.22	22.394
820.52	22.395
820.82	22.387
821.12	22.413
821.42	22.451
821.72	22.495
822.02	22.428
822.32	22.390
822.62	22.387
822.92	22.370
823.22	22.322
823.52	22.276
823.83	22.122
824.13	22.095
824.43	21.960
824.73	21.814
825.03	21.612
825.33	21.452
825.63	21.282
825.93	21.210
826.23	21.004
826.53	20.894
826.83	20.668
827.13	20.583
827.43	20.469
827.73	20.523
828.03	20.060
828.33	19.828
828.63	19.517
828.93	19.358
829.23	18.836
829.53	18.434
829.83	18.161
830.13	18.425
830.42	18.240
830.72	18.325
831.02	18.365
831.32	18.582
831.62	18.873
831.92	19.304
832.22	19.256
832.52	19.508
832.82	19.786
833.12	19.914
833.42	19.423
833.72	19.657
834.01	19.945
834.31	19.938
834.61	19.983
834.91	19.873
835.21	19.556
835.51	19.524
835.81	19.134
836.11	18.919
836.40	18.434
836.70	18.821
837.00	18.329
837.30	17.878
837.60	17.575
837.90	16.764
838.19	16.022
838.49	15.465
838.79	15.220
839.09	15.029
839.39	14.128
839.68	13.971
839.98	12.962
840.28	13.070
840.58	11.421
840.88	10.989
841.17	11.273
841.47	11.346
841.77	11.706
842.07	11.925
842.36	10.920
842.66	9.983
842.96	9.163
843.26	8.008
843.55	6.327
843.85	7.127
844.15	7.064
844.45	6.296
844.74	5.414
845.04	3.882
845.34	3.162
845.63	4.922
845.93	5.887
846.23	5.981
846.53	7.321
846.82	7.970
847.12	8.472
847.42	7.807
847.71	7.577
848.01	9.479
848.31	10.185
848.60	9.276
848.90	7.604
849.19	7.650
849.49	8.274
849.79	9.401
850.08	9.848
850.38	10.303
850.68	9.335
850.97	9.163
851.27	8.161
851.56	9.632
851.86	9.988
852.16	11.233
852.45	11.148
852.75	13.148
853.04	11.405
853.34	9.330
853.64	10.086
853.93	10.821
854.23	12.080
854.52	12.926
854.82	12.304
855.11	12.490
855.41	12.196
855.70	14.529
856.00	11.758
856.30	12.662
856.59	14.093
856.89	13.771
857.18	13.129
857.48	14.308
857.77	11.646
858.07	9.895
858.36	10.116
858.66	10.694
858.95	8.452
859.25	10.480
859.54	11.533
859.84	9.667
860.13	6.572
860.42	7.313
860.72	5.559
861.01	6.705
861.31	6.470
861.60	5.999
861.90	6.899
862.19	8.905
862.49	6.465
862.78	5.646
863.07	6.452
863.37	7.588
863.66	7.070
863.96	6.996
864.25	8.298
864.54	10.748
864.84	11.744
865.13	10.903
865.43	9.756
865.72	19.184
866.01	18.795
866.31	17.925
866.60	12.071
866.89	7.864
>>>>>End Spectral Data<<<<<
