OOIBase32 Version 2.0.0.6 Data File
++++++++++++++++++++++++++++++++++++
Date: 01-19-2012, 15:27:03
User: Valued Ocean Optics Customer
Spectrometer Serial Number: USB2E2917
Spectrometer Channel: Master
Integration Time (msec): 5
Spectra Averaged: 10
Boxcar Smoothing: 5
Correct for Electrical Dark: Enabled
Time Normalized: Disabled
Dual-beam Reference: Disabled
Reference Channel: Master
Temperature: Not acquired
Spectrometer Type: S2000
ADC Type: USB2000
Number of Pixels in File: 2048
Graph Title: 
>>>>>Begin Spectral Data<<<<<
180.30	0.000
180.67	0.000
181.03	7057.803
181.40	17.564
181.77	38.940
182.14	54.439
182.51	379.857
182.88	26.408
183.25	4.829
183.62	89.235
183.99	-464.590
184.36	10.312
184.73	924.500
185.10	200.252
185.46	141.028
185.83	124.251
186.20	212.012
186.57	14.667
186.94	-1466.261
187.31	-64.998
187.68	-416.877
188.05	-183.704
188.42	-156.882
188.78	-129.211
189.15	-47.302
189.52	-58.014
189.89	1.014
190.26	39.528
190.63	49.054
191.00	47.387
191.37	38.400
191.73	31.107
192.10	20.560
192.47	0.845
192.84	-4.409
193.21	-2.385
193.58	-0.504
193.94	-30.592
194.31	-52.947
194.68	-48.645
195.05	-42.293
195.42	-43.662
195.79	-30.969
196.15	4.155
196.52	26.231
196.89	15.188
197.26	-0.343
197.63	-6.849
198.00	16.800
198.36	27.312
198.73	34.612
199.10	20.813
199.47	29.381
199.84	24.656
200.20	13.972
200.57	6.034
200.94	25.306
201.31	14.586
201.68	18.623
202.04	14.760
202.41	2.152
202.78	-23.335
203.15	-10.418
203.51	-12.375
203.88	-33.976
204.25	-24.465
204.62	-28.512
204.98	-65.048
205.35	-71.195
205.72	-42.669
206.09	-80.247
206.46	-62.731
206.82	-61.863
207.19	-50.632
207.56	-43.080
207.92	-25.431
208.29	-52.347
208.66	-56.286
209.03	-54.209
209.39	-27.422
209.76	-72.869
210.13	-60.207
210.50	-41.985
210.86	-40.921
211.23	-31.791
211.60	-55.117
211.96	-61.459
212.33	-25.446
212.70	-59.582
213.07	-41.504
213.43	-34.630
213.80	-20.268
214.17	-30.012
214.53	-30.043
214.90	-19.805
215.27	-39.921
215.63	-32.437
216.00	-36.434
216.37	-66.161
216.74	-23.908
217.10	-16.147
217.47	-25.230
217.84	-20.897
218.20	-6.193
218.57	-12.636
218.94	-7.413
219.30	-4.221
219.67	-8.110
220.04	-1.360
220.40	8.754
220.77	7.513
221.13	4.416
221.50	9.331
221.87	11.365
222.23	2.694
222.60	-1.618
222.97	-4.830
223.33	-0.882
223.70	-0.681
224.07	-1.314
224.43	-4.232
224.80	-1.679
225.16	-1.943
225.53	-1.924
225.90	-2.123
226.26	-1.248
226.63	0.975
226.99	0.672
227.36	0.604
227.73	1.252
228.09	2.095
228.46	2.444
228.82	3.130
229.19	3.534
229.56	3.405
229.92	3.176
230.29	4.285
230.65	3.315
231.02	4.608
231.38	5.625
231.75	4.841
232.12	3.274
232.48	2.911
232.85	2.740
233.21	2.781
233.58	2.994
233.94	3.833
234.31	3.954
234.68	5.293
235.04	5.440
235.41	5.071
235.77	6.045
236.14	6.817
236.50	6.676
236.87	5.871
237.23	5.109
237.60	4.309
237.96	3.912
238.33	3.748
238.69	3.796
239.06	3.783
239.42	3.565
239.79	3.203
240.15	4.091
240.52	4.434
240.88	4.652
241.25	5.367
241.61	5.702
241.98	5.958
242.34	5.690
242.71	5.481
243.07	5.026
243.44	4.996
243.80	4.817
244.17	4.410
244.53	4.301
244.90	4.363
245.26	3.927
245.63	4.090
245.99	3.901
246.36	4.228
246.72	4.082
247.09	4.358
247.45	4.406
247.81	5.244
248.18	5.493
248.54	5.803
248.91	5.916
249.27	6.249
249.64	5.996
250.00	6.178
250.36	6.068
250.73	6.373
251.09	6.241
251.46	6.293
251.82	5.596
252.19	5.010
252.55	4.318
252.91	4.052
253.28	3.949
253.64	4.118
254.01	4.051
254.37	4.134
254.73	4.506
255.10	4.639
255.46	4.720
255.83	4.602
256.19	4.632
256.55	5.033
256.92	4.780
257.28	4.829
257.65	4.727
258.01	4.843
258.37	4.581
258.74	4.454
259.10	4.415
259.46	4.246
259.83	4.026
260.19	4.215
260.55	4.038
260.92	4.223
261.28	4.072
261.64	4.095
262.01	3.978
262.37	4.084
262.73	3.543
263.10	3.183
263.46	2.927
263.82	3.142
264.19	3.059
264.55	3.317
264.91	3.141
265.28	3.535
265.64	3.440
266.00	3.666
266.37	3.772
266.73	4.200
267.09	4.446
267.46	4.881
267.82	5.018
268.18	4.953
268.54	4.762
268.91	5.002
269.27	4.676
269.63	4.811
270.00	4.415
270.36	4.540
270.72	4.459
271.08	4.503
271.45	4.288
271.81	4.034
272.17	4.019
272.53	4.089
272.90	3.946
273.26	4.014
273.62	3.932
273.98	4.041
274.35	3.823
274.71	3.723
275.07	3.443
275.43	3.541
275.80	3.705
276.16	3.381
276.52	3.137
276.88	3.156
277.25	3.152
277.61	3.171
277.97	3.333
278.33	3.463
278.69	3.498
279.06	3.652
279.42	3.717
279.78	3.590
280.14	3.902
280.50	4.187
280.87	4.116
281.23	3.874
281.59	3.660
281.95	3.499
282.31	3.291
282.68	3.434
283.04	3.332
283.40	3.341
283.76	3.401
284.12	3.471
284.48	3.374
284.85	3.405
285.21	3.496
285.57	3.618
285.93	3.715
286.29	3.909
286.65	3.789
287.02	3.795
287.38	3.578
287.74	3.667
288.10	3.558
288.46	3.692
288.82	3.573
289.18	3.471
289.54	3.421
289.91	3.424
290.27	3.366
290.63	3.366
290.99	3.710
291.35	4.092
291.71	3.988
292.07	4.067
292.43	3.984
292.79	4.259
293.16	4.667
293.52	5.057
293.88	5.054
294.24	5.267
294.60	5.443
294.96	5.562
295.32	5.631
295.68	5.819
296.04	5.925
296.40	6.091
296.76	6.218
297.12	6.316
297.49	6.289
297.85	6.528
298.21	6.717
298.57	7.032
298.93	7.297
299.29	7.366
299.65	7.702
300.01	7.957
300.37	8.150
300.73	8.399
301.09	8.412
301.45	8.624
301.81	8.668
302.17	8.726
302.53	8.597
302.89	8.789
303.25	9.049
303.61	9.410
303.97	9.599
304.33	9.898
304.69	9.871
305.05	10.310
305.41	10.448
305.77	10.441
306.13	10.543
306.49	10.644
306.85	10.457
307.21	10.457
307.57	10.255
307.93	10.090
308.29	9.962
308.65	10.067
309.01	9.891
309.37	9.922
309.73	10.061
310.09	10.152
310.45	10.306
310.81	10.267
311.17	10.294
311.53	10.192
311.89	10.242
312.25	10.231
312.61	10.155
312.96	10.248
313.32	10.243
313.68	10.252
314.04	10.114
314.40	9.923
314.76	10.073
315.12	9.924
315.48	9.917
315.84	9.835
316.20	9.770
316.56	9.699
316.92	9.399
317.27	9.263
317.63	9.087
317.99	9.027
318.35	9.117
318.71	8.902
319.07	8.808
319.43	8.713
319.79	8.709
320.15	8.692
320.50	8.574
320.86	8.493
321.22	8.357
321.58	8.240
321.94	8.084
322.30	7.807
322.66	7.651
323.01	7.626
323.37	7.390
323.73	7.221
324.09	7.031
324.45	6.859
324.81	6.830
325.17	6.563
325.52	6.460
325.88	6.290
326.24	6.111
326.60	6.060
326.96	5.741
327.31	5.769
327.67	5.595
328.03	5.462
328.39	5.479
328.75	5.341
329.11	5.351
329.46	5.493
329.82	5.532
330.18	5.699
330.54	5.590
330.90	5.732
331.25	5.704
331.61	5.928
331.97	6.030
332.33	6.047
332.68	6.093
333.04	6.223
333.40	6.082
333.76	6.043
334.11	5.994
334.47	5.934
334.83	5.931
335.19	5.964
335.54	5.706
335.90	5.642
336.26	5.568
336.62	5.516
336.97	5.390
337.33	5.377
337.69	5.252
338.05	5.186
338.40	5.136
338.76	5.059
339.12	5.013
339.48	5.047
339.83	5.042
340.19	5.014
340.55	4.993
340.90	5.063
341.26	5.051
341.62	5.174
341.97	5.161
342.33	5.319
342.69	5.337
343.04	5.365
343.40	5.441
343.76	5.363
344.12	5.405
344.47	5.458
344.83	5.422
345.19	5.434
345.54	5.436
345.90	5.452
346.26	5.325
346.61	5.256
346.97	5.202
347.32	5.144
347.68	5.092
348.04	5.068
348.39	4.917
348.75	4.722
349.11	4.587
349.46	4.562
349.82	4.421
350.18	4.407
350.53	4.424
350.89	4.296
351.24	4.090
351.60	4.177
351.96	4.073
352.31	4.154
352.67	4.203
353.02	4.173
353.38	4.080
353.74	4.135
354.09	4.156
354.45	4.267
354.80	4.388
355.16	4.621
355.52	4.609
355.87	4.777
356.23	4.807
356.58	4.984
356.94	5.072
357.29	5.131
357.65	5.172
358.00	5.200
358.36	5.068
358.72	4.993
359.07	4.963
359.43	4.915
359.78	4.807
360.14	4.747
360.49	4.650
360.85	4.539
361.20	4.539
361.56	4.485
361.91	4.363
362.27	4.336
362.62	4.316
362.98	4.186
363.33	4.139
363.69	3.940
364.04	3.849
364.40	3.700
364.75	3.656
365.11	3.458
365.46	3.319
365.82	3.262
366.17	3.258
366.53	3.202
366.88	3.245
367.24	3.188
367.59	3.362
367.95	3.396
368.30	3.434
368.66	3.555
369.01	3.673
369.37	3.840
369.72	3.888
370.08	3.903
370.43	3.908
370.78	3.921
371.14	3.974
371.49	3.952
371.85	3.971
372.20	4.007
372.56	3.933
372.91	3.864
373.26	3.740
373.62	3.747
373.97	3.654
374.33	3.621
374.68	3.510
375.03	3.453
375.39	3.369
375.74	3.291
376.10	3.243
376.45	3.185
376.80	3.190
377.16	3.245
377.51	3.269
377.87	3.407
378.22	3.465
378.57	3.593
378.93	3.724
379.28	3.846
379.63	4.005
379.99	4.176
380.34	4.355
380.70	4.494
381.05	4.592
381.40	4.614
381.76	4.577
382.11	4.622
382.46	4.607
382.82	4.545
383.17	4.539
383.52	4.463
383.88	4.371
384.23	4.290
384.58	4.218
384.94	4.123
385.29	4.075
385.64	4.110
385.99	4.083
386.35	4.121
386.70	4.050
387.05	3.948
387.41	3.876
387.76	3.818
388.11	3.756
388.47	3.726
388.82	3.715
389.17	3.759
389.52	3.726
389.88	3.739
390.23	3.753
390.58	3.853
390.93	3.982
391.29	4.085
391.64	4.152
391.99	4.215
392.34	4.204
392.70	4.195
393.05	4.190
393.40	4.178
393.75	4.109
394.11	4.005
394.46	3.923
394.81	3.777
395.16	3.638
395.52	3.481
395.87	3.302
396.22	3.117
396.57	2.896
396.92	2.625
397.28	2.402
397.63	2.205
397.98	2.000
398.33	1.824
398.68	1.674
399.04	1.514
399.39	1.382
399.74	1.372
400.09	1.334
400.44	1.348
400.80	1.405
401.15	1.436
401.50	1.529
401.85	1.577
402.20	1.598
402.55	1.653
402.90	1.699
403.26	1.766
403.61	1.720
403.96	1.740
404.31	1.733
404.66	1.715
405.01	1.658
405.36	1.542
405.72	1.524
406.07	1.491
406.42	1.434
406.77	1.337
407.12	1.230
407.47	1.224
407.82	1.194
408.17	1.168
408.53	1.113
408.88	1.076
409.23	1.044
409.58	0.955
409.93	0.904
410.28	0.858
410.63	0.871
410.98	0.861
411.33	0.831
411.68	0.843
412.03	0.855
412.38	0.920
412.73	1.023
413.09	1.187
413.44	1.365
413.79	1.538
414.14	1.720
414.49	1.924
414.84	2.124
415.19	2.295
415.54	2.466
415.89	2.669
416.24	2.835
416.59	3.015
416.94	3.126
417.29	3.233
417.64	3.332
417.99	3.410
418.34	3.472
418.69	3.527
419.04	3.606
419.39	3.671
419.74	3.702
420.09	3.728
420.44	3.725
420.79	3.730
421.14	3.716
421.49	3.704
421.84	3.680
422.19	3.678
422.54	3.663
422.89	3.597
423.24	3.522
423.59	3.441
423.94	3.347
424.29	3.224
424.64	3.148
424.99	3.047
425.34	2.931
425.68	2.829
426.03	2.667
426.38	2.558
426.73	2.481
427.08	2.420
427.43	2.393
427.78	2.402
428.13	2.463
428.48	2.467
428.83	2.511
429.18	2.582
429.53	2.639
429.87	2.712
430.22	2.735
430.57	2.751
430.92	2.755
431.27	2.746
431.62	2.741
431.97	2.687
432.32	2.617
432.67	2.562
433.01	2.476
433.36	2.388
433.71	2.309
434.06	2.257
434.41	2.247
434.76	2.235
435.11	2.224
435.45	2.227
435.80	2.264
436.15	2.361
436.50	2.427
436.85	2.489
437.20	2.548
437.54	2.598
437.89	2.620
438.24	2.623
438.59	2.616
438.94	2.596
439.29	2.538
439.63	2.487
439.98	2.412
440.33	2.354
440.68	2.326
441.03	2.311
441.37	2.343
441.72	2.381
442.07	2.412
442.42	2.483
442.76	2.565
443.11	2.680
443.46	2.786
443.81	2.855
444.16	2.916
444.50	2.939
444.85	2.951
445.20	2.904
445.55	2.849
445.89	2.782
446.24	2.664
446.59	2.538
446.94	2.383
447.28	2.218
447.63	2.057
447.98	1.888
448.32	1.741
448.67	1.587
449.02	1.487
449.37	1.384
449.71	1.352
450.06	1.340
450.41	1.380
450.75	1.384
451.10	1.393
451.45	1.396
451.79	1.383
452.14	1.380
452.49	1.368
452.84	1.347
453.18	1.332
453.53	1.313
453.88	1.294
454.22	1.290
454.57	1.350
454.92	1.416
455.26	1.538
455.61	1.684
455.95	1.812
456.30	1.946
456.65	2.065
456.99	2.190
457.34	2.291
457.69	2.402
458.03	2.443
458.38	2.456
458.73	2.443
459.07	2.375
459.42	2.289
459.76	2.165
460.11	2.042
460.46	1.885
460.80	1.723
461.15	1.552
461.49	1.378
461.84	1.238
462.19	1.128
462.53	1.029
462.88	0.988
463.22	0.977
463.57	0.991
463.91	1.019
464.26	1.069
464.61	1.122
464.95	1.163
465.30	1.182
465.64	1.188
465.99	1.186
466.33	1.181
466.68	1.147
467.02	1.082
467.37	1.043
467.71	0.978
468.06	0.927
468.41	0.854
468.75	0.781
469.10	0.704
469.44	0.628
469.79	0.549
470.13	0.481
470.48	0.406
470.82	0.361
471.17	0.295
471.51	0.228
471.86	0.171
472.20	0.103
472.55	0.018
472.89	-0.029
473.23	-0.082
473.58	-0.130
473.92	-0.167
474.27	-0.201
474.61	-0.225
474.96	-0.228
475.30	-0.216
475.65	-0.234
475.99	-0.223
476.34	-0.173
476.68	-0.147
477.02	-0.098
477.37	-0.028
477.71	0.064
478.06	0.220
478.40	0.470
478.75	0.848
479.09	1.260
479.43	1.684
479.78	2.083
480.12	2.449
480.47	2.794
480.81	3.104
481.15	3.381
481.50	3.639
481.84	3.896
482.19	4.122
482.53	4.289
482.87	4.393
483.22	4.434
483.56	4.405
483.90	4.315
484.25	4.177
484.59	4.028
484.94	3.872
485.28	3.717
485.62	3.532
485.97	3.323
486.31	3.121
486.65	2.955
487.00	2.818
487.34	2.710
487.68	2.627
488.03	2.563
488.37	2.502
488.71	2.439
489.06	2.367
489.40	2.290
489.74	2.214
490.09	2.120
490.43	1.989
490.77	1.851
491.11	1.693
491.46	1.527
491.80	1.357
492.14	1.166
492.49	0.961
492.83	0.741
493.17	0.515
493.51	0.302
493.86	0.098
494.20	-0.069
494.54	-0.202
494.88	-0.230
495.23	-0.267
495.57	-0.280
495.91	-0.288
496.25	-0.297
496.60	-0.311
496.94	-0.332
497.28	-0.398
497.62	-0.469
497.97	-0.524
498.31	-0.591
498.65	-0.684
498.99	-0.765
499.33	-0.849
499.68	-0.913
500.02	-0.982
500.36	-1.051
500.70	-1.108
501.04	-1.134
501.39	-1.162
501.73	-1.192
502.07	-1.206
502.41	-1.222
502.75	-1.206
503.09	-1.186
503.44	-1.169
503.78	-1.158
504.12	-1.111
504.46	-1.088
504.80	-1.057
505.14	-1.001
505.49	-0.951
505.83	-0.917
506.17	-0.875
506.51	-0.848
506.85	-0.829
507.19	-0.808
507.53	-0.774
507.87	-0.771
508.22	-0.767
508.56	-0.793
508.90	-0.840
509.24	-0.893
509.58	-0.938
509.92	-1.003
510.26	-1.074
510.60	-1.136
510.94	-1.202
511.28	-1.272
511.63	-1.324
511.97	-1.374
512.31	-1.406
512.65	-1.408
512.99	-1.396
513.33	-1.345
513.67	-1.253
514.01	-1.126
514.35	-0.997
514.69	-0.864
515.03	-0.719
515.37	-0.598
515.71	-0.478
516.05	-0.371
516.39	-0.295
516.73	-0.239
517.07	-0.235
517.41	-0.260
517.75	-0.343
518.09	-0.451
518.43	-0.589
518.77	-0.766
519.11	-0.949
519.45	-1.154
519.79	-1.337
520.13	-1.506
520.47	-1.652
520.81	-1.722
521.15	-1.784
521.49	-1.786
521.83	-1.730
522.17	-1.625
522.51	-1.450
522.85	-1.232
523.19	-0.912
523.53	-0.530
523.87	-0.126
524.21	0.268
524.55	0.608
524.89	0.909
525.23	1.189
525.57	1.418
525.91	1.613
526.25	1.770
526.58	1.914
526.92	2.002
527.26	2.048
527.60	2.033
527.94	1.986
528.28	1.908
528.62	1.810
528.96	1.698
529.30	1.584
529.64	1.456
529.97	1.317
530.31	1.154
530.65	1.000
530.99	0.842
531.33	0.726
531.67	0.635
532.01	0.553
532.35	0.486
532.68	0.404
533.02	0.298
533.36	0.176
533.70	0.053
534.04	-0.063
534.38	-0.212
534.71	-0.372
535.05	-0.538
535.39	-0.700
535.73	-0.838
536.07	-0.918
536.41	-0.921
536.74	-0.850
537.08	-0.721
537.42	-0.566
537.76	-0.391
538.10	-0.195
538.43	0.014
538.77	0.217
539.11	0.397
539.45	0.551
539.79	0.675
540.12	0.744
540.46	0.761
540.80	0.728
541.14	0.668
541.47	0.573
541.81	0.463
542.15	0.319
542.49	0.143
542.82	-0.068
543.16	-0.294
543.50	-0.535
543.84	-0.774
544.17	-0.981
544.51	-1.139
544.85	-1.295
545.18	-1.451
545.52	-1.629
545.86	-1.819
546.20	-2.009
546.53	-2.198
546.87	-2.386
547.21	-2.604
547.54	-2.806
547.88	-3.007
548.22	-3.201
548.55	-3.357
548.89	-3.481
549.23	-3.566
549.56	-3.613
549.90	-3.633
550.24	-3.623
550.57	-3.612
550.91	-3.569
551.25	-3.559
551.58	-3.549
551.92	-3.560
552.26	-3.587
552.59	-3.635
552.93	-3.700
553.27	-3.777
553.60	-3.856
553.94	-3.952
554.27	-4.009
554.61	-4.063
554.95	-4.105
555.28	-4.135
555.62	-4.150
555.95	-4.169
556.29	-4.163
556.63	-4.130
556.96	-4.102
557.30	-4.063
557.63	-4.012
557.97	-3.966
558.31	-3.940
558.64	-3.914
558.98	-3.902
559.31	-3.889
559.65	-3.861
559.98	-3.832
560.32	-3.803
560.65	-3.756
560.99	-3.685
561.33	-3.600
561.66	-3.519
562.00	-3.423
562.33	-3.302
562.67	-3.189
563.00	-3.054
563.34	-2.919
563.67	-2.796
564.01	-2.674
564.34	-2.545
564.68	-2.461
565.01	-2.383
565.35	-2.351
565.68	-2.312
566.02	-2.289
566.35	-2.269
566.69	-2.259
567.02	-2.245
567.36	-2.197
567.69	-2.160
568.03	-2.158
568.36	-2.114
568.69	-2.073
569.03	-1.990
569.36	-1.914
569.70	-1.840
570.03	-1.736
570.37	-1.665
570.70	-1.603
571.04	-1.574
571.37	-1.557
571.70	-1.516
572.04	-1.508
572.37	-1.525
572.71	-1.547
573.04	-1.568
573.37	-1.604
573.71	-1.657
574.04	-1.714
574.38	-1.804
574.71	-1.891
575.04	-1.984
575.38	-2.077
575.71	-2.184
576.05	-2.262
576.38	-2.366
576.71	-2.482
577.05	-2.591
577.38	-2.694
577.71	-2.797
578.05	-2.883
578.38	-2.987
578.71	-3.062
579.05	-3.114
579.38	-3.158
579.71	-3.204
580.05	-3.222
580.38	-3.220
580.71	-3.252
581.05	-3.296
581.38	-3.260
581.71	-3.234
582.05	-3.186
582.38	-3.151
582.71	-3.145
583.04	-3.110
583.38	-3.097
583.71	-3.051
584.04	-3.008
584.38	-2.916
584.71	-2.817
585.04	-2.765
585.37	-2.678
585.71	-2.562
586.04	-2.436
586.37	-2.299
586.70	-2.180
587.04	-2.048
587.37	-1.966
587.70	-1.890
588.03	-1.802
588.37	-1.750
588.70	-1.697
589.03	-1.674
589.36	-1.679
589.69	-1.706
590.03	-1.741
590.36	-1.771
590.69	-1.794
591.02	-1.787
591.35	-1.787
591.69	-1.782
592.02	-1.717
592.35	-1.654
592.68	-1.569
593.01	-1.435
593.35	-1.292
593.68	-1.169
594.01	-1.056
594.34	-0.968
594.67	-0.925
595.00	-0.853
595.34	-0.820
595.67	-0.819
596.00	-0.846
596.33	-0.904
596.66	-1.003
596.99	-1.121
597.32	-1.229
597.65	-1.354
597.99	-1.443
598.32	-1.491
598.65	-1.559
598.98	-1.587
599.31	-1.557
599.64	-1.500
599.97	-1.379
600.30	-1.260
600.63	-1.106
600.96	-0.971
601.30	-0.810
601.63	-0.696
601.96	-0.606
602.29	-0.526
602.62	-0.442
602.95	-0.428
603.28	-0.404
603.61	-0.412
603.94	-0.434
604.27	-0.494
604.60	-0.518
604.93	-0.582
605.26	-0.604
605.59	-0.641
605.92	-0.663
606.25	-0.704
606.58	-0.713
606.91	-0.729
607.24	-0.728
607.57	-0.696
607.90	-0.667
608.23	-0.688
608.56	-0.687
608.89	-0.748
609.22	-0.789
609.55	-0.849
609.88	-0.941
610.21	-1.042
610.54	-1.139
610.87	-1.284
611.20	-1.406
611.53	-1.552
611.86	-1.653
612.19	-1.748
612.52	-1.805
612.85	-1.833
613.18	-1.823
613.51	-1.853
613.84	-1.867
614.17	-1.854
614.49	-1.808
614.82	-1.821
615.15	-1.794
615.48	-1.779
615.81	-1.774
616.14	-1.764
616.47	-1.739
616.80	-1.823
617.13	-1.788
617.46	-1.784
617.78	-1.804
618.11	-1.818
618.44	-1.815
618.77	-1.817
619.10	-1.810
619.43	-1.828
619.76	-1.825
620.09	-1.857
620.41	-1.792
620.74	-1.769
621.07	-1.731
621.40	-1.666
621.73	-1.586
622.06	-1.527
622.38	-1.452
622.71	-1.404
623.04	-1.301
623.37	-1.222
623.70	-1.080
624.02	-1.029
624.35	-0.934
624.68	-0.844
625.01	-0.789
625.34	-0.743
625.66	-0.725
625.99	-0.712
626.32	-0.680
626.65	-0.693
626.98	-0.698
627.30	-0.763
627.63	-0.796
627.96	-0.899
628.29	-0.955
628.61	-1.016
628.94	-1.075
629.27	-1.101
629.60	-1.155
629.92	-1.222
630.25	-1.230
630.58	-1.270
630.91	-1.298
631.23	-1.313
631.56	-1.315
631.89	-1.314
632.21	-1.309
632.54	-1.338
632.87	-1.330
633.19	-1.332
633.52	-1.350
633.85	-1.419
634.18	-1.461
634.50	-1.505
634.83	-1.546
635.16	-1.606
635.48	-1.681
635.81	-1.740
636.14	-1.801
636.46	-1.936
636.79	-2.010
637.11	-2.062
637.44	-2.058
637.77	-2.080
638.09	-2.082
638.42	-2.091
638.75	-2.063
639.07	-2.080
639.40	-2.168
639.73	-2.210
640.05	-2.171
640.38	-2.172
640.70	-2.204
641.03	-2.227
641.36	-2.241
641.68	-2.288
642.01	-2.327
642.33	-2.334
642.66	-2.342
642.98	-2.276
643.31	-2.177
643.64	-2.149
643.96	-2.089
644.29	-1.976
644.61	-1.890
644.94	-1.791
645.26	-1.668
645.59	-1.551
645.91	-1.525
646.24	-1.426
646.56	-1.379
646.89	-1.393
647.22	-1.372
647.54	-1.338
647.87	-1.350
648.19	-1.398
648.52	-1.403
648.84	-1.473
649.17	-1.500
649.49	-1.495
649.82	-1.562
650.14	-1.555
650.47	-1.520
650.79	-1.519
651.11	-1.508
651.44	-1.497
651.76	-1.451
652.09	-1.530
652.41	-1.495
652.74	-1.480
653.06	-1.408
653.39	-1.324
653.71	-1.227
654.04	-1.177
654.36	-1.075
654.68	-1.010
655.01	-0.935
655.33	-0.917
655.66	-0.769
655.98	-0.721
656.30	-0.618
656.63	-0.607
656.95	-0.563
657.28	-0.551
657.60	-0.526
657.92	-0.557
658.25	-0.607
658.57	-0.632
658.90	-0.650
659.22	-0.741
659.54	-0.802
659.87	-0.988
660.19	-1.087
660.51	-1.217
660.84	-1.383
661.16	-1.563
661.48	-1.648
661.81	-1.747
662.13	-1.822
662.45	-1.919
662.78	-1.957
663.10	-1.977
663.42	-1.909
663.75	-1.866
664.07	-1.896
664.39	-1.846
664.72	-1.787
665.04	-1.801
665.36	-1.766
665.69	-1.734
666.01	-1.670
666.33	-1.593
666.65	-1.566
666.98	-1.609
667.30	-1.637
667.62	-1.591
667.94	-1.597
668.27	-1.608
668.59	-1.596
668.91	-1.569
669.23	-1.586
669.56	-1.606
669.88	-1.637
670.20	-1.680
670.52	-1.659
670.85	-1.684
671.17	-1.693
671.49	-1.663
671.81	-1.590
672.13	-1.569
672.46	-1.631
672.78	-1.667
673.10	-1.643
673.42	-1.639
673.74	-1.569
674.07	-1.494
674.39	-1.454
674.71	-1.422
675.03	-1.428
675.35	-1.374
675.67	-1.289
676.00	-1.170
676.32	-1.033
676.64	-0.952
676.96	-0.816
677.28	-0.741
677.60	-0.718
677.92	-0.595
678.25	-0.496
678.57	-0.368
678.89	-0.334
679.21	-0.281
679.53	-0.242
679.85	-0.219
680.17	-0.199
680.49	-0.224
680.81	-0.273
681.13	-0.267
681.46	-0.281
681.78	-0.294
682.10	-0.293
682.42	-0.354
682.74	-0.349
683.06	-0.357
683.38	-0.361
683.70	-0.290
684.02	-0.236
684.34	-0.098
684.66	-0.047
684.98	0.044
685.30	0.140
685.62	0.179
685.94	0.263
686.26	0.220
686.58	0.274
686.90	0.256
687.22	0.204
687.54	0.134
687.86	-0.017
688.18	-0.081
688.50	-0.164
688.82	-0.263
689.14	-0.470
689.46	-0.554
689.78	-0.606
690.10	-0.752
690.42	-0.856
690.74	-0.966
691.06	-1.037
691.38	-1.050
691.70	-1.098
692.02	-1.224
692.34	-1.357
692.66	-1.360
692.98	-1.366
693.30	-1.362
693.62	-1.333
693.94	-1.271
694.26	-1.249
694.57	-1.116
694.89	-1.009
695.21	-0.902
695.53	-0.802
695.85	-0.677
696.17	-0.564
696.49	-0.458
696.81	-0.383
697.13	-0.318
697.44	-0.274
697.76	-0.268
698.08	-0.320
698.40	-0.379
698.72	-0.516
699.04	-0.667
699.36	-0.852
699.67	-1.085
699.99	-1.413
700.31	-1.737
700.63	-2.019
700.95	-2.446
701.27	-2.770
701.58	-3.164
701.90	-3.528
702.22	-3.759
702.54	-3.982
702.86	-4.146
703.17	-4.371
703.49	-4.559
703.81	-4.596
704.13	-4.770
704.45	-4.708
704.76	-4.753
705.08	-4.766
705.40	-4.749
705.72	-4.716
706.03	-4.680
706.35	-4.604
706.67	-4.518
706.99	-4.329
707.30	-4.387
707.62	-4.335
707.94	-4.328
708.26	-4.275
708.57	-4.229
708.89	-4.236
709.21	-4.245
709.53	-4.257
709.84	-4.268
710.16	-4.282
710.48	-4.385
710.79	-4.377
711.11	-4.330
711.43	-4.344
711.74	-4.324
712.06	-4.339
712.38	-4.242
712.69	-4.210
713.01	-4.085
713.33	-4.147
713.64	-4.000
713.96	-3.808
714.28	-3.704
714.59	-3.531
714.91	-3.483
715.23	-3.437
715.54	-3.363
715.86	-3.334
716.17	-3.185
716.49	-3.293
716.81	-3.268
717.12	-3.331
717.44	-3.577
717.76	-3.754
718.07	-4.099
718.39	-4.325
718.70	-4.474
719.02	-4.773
719.33	-5.175
719.65	-5.644
719.97	-5.923
720.28	-6.004
720.60	-6.289
720.91	-6.357
721.23	-6.403
721.54	-6.454
721.86	-6.447
722.17	-6.479
722.49	-6.414
722.81	-6.354
723.12	-6.217
723.44	-6.008
723.75	-6.132
724.07	-6.017
724.38	-6.046
724.70	-5.969
725.01	-5.985
725.33	-5.972
725.64	-5.972
725.96	-5.966
726.27	-5.940
726.59	-5.770
726.90	-5.903
727.22	-5.848
727.53	-5.905
727.84	-5.874
728.16	-6.009
728.47	-5.980
728.79	-6.190
729.10	-6.315
729.42	-6.390
729.73	-6.450
730.05	-6.910
730.36	-7.052
730.67	-7.275
730.99	-7.547
731.30	-7.909
731.62	-8.074
731.93	-8.450
732.24	-8.645
732.56	-9.015
732.87	-9.375
733.19	-9.768
733.50	-10.151
733.81	-10.549
734.13	-10.824
734.44	-11.168
734.76	-11.493
735.07	-11.865
735.38	-11.923
735.70	-12.062
736.01	-12.214
736.32	-12.283
736.64	-12.475
736.95	-12.474
737.26	-12.494
737.58	-12.627
737.89	-12.641
738.20	-12.787
738.52	-13.252
738.83	-13.621
739.14	-13.904
739.45	-14.191
739.77	-14.638
740.08	-15.050
740.39	-15.320
740.71	-15.650
741.02	-16.014
741.33	-16.384
741.64	-16.467
741.96	-16.611
742.27	-17.153
742.58	-17.560
742.90	-18.056
743.21	-18.591
743.52	-18.826
743.83	-18.901
744.14	-19.108
744.46	-19.509
744.77	-19.909
745.08	-20.333
745.39	-20.382
745.71	-20.318
746.02	-20.222
746.33	-19.929
746.64	-19.654
746.95	-19.742
747.27	-19.930
747.58	-20.300
747.89	-20.223
748.20	-20.015
748.51	-20.109
748.82	-20.282
749.14	-20.346
749.45	-20.748
749.76	-21.111
750.07	-21.350
750.38	-21.091
750.69	-21.313
751.01	-21.266
751.32	-21.520
751.63	-21.846
751.94	-22.156
752.25	-22.294
752.56	-22.439
752.87	-22.694
753.18	-22.855
753.49	-22.862
753.81	-23.149
754.12	-22.982
754.43	-22.861
754.74	-22.486
755.05	-22.100
755.36	-21.176
755.67	-20.234
755.98	-19.274
756.29	-17.954
756.60	-16.452
756.91	-15.315
757.22	-13.992
757.53	-12.684
757.84	-11.135
758.15	-9.603
758.46	-8.106
758.77	-6.877
759.09	-5.809
759.40	-4.833
759.71	-3.826
760.02	-3.274
760.33	-2.682
760.64	-2.487
760.95	-2.315
761.26	-2.311
761.57	-2.549
761.88	-2.771
762.18	-3.106
762.49	-3.445
762.80	-4.005
763.11	-4.742
763.42	-5.455
763.73	-6.362
764.04	-7.177
764.35	-8.274
764.66	-9.658
764.97	-10.968
765.28	-12.341
765.59	-14.075
765.90	-16.010
766.21	-17.924
766.52	-19.712
766.83	-21.397
767.14	-22.976
767.44	-24.477
767.75	-26.177
768.06	-27.049
768.37	-28.172
768.68	-29.397
768.99	-30.199
769.30	-30.932
769.61	-31.469
769.91	-32.051
770.22	-32.860
770.53	-33.530
770.84	-33.879
771.15	-34.220
771.46	-34.976
771.77	-35.462
772.07	-35.549
772.38	-36.040
772.69	-36.228
773.00	-36.192
773.31	-36.388
773.61	-36.550
773.92	-36.108
774.23	-36.658
774.54	-36.389
774.85	-36.302
775.15	-36.632
775.46	-37.000
775.77	-36.581
776.08	-36.603
776.39	-37.267
776.69	-37.252
777.00	-37.195
777.31	-37.343
777.62	-36.846
777.92	-36.900
778.23	-37.160
778.54	-37.090
778.85	-37.361
779.15	-38.104
779.46	-38.016
779.77	-37.369
780.07	-37.663
780.38	-37.945
780.69	-37.998
781.00	-38.132
781.30	-38.317
781.61	-38.564
781.92	-37.950
782.22	-38.128
782.53	-38.064
782.84	-38.457
783.14	-38.387
783.45	-38.116
783.76	-37.854
784.06	-37.765
784.37	-37.225
784.68	-36.494
784.98	-35.622
785.29	-34.962
785.60	-33.860
785.90	-32.244
786.21	-30.944
786.51	-30.676
786.82	-29.902
787.13	-28.944
787.43	-28.053
787.74	-27.428
788.04	-27.220
788.35	-27.155
788.66	-27.038
788.96	-27.261
789.27	-27.763
789.57	-28.369
789.88	-28.564
790.19	-29.385
790.49	-30.287
790.80	-31.190
791.10	-31.959
791.41	-32.494
791.71	-32.089
792.02	-32.574
792.32	-32.317
792.63	-32.631
792.93	-32.751
793.24	-32.388
793.54	-31.380
793.85	-30.396
794.15	-29.934
794.46	-29.767
794.76	-29.412
795.07	-29.632
795.37	-29.257
795.68	-29.298
795.98	-29.238
796.29	-29.022
796.59	-28.822
796.90	-29.121
797.20	-29.587
797.51	-30.049
797.81	-30.367
798.12	-30.167
798.42	-30.179
798.72	-30.285
799.03	-30.422
799.33	-30.654
799.64	-31.189
799.94	-31.515
800.25	-32.205
800.55	-32.719
800.85	-32.900
801.16	-32.506
801.46	-33.299
801.77	-33.756
802.07	-34.083
802.37	-34.403
802.68	-34.128
802.98	-34.080
803.28	-34.361
803.59	-34.085
803.89	-33.936
804.20	-34.346
804.50	-35.149
804.80	-34.898
805.11	-34.773
805.41	-35.687
805.71	-35.894
806.02	-35.987
806.32	-35.605
806.62	-36.095
806.93	-37.202
807.23	-37.395
807.53	-36.875
807.83	-36.816
808.14	-36.876
808.44	-37.883
808.74	-36.739
809.05	-36.323
809.35	-36.780
809.65	-37.303
809.95	-35.848
810.26	-34.686
810.56	-33.823
810.86	-33.278
811.16	-32.979
811.47	-32.459
811.77	-30.217
812.07	-29.230
812.37	-28.456
812.68	-27.045
812.98	-24.834
813.28	-24.433
813.58	-22.995
813.88	-22.493
814.19	-21.655
814.49	-20.354
814.79	-19.498
815.09	-18.700
815.39	-18.113
815.70	-17.483
816.00	-16.833
816.30	-16.744
816.60	-16.181
816.90	-15.169
817.20	-13.446
817.50	-11.040
817.81	-8.457
818.11	-5.812
818.41	-3.909
818.71	-2.210
819.01	-0.645
819.31	0.463
819.61	1.476
819.92	2.198
820.22	2.713
820.52	3.094
820.82	3.402
821.12	3.545
821.42	3.697
821.72	3.904
822.02	3.955
822.32	3.829
822.62	3.762
822.92	3.517
823.22	3.395
823.52	3.167
823.83	2.907
824.13	2.610
824.43	2.314
824.73	1.806
825.03	1.308
825.33	0.853
825.63	0.638
825.93	0.347
826.23	0.201
826.53	-0.200
826.83	-0.456
827.13	-0.808
827.43	-1.312
827.73	-1.818
828.03	-2.358
828.33	-3.138
828.63	-3.906
828.93	-4.819
829.23	-5.924
829.53	-6.721
829.83	-7.914
830.13	-8.647
830.42	-8.637
830.72	-8.783
831.02	-8.447
831.32	-8.126
831.62	-7.962
831.92	-7.664
832.22	-7.110
832.52	-6.569
832.82	-6.662
833.12	-6.317
833.42	-6.200
833.72	-6.397
834.01	-6.541
834.31	-7.297
834.61	-8.082
834.91	-9.126
835.21	-10.305
835.51	-12.208
835.81	-14.082
836.11	-15.893
836.40	-17.946
836.70	-20.642
837.00	-23.025
837.30	-25.428
837.60	-26.603
837.90	-27.735
838.19	-28.098
838.49	-29.001
838.79	-29.543
839.09	-31.041
839.39	-32.422
839.68	-32.470
839.98	-33.207
840.28	-34.709
840.58	-36.305
840.88	-38.554
841.17	-40.847
841.47	-44.414
841.77	-47.631
842.07	-50.270
842.36	-53.968
842.66	-56.753
842.96	-62.166
843.26	-68.859
843.55	-74.097
843.85	-76.198
844.15	-80.975
844.45	-85.764
844.74	-85.028
845.04	-88.496
845.34	-90.732
845.63	-90.339
845.93	-95.585
846.23	-94.261
846.53	-94.103
846.82	-96.033
847.12	-99.190
847.42	-97.625
847.71	-97.187
848.01	-100.722
848.31	-103.027
848.60	-105.911
848.90	-102.840
849.19	-106.324
849.49	-109.424
849.79	-104.633
850.08	-97.046
850.38	-94.989
850.68	-95.933
850.97	-93.518
851.27	-91.209
851.56	-93.467
851.86	-89.924
852.16	-95.329
852.45	-86.566
852.75	-80.569
853.04	-82.196
853.34	-86.291
853.64	-88.407
853.93	-87.675
854.23	-86.238
854.52	-87.582
854.82	-81.787
855.11	-86.537
855.41	-84.118
855.70	-87.317
856.00	-91.185
856.30	-93.620
856.59	-94.016
856.89	-96.752
857.18	-92.976
857.48	-95.310
857.77	-96.219
858.07	-92.256
858.36	-91.566
858.66	-94.213
858.95	-93.652
859.25	-99.771
859.54	-101.977
859.84	-99.909
860.13	-92.222
860.42	-98.188
860.72	-94.070
861.01	-97.062
861.31	-100.742
861.60	-101.105
861.90	-94.115
862.19	-95.210
862.49	-85.481
862.78	-76.230
863.07	-75.891
863.37	-78.222
863.66	-74.569
863.96	-77.553
864.25	-71.805
864.54	-68.830
864.84	-64.433
865.13	-64.563
865.43	-64.172
865.72	-63.502
866.01	-54.964
866.31	-65.805
866.60	-68.457
866.89	-104.177
>>>>>End Spectral Data<<<<<
