OOIBase32 Version 2.0.0.6 Data File
++++++++++++++++++++++++++++++++++++
Date: 01-23-2012, 23:24:30
User: Valued Ocean Optics Customer
Spectrometer Serial Number: USB2E2917
Spectrometer Channel: Master
Integration Time (msec): 5
Spectra Averaged: 10
Boxcar Smoothing: 5
Correct for Electrical Dark: Enabled
Time Normalized: Disabled
Dual-beam Reference: Disabled
Reference Channel: Master
Temperature: Not acquired
Spectrometer Type: S2000
ADC Type: USB2000
Number of Pixels in File: 2048
Graph Title: 
>>>>>Begin Spectral Data<<<<<
180.30	0.000
180.67	0.000
181.03	87.914
181.40	233.017
181.77	2246.330
182.14	26.441
182.51	-696.808
182.88	67.949
183.25	143.132
183.62	-24.187
183.99	219.548
184.36	16.463
184.73	147.637
185.10	49.462
185.46	-749.430
185.83	-200.988
186.20	417.466
186.57	132.095
186.94	52.389
187.31	10.280
187.68	29.206
188.05	-15.467
188.42	-33.623
188.78	-53.210
189.15	-227.596
189.52	41.349
189.89	25.279
190.26	7.780
190.63	14.289
191.00	25.346
191.37	22.535
191.73	30.194
192.10	34.105
192.47	35.452
192.84	33.949
193.21	37.212
193.58	41.669
193.94	38.698
194.31	27.555
194.68	35.224
195.05	18.035
195.42	7.149
195.79	-18.544
196.15	-32.451
196.52	-52.838
196.89	-57.775
197.26	-88.084
197.63	-73.600
198.00	-66.586
198.36	-45.909
198.73	-75.250
199.10	-50.445
199.47	-29.482
199.84	-20.607
200.20	-30.287
200.57	-33.457
200.94	-43.884
201.31	-45.408
201.68	-59.760
202.04	-62.445
202.41	-74.166
202.78	-83.494
203.15	-95.869
203.51	-99.056
203.88	-98.954
204.25	-104.913
204.62	-123.050
204.98	-111.262
205.35	-88.484
205.72	-67.761
206.09	-51.552
206.46	-88.591
206.82	-66.156
207.19	-80.907
207.56	-130.741
207.92	-84.239
208.29	-68.467
208.66	-26.934
209.03	-36.261
209.39	-21.909
209.76	-26.263
210.13	-55.416
210.50	-30.587
210.86	-24.770
211.23	-28.286
211.60	-13.027
211.96	-35.623
212.33	-32.659
212.70	-48.685
213.07	-48.558
213.43	-93.124
213.80	-92.768
214.17	-48.485
214.53	-43.811
214.90	-34.600
215.27	-18.285
215.63	-15.931
216.00	-6.532
216.37	-3.948
216.74	-9.237
217.10	-4.186
217.47	-1.774
217.84	4.008
218.20	-0.288
218.57	7.496
218.94	5.301
219.30	-5.190
219.67	-13.385
220.04	-12.213
220.40	-15.571
220.77	-12.222
221.13	-4.629
221.50	1.081
221.87	1.922
222.23	-1.006
222.60	-13.910
222.97	-19.608
223.33	-15.069
223.70	-8.301
224.07	-10.357
224.43	-7.632
224.80	-5.071
225.16	-7.053
225.53	-6.348
225.90	-9.203
226.26	-5.935
226.63	-1.113
226.99	1.274
227.36	2.859
227.73	4.297
228.09	4.628
228.46	5.930
228.82	6.236
229.19	5.788
229.56	4.196
229.92	5.963
230.29	6.513
230.65	6.082
231.02	3.343
231.38	-0.553
231.75	-3.042
232.12	-3.409
232.48	-5.157
232.85	-6.869
233.21	-5.797
233.58	-6.005
233.94	-5.581
234.31	-6.201
234.68	-6.635
235.04	-4.417
235.41	-0.979
235.77	0.970
236.14	1.464
236.50	1.897
236.87	1.878
237.23	1.877
237.60	1.670
237.96	2.243
238.33	2.123
238.69	1.471
239.06	1.368
239.42	1.014
239.79	0.186
240.15	0.148
240.52	0.782
240.88	1.615
241.25	1.611
241.61	2.187
241.98	1.812
242.34	1.784
242.71	2.416
243.07	2.548
243.44	2.176
243.80	2.267
244.17	2.396
244.53	2.097
244.90	1.985
245.26	1.746
245.63	1.576
245.99	1.555
246.36	1.389
246.72	1.332
247.09	0.752
247.45	1.024
247.81	1.191
248.18	0.928
248.54	1.168
248.91	0.677
249.27	0.668
249.64	0.762
250.00	0.786
250.36	0.713
250.73	0.504
251.09	0.979
251.46	0.785
251.82	0.741
252.19	0.975
252.55	0.289
252.91	0.859
253.28	0.822
253.64	0.530
254.01	0.601
254.37	1.009
254.73	1.317
255.10	1.729
255.46	2.290
255.83	2.481
256.19	2.456
256.55	2.536
256.92	2.582
257.28	2.558
257.65	2.870
258.01	2.857
258.37	2.878
258.74	2.778
259.10	2.664
259.46	2.452
259.83	2.331
260.19	2.355
260.55	2.401
260.92	2.229
261.28	2.280
261.64	2.136
262.01	2.178
262.37	2.188
262.73	2.155
263.10	2.308
263.46	2.333
263.82	2.345
264.19	2.330
264.55	2.154
264.91	2.207
265.28	2.247
265.64	2.193
266.00	2.223
266.37	2.181
266.73	1.992
267.09	2.046
267.46	1.888
267.82	1.534
268.18	1.370
268.54	1.490
268.91	1.435
269.27	1.309
269.63	1.325
270.00	1.387
270.36	1.224
270.72	1.481
271.08	1.325
271.45	1.187
271.81	1.443
272.17	1.596
272.53	1.456
272.90	1.600
273.26	1.834
273.62	1.838
273.98	1.638
274.35	1.605
274.71	1.720
275.07	1.827
275.43	1.965
275.80	1.880
276.16	1.733
276.52	1.736
276.88	1.523
277.25	1.288
277.61	1.195
277.97	1.141
278.33	1.304
278.69	0.955
279.06	0.794
279.42	0.828
279.78	0.945
280.14	1.055
280.50	1.294
280.87	1.350
281.23	1.550
281.59	1.613
281.95	1.631
282.31	1.515
282.68	1.483
283.04	1.389
283.40	1.432
283.76	1.533
284.12	1.602
284.48	1.468
284.85	1.567
285.21	1.526
285.57	1.468
285.93	1.654
286.29	1.671
286.65	1.805
287.02	2.130
287.38	2.187
287.74	2.055
288.10	2.050
288.46	2.100
288.82	1.975
289.18	2.014
289.54	2.038
289.91	1.997
290.27	2.113
290.63	2.283
290.99	2.306
291.35	2.325
291.71	2.368
292.07	2.296
292.43	2.310
292.79	2.328
293.16	2.245
293.52	2.512
293.88	2.603
294.24	2.610
294.60	2.487
294.96	2.408
295.32	2.401
295.68	2.492
296.04	2.476
296.40	2.568
296.76	2.667
297.12	2.681
297.49	2.486
297.85	2.239
298.21	2.165
298.57	2.057
298.93	1.998
299.29	1.864
299.65	1.839
300.01	1.832
300.37	1.905
300.73	1.911
301.09	1.946
301.45	2.056
301.81	2.250
302.17	2.388
302.53	2.342
302.89	2.273
303.25	2.473
303.61	2.393
303.97	2.345
304.33	2.272
304.69	2.377
305.05	2.349
305.41	2.300
305.77	2.284
306.13	2.230
306.49	2.245
306.85	2.420
307.21	2.424
307.57	2.450
307.93	2.545
308.29	2.621
308.65	2.612
309.01	2.682
309.37	2.752
309.73	2.766
310.09	2.817
310.45	2.892
310.81	2.826
311.17	2.787
311.53	2.708
311.89	2.752
312.25	2.657
312.61	2.521
312.96	2.552
313.32	2.482
313.68	2.374
314.04	2.339
314.40	2.390
314.76	2.397
315.12	2.469
315.48	2.635
315.84	2.529
316.20	2.466
316.56	2.460
316.92	2.387
317.27	2.457
317.63	2.584
317.99	2.571
318.35	2.494
318.71	2.450
319.07	2.336
319.43	2.221
319.79	2.402
320.15	2.492
320.50	2.541
320.86	2.495
321.22	2.451
321.58	2.388
321.94	2.380
322.30	2.396
322.66	2.431
323.01	2.379
323.37	2.334
323.73	2.198
324.09	2.109
324.45	2.173
324.81	2.131
325.17	2.136
325.52	2.164
325.88	2.111
326.24	2.187
326.60	2.187
326.96	2.297
327.31	2.365
327.67	2.278
328.03	2.331
328.39	2.176
328.75	2.197
329.11	2.194
329.46	2.212
329.82	2.345
330.18	2.253
330.54	2.238
330.90	2.172
331.25	2.177
331.61	2.400
331.97	2.385
332.33	2.492
332.68	2.599
333.04	2.599
333.40	2.508
333.76	2.385
334.11	2.379
334.47	2.401
334.83	2.412
335.19	2.329
335.54	2.186
335.90	2.228
336.26	2.202
336.62	2.154
336.97	2.088
337.33	2.030
337.69	2.015
338.05	1.998
338.40	2.034
338.76	2.061
339.12	2.194
339.48	2.247
339.83	2.266
340.19	2.349
340.55	2.410
340.90	2.395
341.26	2.415
341.62	2.475
341.97	2.599
342.33	2.595
342.69	2.592
343.04	2.520
343.40	2.432
343.76	2.345
344.12	2.277
344.47	2.313
344.83	2.409
345.19	2.484
345.54	2.501
345.90	2.462
346.26	2.525
346.61	2.568
346.97	2.649
347.32	2.668
347.68	2.726
348.04	2.702
348.39	2.549
348.75	2.576
349.11	2.605
349.46	2.573
349.82	2.514
350.18	2.390
350.53	2.378
350.89	2.295
351.24	2.295
351.60	2.260
351.96	2.301
352.31	2.323
352.67	2.284
353.02	2.269
353.38	2.293
353.74	2.390
354.09	2.354
354.45	2.342
354.80	2.384
355.16	2.472
355.52	2.513
355.87	2.465
356.23	2.514
356.58	2.539
356.94	2.584
357.29	2.604
357.65	2.539
358.00	2.618
358.36	2.620
358.72	2.619
359.07	2.600
359.43	2.606
359.78	2.651
360.14	2.649
360.49	2.575
360.85	2.550
361.20	2.523
361.56	2.532
361.91	2.555
362.27	2.595
362.62	2.629
362.98	2.623
363.33	2.615
363.69	2.641
364.04	2.668
364.40	2.757
364.75	2.723
365.11	2.728
365.46	2.689
365.82	2.705
366.17	2.667
366.53	2.631
366.88	2.661
367.24	2.715
367.59	2.667
367.95	2.677
368.30	2.642
368.66	2.657
369.01	2.674
369.37	2.724
369.72	2.763
370.08	2.805
370.43	2.820
370.78	2.830
371.14	2.791
371.49	2.846
371.85	2.853
372.20	2.879
372.56	2.901
372.91	2.907
373.26	2.941
373.62	2.860
373.97	2.885
374.33	2.900
374.68	2.897
375.03	2.912
375.39	2.847
375.74	2.829
376.10	2.864
376.45	2.883
376.80	2.895
377.16	2.856
377.51	2.891
377.87	2.906
378.22	2.885
378.57	2.855
378.93	2.872
379.28	2.990
379.63	3.001
379.99	3.009
380.34	3.016
380.70	3.067
381.05	3.138
381.40	3.120
381.76	3.115
382.11	3.153
382.46	3.226
382.82	3.245
383.17	3.192
383.52	3.188
383.88	3.133
384.23	3.122
384.58	3.097
384.94	3.061
385.29	3.125
385.64	3.113
385.99	3.133
386.35	3.128
386.70	3.114
387.05	3.114
387.41	3.121
387.76	3.132
388.11	3.145
388.47	3.108
388.82	3.153
389.17	3.120
389.52	3.132
389.88	3.133
390.23	3.128
390.58	3.165
390.93	3.206
391.29	3.241
391.64	3.281
391.99	3.330
392.34	3.375
392.70	3.376
393.05	3.382
393.40	3.397
393.75	3.399
394.11	3.407
394.46	3.369
394.81	3.340
395.16	3.293
395.52	3.259
395.87	3.192
396.22	3.180
396.57	3.128
396.92	3.099
397.28	3.049
397.63	3.005
397.98	2.981
398.33	2.979
398.68	2.960
399.04	2.951
399.39	2.961
399.74	2.943
400.09	2.924
400.44	2.959
400.80	2.967
401.15	2.987
401.50	3.011
401.85	3.023
402.20	3.011
402.55	3.061
402.90	3.068
403.26	3.056
403.61	3.070
403.96	3.085
404.31	3.062
404.66	3.102
405.01	3.082
405.36	3.079
405.72	3.055
406.07	3.085
406.42	3.050
406.77	3.059
407.12	3.075
407.47	3.132
407.82	3.121
408.17	3.125
408.53	3.103
408.88	3.105
409.23	3.093
409.58	3.100
409.93	3.108
410.28	3.116
410.63	3.112
410.98	3.122
411.33	3.103
411.68	3.131
412.03	3.148
412.38	3.122
412.73	3.143
413.09	3.175
413.44	3.210
413.79	3.212
414.14	3.236
414.49	3.299
414.84	3.317
415.19	3.321
415.54	3.342
415.89	3.367
416.24	3.441
416.59	3.482
416.94	3.491
417.29	3.512
417.64	3.504
417.99	3.521
418.34	3.538
418.69	3.553
419.04	3.557
419.39	3.563
419.74	3.578
420.09	3.580
420.44	3.581
420.79	3.595
421.14	3.604
421.49	3.635
421.84	3.645
422.19	3.645
422.54	3.650
422.89	3.670
423.24	3.680
423.59	3.670
423.94	3.649
424.29	3.660
424.64	3.654
424.99	3.648
425.34	3.628
425.68	3.617
426.03	3.596
426.38	3.611
426.73	3.608
427.08	3.603
427.43	3.619
427.78	3.636
428.13	3.602
428.48	3.614
428.83	3.602
429.18	3.622
429.53	3.621
429.87	3.626
430.22	3.613
430.57	3.615
430.92	3.603
431.27	3.620
431.62	3.629
431.97	3.661
432.32	3.653
432.67	3.668
433.01	3.662
433.36	3.653
433.71	3.633
434.06	3.619
434.41	3.621
434.76	3.654
435.11	3.643
435.45	3.635
435.80	3.633
436.15	3.663
436.50	3.669
436.85	3.693
437.20	3.719
437.54	3.735
437.89	3.761
438.24	3.777
438.59	3.765
438.94	3.765
439.29	3.770
439.63	3.772
439.98	3.761
440.33	3.764
440.68	3.770
441.03	3.782
441.37	3.799
441.72	3.816
442.07	3.814
442.42	3.834
442.76	3.858
443.11	3.872
443.46	3.880
443.81	3.903
444.16	3.923
444.50	3.918
444.85	3.916
445.20	3.921
445.55	3.918
445.89	3.921
446.24	3.921
446.59	3.914
446.94	3.905
447.28	3.902
447.63	3.887
447.98	3.875
448.32	3.874
448.67	3.872
449.02	3.859
449.37	3.837
449.71	3.853
450.06	3.845
450.41	3.832
450.75	3.838
451.10	3.861
451.45	3.850
451.79	3.825
452.14	3.832
452.49	3.829
452.84	3.847
453.18	3.856
453.53	3.838
453.88	3.838
454.22	3.864
454.57	3.869
454.92	3.874
455.26	3.898
455.61	3.950
455.95	3.982
456.30	4.013
456.65	4.042
456.99	4.075
457.34	4.105
457.69	4.128
458.03	4.133
458.38	4.156
458.73	4.164
459.07	4.175
459.42	4.154
459.76	4.125
460.11	4.088
460.46	4.058
460.80	4.037
461.15	4.020
461.49	4.017
461.84	4.012
462.19	3.993
462.53	3.989
462.88	3.990
463.22	3.988
463.57	4.010
463.91	4.028
464.26	4.051
464.61	4.045
464.95	4.030
465.30	4.033
465.64	4.040
465.99	4.056
466.33	4.059
466.68	4.068
467.02	4.074
467.37	4.072
467.71	4.063
468.06	4.054
468.41	4.059
468.75	4.078
469.10	4.067
469.44	4.064
469.79	4.045
470.13	4.010
470.48	3.990
470.82	4.007
471.17	4.008
471.51	4.018
471.86	4.023
472.20	4.027
472.55	4.022
472.89	4.031
473.23	4.011
473.58	4.028
473.92	4.053
474.27	4.057
474.61	4.038
474.96	4.043
475.30	4.053
475.65	4.037
475.99	4.031
476.34	4.048
476.68	4.048
477.02	4.075
477.37	4.077
477.71	4.102
478.06	4.133
478.40	4.225
478.75	4.311
479.09	4.410
479.43	4.535
479.78	4.677
480.12	4.804
480.47	4.941
480.81	5.066
481.15	5.192
481.50	5.329
481.84	5.477
482.19	5.596
482.53	5.713
482.87	5.795
483.22	5.809
483.56	5.754
483.90	5.674
484.25	5.558
484.59	5.445
484.94	5.341
485.28	5.232
485.62	5.112
485.97	4.991
486.31	4.883
486.65	4.801
487.00	4.769
487.34	4.788
487.68	4.818
488.03	4.861
488.37	4.904
488.71	4.931
489.06	4.939
489.40	4.936
489.74	4.934
490.09	4.922
490.43	4.911
490.77	4.893
491.11	4.866
491.46	4.841
491.80	4.829
492.14	4.788
492.49	4.768
492.83	4.732
493.17	4.694
493.51	4.670
493.86	4.643
494.20	4.617
494.54	4.606
494.88	4.613
495.23	4.630
495.57	4.649
495.91	4.681
496.25	4.707
496.60	4.722
496.94	4.734
497.28	4.745
497.62	4.760
497.97	4.769
498.31	4.789
498.65	4.799
498.99	4.804
499.33	4.824
499.68	4.851
500.02	4.856
500.36	4.876
500.70	4.910
501.04	4.919
501.39	4.934
501.73	4.960
502.07	4.999
502.41	5.024
502.75	5.055
503.09	5.074
503.44	5.100
503.78	5.115
504.12	5.141
504.46	5.181
504.80	5.239
505.14	5.297
505.49	5.348
505.83	5.376
506.17	5.422
506.51	5.449
506.85	5.508
507.19	5.551
507.53	5.602
507.87	5.649
508.22	5.686
508.56	5.716
508.90	5.744
509.24	5.776
509.58	5.803
509.92	5.850
510.26	5.898
510.60	5.920
510.94	5.960
511.28	5.995
511.63	6.039
511.97	6.082
512.31	6.116
512.65	6.162
512.99	6.222
513.33	6.310
513.67	6.373
514.01	6.473
514.35	6.543
514.69	6.638
515.03	6.733
515.37	6.816
515.71	6.880
516.05	6.972
516.39	7.032
516.73	7.089
517.07	7.143
517.41	7.191
517.75	7.210
518.09	7.250
518.43	7.277
518.77	7.284
519.11	7.307
519.45	7.337
519.79	7.370
520.13	7.416
520.47	7.470
520.81	7.516
521.15	7.582
521.49	7.658
521.83	7.746
522.17	7.824
522.51	7.936
522.85	8.038
523.19	8.168
523.53	8.316
523.87	8.474
524.21	8.637
524.55	8.790
524.89	8.923
525.23	9.065
525.57	9.175
525.91	9.290
526.25	9.389
526.58	9.484
526.92	9.554
527.26	9.611
527.60	9.646
527.94	9.668
528.28	9.683
528.62	9.697
528.96	9.691
529.30	9.699
529.64	9.697
529.97	9.687
530.31	9.686
530.65	9.702
530.99	9.712
531.33	9.728
531.67	9.744
532.01	9.772
532.35	9.801
532.68	9.825
533.02	9.834
533.36	9.833
533.70	9.848
534.04	9.850
534.38	9.848
534.71	9.851
535.05	9.872
535.39	9.889
535.73	9.897
536.07	9.917
536.41	9.961
536.74	10.011
537.08	10.069
537.42	10.153
537.76	10.237
538.10	10.316
538.43	10.382
538.77	10.460
539.11	10.533
539.45	10.598
539.79	10.665
540.12	10.718
540.46	10.762
540.80	10.790
541.14	10.805
541.47	10.788
541.81	10.800
542.15	10.808
542.49	10.784
542.82	10.769
543.16	10.755
543.50	10.737
543.84	10.716
544.17	10.692
544.51	10.697
544.85	10.690
545.18	10.709
545.52	10.719
545.86	10.714
546.20	10.737
546.53	10.747
546.87	10.753
547.21	10.738
547.54	10.729
547.88	10.747
548.22	10.745
548.55	10.741
548.89	10.774
549.23	10.763
549.56	10.772
549.90	10.782
550.24	10.788
550.57	10.818
550.91	10.847
551.25	10.892
551.58	10.902
551.92	10.933
552.26	10.951
552.59	10.959
552.93	10.982
553.27	11.023
553.60	11.050
553.94	11.053
554.27	11.061
554.61	11.082
554.95	11.084
555.28	11.108
555.62	11.155
555.95	11.204
556.29	11.228
556.63	11.247
556.96	11.265
557.30	11.256
557.63	11.270
557.97	11.289
558.31	11.268
558.64	11.292
558.98	11.298
559.31	11.297
559.65	11.282
559.98	11.293
560.32	11.303
560.65	11.295
560.99	11.318
561.33	11.351
561.66	11.372
562.00	11.410
562.33	11.405
562.67	11.433
563.00	11.433
563.34	11.453
563.67	11.467
564.01	11.470
564.34	11.486
564.68	11.490
565.01	11.502
565.35	11.500
565.68	11.508
566.02	11.517
566.35	11.507
566.69	11.468
567.02	11.466
567.36	11.431
567.69	11.453
568.03	11.454
568.36	11.459
568.69	11.456
569.03	11.462
569.36	11.446
569.70	11.426
570.03	11.434
570.37	11.457
570.70	11.471
571.04	11.492
571.37	11.464
571.70	11.453
572.04	11.461
572.37	11.443
572.71	11.413
573.04	11.424
573.37	11.452
573.71	11.440
574.04	11.438
574.38	11.415
574.71	11.413
575.04	11.405
575.38	11.394
575.71	11.382
576.05	11.399
576.38	11.414
576.71	11.390
577.05	11.347
577.38	11.355
577.71	11.325
578.05	11.317
578.38	11.296
578.71	11.280
579.05	11.277
579.38	11.259
579.71	11.225
580.05	11.200
580.38	11.188
580.71	11.182
581.05	11.182
581.38	11.209
581.71	11.197
582.05	11.201
582.38	11.244
582.71	11.228
583.04	11.245
583.38	11.234
583.71	11.250
584.04	11.268
584.38	11.296
584.71	11.294
585.04	11.326
585.37	11.330
585.71	11.362
586.04	11.377
586.37	11.444
586.70	11.466
587.04	11.519
587.37	11.566
587.70	11.590
588.03	11.624
588.37	11.645
588.70	11.642
589.03	11.685
589.36	11.699
589.69	11.701
590.03	11.687
590.36	11.665
590.69	11.652
591.02	11.613
591.35	11.617
591.69	11.608
592.02	11.625
592.35	11.656
592.68	11.667
593.01	11.676
593.35	11.675
593.68	11.686
594.01	11.725
594.34	11.722
594.67	11.756
595.00	11.761
595.34	11.763
595.67	11.747
596.00	11.727
596.33	11.697
596.66	11.678
596.99	11.663
597.32	11.645
597.65	11.634
597.99	11.632
598.32	11.608
598.65	11.598
598.98	11.585
599.31	11.583
599.64	11.608
599.97	11.641
600.30	11.682
600.63	11.720
600.96	11.725
601.30	11.741
601.63	11.791
601.96	11.810
602.29	11.816
602.62	11.849
602.95	11.871
603.28	11.867
603.61	11.865
603.94	11.817
604.27	11.816
604.60	11.828
604.93	11.833
605.26	11.827
605.59	11.808
605.92	11.813
606.25	11.782
606.58	11.783
606.91	11.771
607.24	11.805
607.57	11.821
607.90	11.826
608.23	11.831
608.56	11.806
608.89	11.786
609.22	11.784
609.55	11.780
609.88	11.779
610.21	11.763
610.54	11.747
610.87	11.696
611.20	11.680
611.53	11.655
611.86	11.620
612.19	11.607
612.52	11.570
612.85	11.607
613.18	11.616
613.51	11.601
613.84	11.584
614.17	11.583
614.49	11.593
614.82	11.602
615.15	11.600
615.48	11.615
615.81	11.620
616.14	11.656
616.47	11.610
616.80	11.571
617.13	11.584
617.46	11.559
617.78	11.557
618.11	11.535
618.44	11.564
618.77	11.538
619.10	11.529
619.43	11.526
619.76	11.477
620.09	11.506
620.41	11.549
620.74	11.549
621.07	11.614
621.40	11.628
621.73	11.649
622.06	11.627
622.38	11.676
622.71	11.720
623.04	11.775
623.37	11.867
623.70	11.895
624.02	11.911
624.35	11.960
624.68	11.949
625.01	12.007
625.34	12.058
625.66	12.087
625.99	12.110
626.32	12.135
626.65	12.147
626.98	12.154
627.30	12.183
627.63	12.187
627.96	12.174
628.29	12.197
628.61	12.145
628.94	12.123
629.27	12.145
629.60	12.121
629.92	12.088
630.25	12.056
630.58	12.017
630.91	12.006
631.23	12.005
631.56	12.007
631.89	11.992
632.21	12.036
632.54	12.015
632.87	11.984
633.19	11.974
633.52	11.964
633.85	11.963
634.18	11.953
634.50	11.889
634.83	11.866
635.16	11.817
635.48	11.746
635.81	11.691
636.14	11.675
636.46	11.643
636.79	11.616
637.11	11.556
637.44	11.505
637.77	11.434
638.09	11.417
638.42	11.404
638.75	11.405
639.07	11.441
639.40	11.397
639.73	11.341
640.05	11.303
640.38	11.278
640.70	11.267
641.03	11.238
641.36	11.278
641.68	11.263
642.01	11.187
642.33	11.150
642.66	11.121
642.98	11.160
643.31	11.191
643.64	11.200
643.96	11.212
644.29	11.225
644.61	11.263
644.94	11.268
645.26	11.273
645.59	11.343
645.91	11.385
646.24	11.367
646.56	11.318
646.89	11.328
647.22	11.334
647.54	11.319
647.87	11.390
648.19	11.384
648.52	11.301
648.84	11.263
649.17	11.237
649.49	11.224
649.82	11.286
650.14	11.305
650.47	11.280
650.79	11.316
651.11	11.321
651.44	11.295
651.76	11.265
652.09	11.391
652.41	11.505
652.74	11.504
653.06	11.573
653.39	11.609
653.71	11.632
654.04	11.655
654.36	11.656
654.68	11.734
655.01	11.752
655.33	11.792
655.66	11.787
655.98	11.793
656.30	11.821
656.63	11.793
656.95	11.775
657.28	11.808
657.60	11.813
657.92	11.808
658.25	11.769
658.57	11.759
658.90	11.761
659.22	11.743
659.54	11.693
659.87	11.666
660.19	11.647
660.51	11.630
660.84	11.589
661.16	11.571
661.48	11.566
661.81	11.522
662.13	11.516
662.45	11.514
662.78	11.548
663.10	11.575
663.42	11.642
663.75	11.680
664.07	11.655
664.39	11.623
664.72	11.643
665.04	11.683
665.36	11.770
665.69	11.822
666.01	11.919
666.33	11.973
666.65	11.991
666.98	12.068
667.30	12.152
667.62	12.222
667.94	12.355
668.27	12.459
668.59	12.522
668.91	12.617
669.23	12.703
669.56	12.718
669.88	12.789
670.20	12.868
670.52	12.933
670.85	12.953
671.17	13.111
671.49	13.211
671.81	13.292
672.13	13.389
672.46	13.468
672.78	13.548
673.10	13.743
673.42	13.823
673.74	13.956
674.07	14.016
674.39	14.192
674.71	14.263
675.03	14.387
675.35	14.501
675.67	14.677
676.00	14.814
676.32	14.871
676.64	14.907
676.96	15.062
677.28	15.188
677.60	15.372
677.92	15.487
678.25	15.612
678.57	15.780
678.89	15.905
679.21	15.972
679.53	16.104
679.85	16.283
680.17	16.422
680.49	16.554
680.81	16.698
681.13	16.796
681.46	16.915
681.78	17.105
682.10	17.207
682.42	17.357
682.74	17.558
683.06	17.724
683.38	17.936
683.70	18.100
684.02	18.284
684.34	18.474
684.66	18.635
684.98	18.827
685.30	18.990
685.62	19.116
685.94	19.289
686.26	19.346
686.58	19.457
686.90	19.516
687.22	19.647
687.54	19.682
687.86	19.705
688.18	19.783
688.50	19.851
688.82	19.889
689.14	19.978
689.46	20.030
689.78	20.141
690.10	20.234
690.42	20.330
690.74	20.419
691.06	20.582
691.38	20.713
691.70	20.832
692.02	20.892
692.34	21.042
692.66	21.187
692.98	21.326
693.30	21.460
693.62	21.528
693.94	21.578
694.26	21.674
694.57	21.713
694.89	21.852
695.21	21.964
695.53	22.070
695.85	22.144
696.17	22.250
696.49	22.364
696.81	22.475
697.13	22.543
697.44	22.721
697.76	22.881
698.08	23.073
698.40	23.199
698.72	23.399
699.04	23.581
699.36	23.752
699.67	23.865
699.99	23.975
700.31	24.170
700.63	24.450
700.95	24.707
701.27	24.830
701.58	24.928
701.90	25.071
702.22	25.182
702.54	25.314
702.86	25.487
703.17	25.666
703.49	25.945
703.81	26.095
704.13	26.207
704.45	26.299
704.76	26.540
705.08	26.776
705.40	26.890
705.72	26.995
706.03	27.156
706.35	27.322
706.67	27.477
706.99	27.633
707.30	27.787
707.62	27.988
707.94	28.103
708.26	28.171
708.57	28.262
708.89	28.471
709.21	28.627
709.53	28.801
709.84	28.929
710.16	29.114
710.48	29.344
710.79	29.564
711.11	29.742
711.43	29.917
711.74	30.157
712.06	30.355
712.38	30.544
712.69	30.706
713.01	30.930
713.33	31.169
713.64	31.514
713.96	31.634
714.28	31.800
714.59	32.095
714.91	32.311
715.23	32.520
715.54	32.697
715.86	32.952
716.17	33.348
716.49	33.659
716.81	33.874
717.12	33.888
717.44	34.136
717.76	34.461
718.07	34.578
718.39	34.822
718.70	34.962
719.02	35.136
719.33	35.259
719.65	35.221
719.97	35.281
720.28	35.437
720.60	35.836
720.91	36.013
721.23	36.095
721.54	36.377
721.86	36.536
722.17	36.768
722.49	37.031
722.81	37.191
723.12	37.529
723.44	37.702
723.75	37.920
724.07	37.770
724.38	37.915
724.70	38.076
725.01	38.039
725.33	38.178
725.64	38.409
725.96	38.576
726.27	38.648
726.59	38.768
726.90	38.877
727.22	38.829
727.53	39.121
727.84	39.150
728.16	39.257
728.47	39.462
728.79	39.651
729.10	39.574
729.42	39.594
729.73	39.732
730.05	39.655
730.36	39.739
730.67	39.888
730.99	39.914
731.30	40.014
731.62	40.099
731.93	40.160
732.24	40.191
732.56	40.311
732.87	40.490
733.19	40.690
733.50	40.922
733.81	40.954
734.13	41.125
734.44	41.224
734.76	41.383
735.07	41.367
735.38	41.447
735.70	41.615
736.01	41.790
736.32	41.866
736.64	42.038
736.95	42.055
737.26	42.140
737.58	42.235
737.89	42.423
738.20	42.530
738.52	42.773
738.83	42.792
739.14	42.803
739.45	42.869
739.77	43.078
740.08	43.168
740.39	43.308
740.71	43.605
741.02	43.626
741.33	43.434
741.64	43.447
741.96	43.483
742.27	43.572
742.58	43.707
742.90	43.797
743.21	43.668
743.52	43.729
743.83	43.789
744.14	43.681
744.46	43.902
744.77	44.132
745.08	44.168
745.39	44.215
745.71	44.282
746.02	44.320
746.33	44.336
746.64	44.538
746.95	44.558
747.27	44.682
747.58	44.975
747.89	44.991
748.20	45.019
748.51	45.248
748.82	45.269
749.14	45.374
749.45	45.366
749.76	45.344
750.07	45.410
750.38	45.333
750.69	45.357
751.01	45.256
751.32	45.133
751.63	45.386
751.94	45.267
752.25	45.076
752.56	45.008
752.87	45.034
753.18	45.118
753.49	45.145
753.81	45.073
754.12	44.930
754.43	44.964
754.74	45.112
755.05	45.016
755.36	45.108
755.67	45.597
755.98	45.853
756.29	46.160
756.60	46.259
756.91	46.235
757.22	46.569
757.53	46.992
757.84	47.249
758.15	47.540
758.46	47.789
758.77	47.908
759.09	47.912
759.40	47.924
759.71	47.917
760.02	47.979
760.33	47.978
760.64	47.891
760.95	47.871
761.26	47.740
761.57	47.668
761.88	47.659
762.18	47.739
762.49	47.629
762.80	47.595
763.11	47.509
763.42	47.467
763.73	47.521
764.04	47.554
764.35	47.432
764.66	47.341
764.97	47.120
765.28	46.962
765.59	46.762
765.90	46.705
766.21	46.513
766.52	46.463
766.83	46.360
767.14	46.303
767.44	46.033
767.75	45.903
768.06	45.909
768.37	45.902
768.68	45.988
768.99	45.880
769.30	45.811
769.61	45.709
769.91	45.487
770.22	45.323
770.53	45.218
770.84	45.369
771.15	45.556
771.46	45.591
771.77	45.802
772.07	45.653
772.38	45.558
772.69	45.442
773.00	45.840
773.31	45.883
773.61	45.958
773.92	46.030
774.23	45.898
774.54	45.613
774.85	45.435
775.15	45.195
775.46	45.307
775.77	45.486
776.08	45.700
776.39	45.529
776.69	45.614
777.00	45.742
777.31	45.680
777.62	45.709
777.92	45.715
778.23	45.722
778.54	45.782
778.85	45.637
779.15	45.491
779.46	45.381
779.77	45.347
780.07	45.509
780.38	45.630
780.69	45.415
781.00	45.316
781.30	45.306
781.61	45.369
781.92	45.241
782.22	45.394
782.53	45.163
782.84	45.366
783.14	45.622
783.45	45.425
783.76	45.546
784.06	45.814
784.37	45.962
784.68	46.414
784.98	46.551
785.29	46.941
785.60	47.030
785.90	47.573
786.21	47.643
786.51	47.480
786.82	47.906
787.13	47.934
787.43	47.964
787.74	48.325
788.04	48.244
788.35	48.444
788.66	48.548
788.96	48.481
789.27	48.338
789.57	48.166
789.88	48.417
790.19	48.119
790.49	48.440
790.80	48.297
791.10	48.307
791.41	48.201
791.71	48.203
792.02	47.950
792.32	47.884
792.63	48.012
792.93	48.029
793.24	47.895
793.54	47.977
793.85	47.603
794.15	47.912
794.46	47.727
794.76	47.930
795.07	47.703
795.37	47.771
795.68	47.722
795.98	47.928
796.29	48.515
796.59	48.559
796.90	48.807
797.20	48.947
797.51	48.888
797.81	48.834
798.12	49.024
798.42	49.447
798.72	49.765
799.03	50.164
799.33	50.450
799.64	50.132
799.94	50.270
800.25	49.936
800.55	49.919
800.85	50.251
801.16	50.706
801.46	50.444
801.77	50.326
802.07	50.464
802.37	50.645
802.68	50.066
802.98	49.835
803.28	50.058
803.59	50.246
803.89	50.569
804.20	50.535
804.50	50.578
804.80	50.741
805.11	50.708
805.41	50.478
805.71	50.280
806.02	50.304
806.32	50.518
806.62	50.346
806.93	50.514
807.23	50.507
807.53	50.531
807.83	50.552
808.14	50.679
808.44	50.405
808.74	50.401
809.05	50.540
809.35	50.535
809.65	50.969
809.95	51.038
810.26	51.157
810.56	51.121
810.86	51.178
811.16	51.466
811.47	51.772
811.77	52.717
812.07	52.698
812.37	52.799
812.68	53.258
812.98	53.052
813.28	53.561
813.58	53.958
813.88	54.021
814.19	54.451
814.49	54.343
814.79	54.376
815.09	54.424
815.39	54.585
815.70	54.854
816.00	54.805
816.30	54.842
816.60	54.721
816.90	54.626
817.20	55.030
817.50	54.844
817.81	54.529
818.11	54.576
818.41	54.629
818.71	54.760
819.01	54.835
819.31	55.037
819.61	55.110
819.92	55.385
820.22	55.619
820.52	55.648
820.82	55.803
821.12	56.095
821.42	56.279
821.72	56.366
822.02	56.592
822.32	56.688
822.62	56.891
822.92	57.069
823.22	57.150
823.52	57.181
823.83	57.281
824.13	57.373
824.43	57.264
824.73	57.232
825.03	57.257
825.33	57.259
825.63	57.356
825.93	57.126
826.23	57.162
826.53	57.086
826.83	57.112
827.13	57.341
827.43	57.439
827.73	57.776
828.03	57.885
828.33	58.045
828.63	57.955
828.93	57.918
829.23	58.006
829.53	57.930
829.83	57.503
830.13	57.352
830.42	56.815
830.72	56.304
831.02	56.165
831.32	56.121
831.62	56.261
831.92	56.287
832.22	56.143
832.52	56.398
832.82	56.529
833.12	56.870
833.42	56.820
833.72	56.871
834.01	57.269
834.31	57.200
834.61	57.340
834.91	57.837
835.21	57.966
835.51	58.409
835.81	57.753
836.11	58.084
836.40	58.021
836.70	58.380
837.00	58.687
837.30	58.397
837.60	58.601
837.90	58.643
838.19	57.545
838.49	57.632
838.79	57.756
839.09	58.592
839.39	58.474
839.68	58.762
839.98	58.147
840.28	57.684
840.58	57.726
840.88	57.415
841.17	57.750
841.47	58.086
841.77	57.860
842.07	57.656
842.36	57.430
842.66	56.680
842.96	56.153
843.26	56.299
843.55	56.078
843.85	56.381
844.15	56.575
844.45	54.650
844.74	54.967
845.04	55.061
845.34	55.724
845.63	56.920
845.93	57.172
846.23	56.778
846.53	56.171
846.82	55.788
847.12	55.937
847.42	55.868
847.71	56.570
848.01	55.194
848.31	54.397
848.60	53.271
848.90	52.332
849.19	51.482
849.49	51.756
849.79	53.394
850.08	54.579
850.38	53.747
850.68	54.471
850.97	55.857
851.27	56.793
851.56	57.730
851.86	56.805
852.16	57.045
852.45	56.123
852.75	56.158
853.04	57.124
853.34	57.234
853.64	57.352
853.93	55.644
854.23	55.251
854.52	55.591
854.82	55.474
855.11	54.639
855.41	55.317
855.70	57.574
856.00	57.701
856.30	56.487
856.59	56.754
856.89	56.826
857.18	59.834
857.48	59.354
857.77	57.169
858.07	56.617
858.36	57.020
858.66	57.121
858.95	55.320
859.25	55.933
859.54	55.435
859.84	54.290
860.13	53.205
860.42	51.635
860.72	50.658
861.01	51.509
861.31	52.892
861.60	54.951
861.90	55.007
862.19	56.868
862.49	54.567
862.78	55.187
863.07	56.744
863.37	59.529
863.66	58.595
863.96	61.866
864.25	62.447
864.54	63.526
864.84	64.597
865.13	63.733
865.43	63.531
865.72	60.544
866.01	78.197
866.31	75.981
866.60	54.078
866.89	60.377
>>>>>End Spectral Data<<<<<
