OOIBase32 Version 2.0.0.6 Data File
++++++++++++++++++++++++++++++++++++
Date: 01-23-2012, 23:27:49
User: Valued Ocean Optics Customer
Spectrometer Serial Number: USB2E2917
Spectrometer Channel: Master
Integration Time (msec): 5
Spectra Averaged: 10
Boxcar Smoothing: 5
Correct for Electrical Dark: Enabled
Time Normalized: Disabled
Dual-beam Reference: Disabled
Reference Channel: Master
Temperature: Not acquired
Spectrometer Type: S2000
ADC Type: USB2000
Number of Pixels in File: 2048
Graph Title: 
>>>>>Begin Spectral Data<<<<<
180.30	0.000
180.67	0.000
181.03	71.552
181.40	327.363
181.77	-11944.725
182.14	46.117
182.51	-372.567
182.88	151.832
183.25	74.967
183.62	62.862
183.99	-124.077
184.36	183.135
184.73	-155.886
185.10	-36.063
185.46	-319.941
185.83	-34.299
186.20	213.263
186.57	109.859
186.94	115.656
187.31	46.504
187.68	-8.288
188.05	-13.203
188.42	-17.428
188.78	14.101
189.15	136.985
189.52	5.586
189.89	29.135
190.26	-6.910
190.63	-4.172
191.00	-3.714
191.37	-8.794
191.73	3.356
192.10	4.791
192.47	-0.889
192.84	0.683
193.21	0.718
193.58	-1.031
193.94	-18.367
194.31	-2.426
194.68	-8.574
195.05	-6.011
195.42	3.264
195.79	-20.108
196.15	-27.403
196.52	-49.122
196.89	-57.873
197.26	-83.927
197.63	-70.370
198.00	-65.342
198.36	-83.248
198.73	-92.867
199.10	-108.468
199.47	-91.624
199.84	-71.474
200.20	-67.422
200.57	-49.512
200.94	-53.239
201.31	-45.474
201.68	-52.784
202.04	-42.123
202.41	-31.045
202.78	-45.156
203.15	-34.430
203.51	-45.289
203.88	-38.745
204.25	-25.815
204.62	-20.581
204.98	-19.803
205.35	-16.380
205.72	4.922
206.09	2.518
206.46	-47.442
206.82	-40.933
207.19	-49.379
207.56	-81.204
207.92	-72.428
208.29	-75.396
208.66	-42.302
209.03	-34.081
209.39	-13.980
209.76	-17.023
210.13	-42.945
210.50	-12.596
210.86	0.262
211.23	18.530
211.60	22.439
211.96	19.024
212.33	12.746
212.70	3.548
213.07	-6.874
213.43	-55.409
213.80	-81.337
214.17	-48.372
214.53	-42.022
214.90	-31.101
215.27	-28.874
215.63	-33.566
216.00	-34.013
216.37	-36.634
216.74	-48.201
217.10	-37.630
217.47	-31.339
217.84	-17.862
218.20	-12.464
218.57	-5.254
218.94	-10.628
219.30	-17.228
219.67	-20.602
220.04	-16.753
220.40	-20.831
220.77	-15.883
221.13	-14.160
221.50	-5.419
221.87	-6.751
222.23	-10.779
222.60	-14.318
222.97	-11.481
223.33	-4.169
223.70	0.578
224.07	-0.175
224.43	1.551
224.80	4.814
225.16	3.584
225.53	3.164
225.90	1.574
226.26	2.212
226.63	3.206
226.99	3.178
227.36	2.873
227.73	3.538
228.09	3.816
228.46	5.126
228.82	4.972
229.19	5.214
229.56	5.129
229.92	8.076
230.29	8.836
230.65	8.478
231.02	7.613
231.38	6.376
231.75	4.816
232.12	3.368
232.48	0.133
232.85	-1.622
233.21	-1.296
233.58	-3.295
233.94	-4.290
234.31	-4.526
234.68	-4.886
235.04	-3.950
235.41	-2.587
235.77	-0.320
236.14	1.153
236.50	3.539
236.87	3.896
237.23	4.816
237.60	5.893
237.96	6.581
238.33	6.658
238.69	6.334
239.06	6.450
239.42	6.634
239.79	5.669
240.15	4.907
240.52	4.514
240.88	4.882
241.25	4.743
241.61	4.694
241.98	4.201
242.34	3.806
242.71	4.603
243.07	4.506
243.44	4.413
243.80	4.658
244.17	4.897
244.53	4.934
244.90	4.788
245.26	4.514
245.63	4.387
245.99	4.276
246.36	4.093
246.72	3.970
247.09	4.040
247.45	4.204
247.81	4.375
248.18	4.332
248.54	4.510
248.91	4.032
249.27	4.427
249.64	4.907
250.00	5.423
250.36	5.872
250.73	5.534
251.09	5.440
251.46	5.241
251.82	4.941
252.19	5.138
252.55	4.769
252.91	5.477
253.28	4.860
253.64	4.272
254.01	4.026
254.37	3.711
254.73	4.186
255.10	4.575
255.46	5.028
255.83	5.083
256.19	5.000
256.55	5.030
256.92	5.107
257.28	5.259
257.65	5.439
258.01	5.413
258.37	5.549
258.74	5.349
259.10	5.035
259.46	4.640
259.83	4.596
260.19	4.546
260.55	4.501
260.92	4.325
261.28	4.154
261.64	4.175
262.01	4.103
262.37	4.193
262.73	4.336
263.10	4.552
263.46	4.725
263.82	4.544
264.19	4.605
264.55	4.497
264.91	4.207
265.28	4.118
265.64	4.055
266.00	4.126
266.37	3.915
266.73	3.704
267.09	3.796
267.46	3.750
267.82	3.909
268.18	4.122
268.54	4.408
268.91	4.785
269.27	4.961
269.63	5.150
270.00	5.261
270.36	5.529
270.72	5.642
271.08	5.735
271.45	5.678
271.81	5.518
272.17	5.447
272.53	5.450
272.90	5.437
273.26	5.584
273.62	5.371
273.98	4.951
274.35	4.958
274.71	5.159
275.07	5.203
275.43	5.352
275.80	5.462
276.16	5.519
276.52	5.444
276.88	5.706
277.25	5.633
277.61	5.558
277.97	5.797
278.33	5.541
278.69	5.130
279.06	5.029
279.42	5.133
279.78	5.173
280.14	5.235
280.50	5.312
280.87	5.003
281.23	5.054
281.59	5.282
281.95	5.445
282.31	5.680
282.68	5.856
283.04	5.855
283.40	5.891
283.76	5.869
284.12	6.014
284.48	6.027
284.85	6.078
285.21	6.060
285.57	5.888
285.93	5.833
286.29	5.602
286.65	5.824
287.02	6.087
287.38	5.997
287.74	6.130
288.10	5.891
288.46	5.784
288.82	5.761
289.18	5.682
289.54	5.765
289.91	5.817
290.27	6.026
290.63	5.932
290.99	5.891
291.35	6.148
291.71	6.160
292.07	6.325
292.43	6.341
292.79	6.558
293.16	6.534
293.52	6.662
293.88	6.761
294.24	6.873
294.60	6.754
294.96	6.741
295.32	6.719
295.68	6.785
296.04	6.796
296.40	7.068
296.76	7.084
297.12	7.254
297.49	7.133
297.85	6.995
298.21	6.855
298.57	6.875
298.93	6.804
299.29	6.537
299.65	6.467
300.01	6.252
300.37	6.193
300.73	6.249
301.09	6.410
301.45	6.662
301.81	6.822
302.17	6.858
302.53	7.021
302.89	7.097
303.25	7.344
303.61	7.363
303.97	7.424
304.33	7.430
304.69	7.391
305.05	7.289
305.41	7.139
305.77	7.035
306.13	7.059
306.49	6.952
306.85	6.946
307.21	7.019
307.57	6.997
307.93	7.054
308.29	7.110
308.65	7.056
309.01	7.066
309.37	7.155
309.73	7.217
310.09	7.379
310.45	7.531
310.81	7.514
311.17	7.388
311.53	7.470
311.89	7.511
312.25	7.527
312.61	7.565
312.96	7.635
313.32	7.700
313.68	7.722
314.04	7.445
314.40	7.456
314.76	7.401
315.12	7.421
315.48	7.486
315.84	7.515
316.20	7.424
316.56	7.423
316.92	7.376
317.27	7.324
317.63	7.268
317.99	7.427
318.35	7.377
318.71	7.507
319.07	7.728
319.43	7.823
319.79	7.951
320.15	7.972
320.50	8.129
320.86	8.158
321.22	8.148
321.58	8.184
321.94	8.186
322.30	8.186
322.66	8.212
323.01	8.072
323.37	7.949
323.73	7.861
324.09	7.933
324.45	7.991
324.81	7.993
325.17	8.096
325.52	8.222
325.88	8.310
326.24	8.494
326.60	8.557
326.96	8.710
327.31	8.855
327.67	9.025
328.03	9.077
328.39	9.050
328.75	9.146
329.11	9.255
329.46	9.348
329.82	9.453
330.18	9.444
330.54	9.411
330.90	9.417
331.25	9.495
331.61	9.553
331.97	9.592
332.33	9.671
332.68	9.729
333.04	9.692
333.40	9.705
333.76	9.690
334.11	9.684
334.47	9.795
334.83	9.837
335.19	9.810
335.54	9.847
335.90	9.884
336.26	9.891
336.62	9.847
336.97	9.856
337.33	9.784
337.69	9.785
338.05	9.754
338.40	9.644
338.76	9.608
339.12	9.648
339.48	9.516
339.83	9.460
340.19	9.422
340.55	9.519
340.90	9.447
341.26	9.478
341.62	9.506
341.97	9.565
342.33	9.748
342.69	9.836
343.04	9.853
343.40	9.881
343.76	9.895
344.12	9.988
344.47	10.035
344.83	10.180
345.19	10.280
345.54	10.264
345.90	10.281
346.26	10.295
346.61	10.299
346.97	10.240
347.32	10.312
347.68	10.307
348.04	10.272
348.39	10.174
348.75	10.182
349.11	10.104
349.46	10.144
349.82	10.095
350.18	10.017
350.53	10.015
350.89	10.042
351.24	9.940
351.60	9.931
351.96	9.908
352.31	9.931
352.67	9.941
353.02	9.946
353.38	9.944
353.74	10.036
354.09	9.992
354.45	10.023
354.80	10.056
355.16	10.179
355.52	10.210
355.87	10.146
356.23	10.169
356.58	10.114
356.94	10.160
357.29	10.141
357.65	10.049
358.00	10.111
358.36	10.056
358.72	9.983
359.07	9.918
359.43	9.922
359.78	10.042
360.14	10.043
360.49	10.020
360.85	10.016
361.20	10.054
361.56	10.123
361.91	10.109
362.27	10.113
362.62	10.161
362.98	10.267
363.33	10.270
363.69	10.221
364.04	10.242
364.40	10.208
364.75	10.138
365.11	10.165
365.46	10.099
365.82	10.103
366.17	10.046
366.53	10.066
366.88	10.008
367.24	10.083
367.59	10.121
367.95	10.153
368.30	10.232
368.66	10.270
369.01	10.196
369.37	10.234
369.72	10.282
370.08	10.331
370.43	10.381
370.78	10.365
371.14	10.258
371.49	10.264
371.85	10.216
372.20	10.175
372.56	10.153
372.91	10.193
373.26	10.187
373.62	10.100
373.97	10.136
374.33	10.096
374.68	10.114
375.03	10.169
375.39	10.103
375.74	10.099
376.10	10.121
376.45	10.171
376.80	10.198
377.16	10.169
377.51	10.221
377.87	10.214
378.22	10.135
378.57	10.120
378.93	10.156
379.28	10.183
379.63	10.202
379.99	10.221
380.34	10.198
380.70	10.155
381.05	10.202
381.40	10.206
381.76	10.213
382.11	10.294
382.46	10.367
382.82	10.362
383.17	10.390
383.52	10.389
383.88	10.396
384.23	10.400
384.58	10.417
384.94	10.398
385.29	10.385
385.64	10.334
385.99	10.318
386.35	10.248
386.70	10.218
387.05	10.199
387.41	10.184
387.76	10.152
388.11	10.152
388.47	10.118
388.82	10.153
389.17	10.186
389.52	10.209
389.88	10.255
390.23	10.235
390.58	10.261
390.93	10.257
391.29	10.290
391.64	10.309
391.99	10.363
392.34	10.406
392.70	10.374
393.05	10.311
393.40	10.321
393.75	10.276
394.11	10.292
394.46	10.265
394.81	10.278
395.16	10.216
395.52	10.227
395.87	10.168
396.22	10.151
396.57	10.126
396.92	10.134
397.28	10.109
397.63	10.095
397.98	10.111
398.33	10.121
398.68	10.108
399.04	10.100
399.39	10.058
399.74	10.049
400.09	9.992
400.44	9.992
400.80	9.965
401.15	9.937
401.50	9.920
401.85	9.907
402.20	9.849
402.55	9.838
402.90	9.847
403.26	9.835
403.61	9.848
403.96	9.881
404.31	9.850
404.66	9.863
405.01	9.867
405.36	9.859
405.72	9.843
406.07	9.853
406.42	9.823
406.77	9.827
407.12	9.802
407.47	9.784
407.82	9.773
408.17	9.784
408.53	9.784
408.88	9.770
409.23	9.754
409.58	9.721
409.93	9.717
410.28	9.735
410.63	9.706
410.98	9.732
411.33	9.705
411.68	9.707
412.03	9.729
412.38	9.701
412.73	9.735
413.09	9.731
413.44	9.735
413.79	9.743
414.14	9.748
414.49	9.754
414.84	9.743
415.19	9.738
415.54	9.729
415.89	9.710
416.24	9.724
416.59	9.725
416.94	9.719
417.29	9.745
417.64	9.729
417.99	9.717
418.34	9.729
418.69	9.746
419.04	9.742
419.39	9.741
419.74	9.738
420.09	9.746
420.44	9.742
420.79	9.740
421.14	9.729
421.49	9.741
421.84	9.755
422.19	9.754
422.54	9.723
422.89	9.741
423.24	9.750
423.59	9.751
423.94	9.750
424.29	9.751
424.64	9.781
424.99	9.798
425.34	9.802
425.68	9.797
426.03	9.784
426.38	9.835
426.73	9.835
427.08	9.823
427.43	9.825
427.78	9.830
428.13	9.824
428.48	9.799
428.83	9.784
429.18	9.789
429.53	9.796
429.87	9.781
430.22	9.745
430.57	9.774
430.92	9.769
431.27	9.771
431.62	9.752
431.97	9.744
432.32	9.754
432.67	9.746
433.01	9.739
433.36	9.717
433.71	9.744
434.06	9.745
434.41	9.697
434.76	9.709
435.11	9.705
435.45	9.694
435.80	9.697
436.15	9.688
436.50	9.699
436.85	9.715
437.20	9.706
437.54	9.681
437.89	9.689
438.24	9.707
438.59	9.697
438.94	9.721
439.29	9.735
439.63	9.743
439.98	9.767
440.33	9.771
440.68	9.782
441.03	9.818
441.37	9.830
441.72	9.843
442.07	9.850
442.42	9.872
442.76	9.883
443.11	9.906
443.46	9.922
443.81	9.935
444.16	9.950
444.50	9.953
444.85	9.954
445.20	9.976
445.55	9.981
445.89	10.005
446.24	10.015
446.59	10.008
446.94	10.009
447.28	10.020
447.63	10.015
447.98	10.022
448.32	10.024
448.67	10.038
449.02	10.022
449.37	10.040
449.71	10.020
450.06	10.039
450.41	10.051
450.75	10.042
451.10	10.046
451.45	10.037
451.79	10.032
452.14	10.037
452.49	10.027
452.84	10.047
453.18	10.053
453.53	10.063
453.88	10.037
454.22	10.045
454.57	10.068
454.92	10.087
455.26	10.101
455.61	10.124
455.95	10.164
456.30	10.173
456.65	10.199
456.99	10.217
457.34	10.238
457.69	10.257
458.03	10.266
458.38	10.278
458.73	10.274
459.07	10.277
459.42	10.258
459.76	10.242
460.11	10.230
460.46	10.209
460.80	10.211
461.15	10.191
461.49	10.184
461.84	10.199
462.19	10.192
462.53	10.177
462.88	10.190
463.22	10.221
463.57	10.197
463.91	10.206
464.26	10.221
464.61	10.220
464.95	10.232
465.30	10.233
465.64	10.235
465.99	10.239
466.33	10.273
466.68	10.272
467.02	10.252
467.37	10.276
467.71	10.279
468.06	10.287
468.41	10.276
468.75	10.268
469.10	10.278
469.44	10.252
469.79	10.231
470.13	10.185
470.48	10.174
470.82	10.173
471.17	10.157
471.51	10.164
471.86	10.139
472.20	10.140
472.55	10.141
472.89	10.151
473.23	10.159
473.58	10.182
473.92	10.204
474.27	10.204
474.61	10.200
474.96	10.203
475.30	10.186
475.65	10.192
475.99	10.198
476.34	10.207
476.68	10.181
477.02	10.187
477.37	10.198
477.71	10.232
478.06	10.281
478.40	10.355
478.75	10.446
479.09	10.584
479.43	10.739
479.78	10.919
480.12	11.114
480.47	11.335
480.81	11.551
481.15	11.763
481.50	11.978
481.84	12.225
482.19	12.484
482.53	12.702
482.87	12.836
483.22	12.836
483.56	12.733
483.90	12.545
484.25	12.299
484.59	12.029
484.94	11.791
485.28	11.573
485.62	11.329
485.97	11.059
486.31	10.829
486.65	10.667
487.00	10.617
487.34	10.636
487.68	10.717
488.03	10.833
488.37	10.968
488.71	11.060
489.06	11.087
489.40	11.095
489.74	11.093
490.09	11.093
490.43	11.088
490.77	11.090
491.11	11.079
491.46	11.068
491.80	11.068
492.14	11.039
492.49	11.019
492.83	10.992
493.17	10.978
493.51	10.981
493.86	10.967
494.20	10.963
494.54	10.950
494.88	10.998
495.23	11.033
495.57	11.063
495.91	11.110
496.25	11.155
496.60	11.208
496.94	11.246
497.28	11.286
497.62	11.328
497.97	11.369
498.31	11.433
498.65	11.470
498.99	11.517
499.33	11.577
499.68	11.645
500.02	11.694
500.36	11.757
500.70	11.814
501.04	11.854
501.39	11.920
501.73	11.998
502.07	12.074
502.41	12.133
502.75	12.232
503.09	12.308
503.44	12.394
503.78	12.450
504.12	12.537
504.46	12.634
504.80	12.753
505.14	12.877
505.49	12.967
505.83	13.057
506.17	13.173
506.51	13.260
506.85	13.351
507.19	13.455
507.53	13.562
507.87	13.677
508.22	13.772
508.56	13.890
508.90	13.982
509.24	14.103
509.58	14.222
509.92	14.344
510.26	14.446
510.60	14.586
510.94	14.711
511.28	14.853
511.63	14.988
511.97	15.143
512.31	15.279
512.65	15.449
512.99	15.624
513.33	15.835
513.67	16.018
514.01	16.227
514.35	16.405
514.69	16.598
515.03	16.780
515.37	16.946
515.71	17.126
516.05	17.291
516.39	17.411
516.73	17.557
517.07	17.669
517.41	17.775
517.75	17.888
518.09	18.008
518.43	18.120
518.77	18.229
519.11	18.342
519.45	18.435
519.79	18.558
520.13	18.702
520.47	18.846
520.81	18.977
521.15	19.161
521.49	19.308
521.83	19.465
522.17	19.597
522.51	19.785
522.85	19.978
523.19	20.194
523.53	20.439
523.87	20.704
524.21	20.980
524.55	21.258
524.89	21.501
525.23	21.735
525.57	21.952
525.91	22.168
526.25	22.346
526.58	22.519
526.92	22.659
527.26	22.723
527.60	22.758
527.94	22.780
528.28	22.790
528.62	22.769
528.96	22.771
529.30	22.741
529.64	22.700
529.97	22.663
530.31	22.597
530.65	22.562
530.99	22.591
531.33	22.640
531.67	22.655
532.01	22.667
532.35	22.705
532.68	22.702
533.02	22.707
533.36	22.705
533.70	22.698
534.04	22.715
534.38	22.737
534.71	22.741
535.05	22.738
535.39	22.745
535.73	22.769
536.07	22.787
536.41	22.827
536.74	22.886
537.08	22.927
537.42	23.022
537.76	23.085
538.10	23.153
538.43	23.226
538.77	23.313
539.11	23.398
539.45	23.459
539.79	23.517
540.12	23.564
540.46	23.584
540.80	23.607
541.14	23.590
541.47	23.563
541.81	23.528
542.15	23.494
542.49	23.438
542.82	23.379
543.16	23.333
543.50	23.283
543.84	23.249
544.17	23.221
544.51	23.213
544.85	23.186
545.18	23.215
545.52	23.228
545.86	23.223
546.20	23.236
546.53	23.242
546.87	23.240
547.21	23.221
547.54	23.175
547.88	23.188
548.22	23.174
548.55	23.167
548.89	23.163
549.23	23.155
549.56	23.178
549.90	23.190
550.24	23.196
550.57	23.194
550.91	23.189
551.25	23.239
551.58	23.247
551.92	23.257
552.26	23.270
552.59	23.283
552.93	23.296
553.27	23.284
553.60	23.293
553.94	23.291
554.27	23.295
554.61	23.328
554.95	23.311
555.28	23.307
555.62	23.290
555.95	23.284
556.29	23.261
556.63	23.218
556.96	23.183
557.30	23.149
557.63	23.142
557.97	23.099
558.31	23.057
558.64	23.019
558.98	22.979
559.31	22.963
559.65	22.941
559.98	22.898
560.32	22.854
560.65	22.843
560.99	22.787
561.33	22.713
561.66	22.689
562.00	22.672
562.33	22.641
562.67	22.599
563.00	22.563
563.34	22.538
563.67	22.505
564.01	22.479
564.34	22.412
564.68	22.372
565.01	22.354
565.35	22.316
565.68	22.258
566.02	22.185
566.35	22.140
566.69	22.048
567.02	21.996
567.36	21.916
567.69	21.858
568.03	21.824
568.36	21.758
568.69	21.680
569.03	21.597
569.36	21.546
569.70	21.523
570.03	21.469
570.37	21.425
570.70	21.360
571.04	21.322
571.37	21.263
571.70	21.207
572.04	21.158
572.37	21.106
572.71	21.042
573.04	20.995
573.37	20.914
573.71	20.863
574.04	20.806
574.38	20.718
574.71	20.682
575.04	20.639
575.38	20.582
575.71	20.550
576.05	20.532
576.38	20.544
576.71	20.489
577.05	20.454
577.38	20.397
577.71	20.391
578.05	20.373
578.38	20.302
578.71	20.271
579.05	20.232
579.38	20.168
579.71	20.110
580.05	20.044
580.38	19.978
580.71	19.962
581.05	19.932
581.38	19.912
581.71	19.895
582.05	19.873
582.38	19.826
582.71	19.765
583.04	19.749
583.38	19.670
583.71	19.629
584.04	19.653
584.38	19.613
584.71	19.545
585.04	19.509
585.37	19.479
585.71	19.446
586.04	19.379
586.37	19.372
586.70	19.358
587.04	19.387
587.37	19.358
587.70	19.297
588.03	19.269
588.37	19.266
588.70	19.253
589.03	19.219
589.36	19.195
589.69	19.210
590.03	19.166
590.36	19.112
590.69	19.046
591.02	19.020
591.35	18.933
591.69	18.905
592.02	18.867
592.35	18.806
592.68	18.785
593.01	18.759
593.35	18.764
593.68	18.737
594.01	18.727
594.34	18.696
594.67	18.666
595.00	18.685
595.34	18.638
595.67	18.604
596.00	18.595
596.33	18.559
596.66	18.544
596.99	18.489
597.32	18.484
597.65	18.458
597.99	18.447
598.32	18.405
598.65	18.370
598.98	18.331
599.31	18.324
599.64	18.282
599.97	18.263
600.30	18.249
600.63	18.236
600.96	18.214
601.30	18.193
601.63	18.198
601.96	18.193
602.29	18.184
602.62	18.200
602.95	18.188
603.28	18.163
603.61	18.120
603.94	18.082
604.27	18.064
604.60	18.050
604.93	18.024
605.26	17.976
605.59	17.978
605.92	17.963
606.25	17.924
606.58	17.924
606.91	17.912
607.24	17.922
607.57	17.909
607.90	17.874
608.23	17.799
608.56	17.760
608.89	17.724
609.22	17.682
609.55	17.611
609.88	17.569
610.21	17.495
610.54	17.465
610.87	17.404
611.20	17.334
611.53	17.290
611.86	17.276
612.19	17.240
612.52	17.178
612.85	17.142
613.18	17.142
613.51	17.057
613.84	16.988
614.17	16.929
614.49	16.914
614.82	16.866
615.15	16.850
615.48	16.836
615.81	16.783
616.14	16.813
616.47	16.731
616.80	16.690
617.13	16.686
617.46	16.679
617.78	16.658
618.11	16.603
618.44	16.606
618.77	16.547
619.10	16.499
619.43	16.467
619.76	16.366
620.09	16.392
620.41	16.398
620.74	16.426
621.07	16.436
621.40	16.403
621.73	16.412
622.06	16.383
622.38	16.388
622.71	16.367
623.04	16.439
623.37	16.497
623.70	16.492
624.02	16.477
624.35	16.473
624.68	16.454
625.01	16.457
625.34	16.445
625.66	16.438
625.99	16.453
626.32	16.487
626.65	16.456
626.98	16.460
627.30	16.407
627.63	16.380
627.96	16.374
628.29	16.334
628.61	16.287
628.94	16.255
629.27	16.234
629.60	16.164
629.92	16.101
630.25	16.032
630.58	15.963
630.91	15.976
631.23	15.937
631.56	15.865
631.89	15.809
632.21	15.781
632.54	15.740
632.87	15.676
633.19	15.601
633.52	15.535
633.85	15.484
634.18	15.399
634.50	15.304
634.83	15.227
635.16	15.128
635.48	15.036
635.81	14.938
636.14	14.839
636.46	14.754
636.79	14.680
637.11	14.559
637.44	14.438
637.77	14.313
638.09	14.178
638.42	14.050
638.75	13.987
639.07	13.922
639.40	13.873
639.73	13.758
640.05	13.650
640.38	13.600
640.70	13.532
641.03	13.423
641.36	13.342
641.68	13.313
642.01	13.278
642.33	13.180
642.66	13.126
642.98	13.027
643.31	12.963
643.64	12.928
643.96	12.859
644.29	12.830
644.61	12.836
644.94	12.859
645.26	12.830
645.59	12.838
645.91	12.839
646.24	12.837
646.56	12.824
646.89	12.854
647.22	12.844
647.54	12.835
647.87	12.827
648.19	12.801
648.52	12.788
648.84	12.811
649.17	12.739
649.49	12.752
649.82	12.735
650.14	12.770
650.47	12.790
650.79	12.785
651.11	12.800
651.44	12.842
651.76	12.862
652.09	12.907
652.41	12.936
652.74	13.012
653.06	13.023
653.39	13.080
653.71	13.087
654.04	13.053
654.36	13.113
654.68	13.145
655.01	13.155
655.33	13.181
655.66	13.131
655.98	13.106
656.30	13.057
656.63	13.015
656.95	12.996
657.28	13.004
657.60	12.991
657.92	12.976
658.25	12.930
658.57	12.903
658.90	12.914
659.22	12.918
659.54	12.934
659.87	12.952
660.19	12.925
660.51	12.928
660.84	12.890
661.16	12.916
661.48	12.918
661.81	12.961
662.13	12.983
662.45	12.987
662.78	13.064
663.10	13.095
663.42	13.177
663.75	13.287
664.07	13.345
664.39	13.350
664.72	13.451
665.04	13.531
665.36	13.597
665.69	13.677
666.01	13.778
666.33	13.834
666.65	13.885
666.98	13.979
667.30	14.148
667.62	14.212
667.94	14.376
668.27	14.420
668.59	14.516
668.91	14.678
669.23	14.858
669.56	15.007
669.88	15.236
670.20	15.399
670.52	15.579
670.85	15.707
671.17	15.935
671.49	16.164
671.81	16.455
672.13	16.713
672.46	16.970
672.78	17.222
673.10	17.436
673.42	17.622
673.74	17.874
674.07	18.101
674.39	18.365
674.71	18.598
675.03	18.817
675.35	19.038
675.67	19.246
676.00	19.374
676.32	19.503
676.64	19.699
676.96	19.893
677.28	20.107
677.60	20.271
677.92	20.445
678.25	20.694
678.57	20.922
678.89	21.056
679.21	21.285
679.53	21.559
679.85	21.837
680.17	22.150
680.49	22.429
680.81	22.732
681.13	23.121
681.46	23.444
681.78	23.697
682.10	24.008
682.42	24.353
682.74	24.633
683.06	24.907
683.38	25.187
683.70	25.421
684.02	25.670
684.34	25.916
684.66	26.084
684.98	26.288
685.30	26.489
685.62	26.700
685.94	26.944
686.26	27.125
686.58	27.359
686.90	27.526
687.22	27.716
687.54	27.874
687.86	28.034
688.18	28.219
688.50	28.422
688.82	28.643
689.14	28.872
689.46	29.051
689.78	29.272
690.10	29.502
690.42	29.753
690.74	29.953
691.06	30.235
691.38	30.459
691.70	30.646
692.02	30.823
692.34	31.074
692.66	31.228
692.98	31.417
693.30	31.558
693.62	31.612
693.94	31.598
694.26	31.659
694.57	31.633
694.89	31.659
695.21	31.656
695.53	31.728
695.85	31.682
696.17	31.681
696.49	31.721
696.81	31.751
697.13	31.834
697.44	31.977
697.76	32.104
698.08	32.318
698.40	32.544
698.72	32.855
699.04	33.063
699.36	33.458
699.67	33.758
699.99	34.072
700.31	34.449
700.63	34.867
700.95	35.259
701.27	35.566
701.58	35.859
701.90	36.055
702.22	36.170
702.54	36.317
702.86	36.439
703.17	36.571
703.49	36.751
703.81	36.901
704.13	36.871
704.45	36.979
704.76	37.183
705.08	37.322
705.40	37.394
705.72	37.528
706.03	37.637
706.35	37.679
706.67	37.748
706.99	37.797
707.30	37.924
707.62	38.132
707.94	38.148
708.26	38.161
708.57	38.162
708.89	38.329
709.21	38.471
709.53	38.575
709.84	38.718
710.16	38.972
710.48	39.175
710.79	39.304
711.11	39.342
711.43	39.491
711.74	39.651
712.06	39.899
712.38	40.056
712.69	40.208
713.01	40.424
713.33	40.539
713.64	40.751
713.96	40.937
714.28	40.993
714.59	41.368
714.91	41.695
715.23	41.971
715.54	42.121
715.86	42.365
716.17	42.576
716.49	42.858
716.81	43.082
717.12	43.217
717.44	43.546
717.76	44.013
718.07	44.109
718.39	44.257
718.70	44.382
719.02	44.573
719.33	44.844
719.65	45.084
719.97	45.256
720.28	45.594
720.60	45.764
720.91	45.828
721.23	46.007
721.54	46.252
721.86	46.378
722.17	46.703
722.49	46.851
722.81	46.819
723.12	46.992
723.44	47.228
723.75	47.290
724.07	47.451
724.38	47.504
724.70	47.532
725.01	47.576
725.33	47.725
725.64	47.732
725.96	47.865
726.27	47.905
726.59	48.015
726.90	47.978
727.22	47.942
727.53	48.052
727.84	48.035
728.16	48.040
728.47	48.110
728.79	48.229
729.10	48.292
729.42	48.383
729.73	48.491
730.05	48.557
730.36	48.612
730.67	48.788
730.99	48.875
731.30	49.100
731.62	49.198
731.93	49.236
732.24	49.233
732.56	49.355
732.87	49.482
733.19	49.710
733.50	49.859
733.81	50.004
734.13	50.139
734.44	50.301
734.76	50.383
735.07	50.555
735.38	50.688
735.70	50.858
736.01	50.928
736.32	51.014
736.64	51.168
736.95	51.065
737.26	51.118
737.58	51.017
737.89	50.988
738.20	51.060
738.52	51.202
738.83	51.245
739.14	51.275
739.45	51.308
739.77	51.353
740.08	51.352
740.39	51.535
740.71	51.763
741.02	51.911
741.33	51.860
741.64	51.938
741.96	52.063
742.27	52.064
742.58	52.356
742.90	52.527
743.21	52.542
743.52	52.484
743.83	52.300
744.14	52.052
744.46	52.217
744.77	52.435
745.08	52.449
745.39	52.351
745.71	52.373
746.02	52.244
746.33	52.041
746.64	51.947
746.95	51.908
747.27	51.977
747.58	51.825
747.89	51.833
748.20	51.696
748.51	51.575
748.82	51.331
749.14	51.383
749.45	51.242
749.76	51.442
750.07	51.456
750.38	51.436
750.69	51.430
751.01	51.611
751.32	51.516
751.63	51.509
751.94	51.431
752.25	51.489
752.56	51.470
752.87	51.379
753.18	51.125
753.49	51.085
753.81	51.142
754.12	51.000
754.43	50.925
754.74	50.925
755.05	50.935
755.36	51.146
755.67	51.105
755.98	51.255
756.29	51.383
756.60	51.541
756.91	51.634
757.22	51.774
757.53	51.996
757.84	52.093
758.15	52.180
758.46	52.274
758.77	52.034
759.09	52.029
759.40	51.924
759.71	51.818
760.02	51.630
760.33	51.533
760.64	51.354
760.95	51.248
761.26	51.157
761.57	50.867
761.88	50.537
762.18	50.410
762.49	50.439
762.80	50.303
763.11	50.231
763.42	50.217
763.73	50.122
764.04	49.981
764.35	49.919
764.66	49.782
764.97	49.757
765.28	49.820
765.59	49.865
765.90	49.569
766.21	49.417
766.52	49.249
766.83	49.203
767.14	49.213
767.44	49.205
767.75	48.858
768.06	48.829
768.37	48.500
768.68	48.452
768.99	48.256
769.30	48.387
769.61	48.188
769.91	48.168
770.22	47.869
770.53	47.547
770.84	47.249
771.15	47.461
771.46	47.420
771.77	47.647
772.07	47.472
772.38	47.262
772.69	46.889
773.00	47.126
773.31	46.950
773.61	47.042
773.92	47.015
774.23	47.286
774.54	47.039
774.85	46.863
775.15	46.797
775.46	46.934
775.77	47.173
776.08	47.387
776.39	47.023
776.69	47.004
777.00	46.925
777.31	46.951
777.62	46.649
777.92	46.657
778.23	46.706
778.54	46.545
778.85	46.429
779.15	46.365
779.46	46.283
779.77	46.650
780.07	46.941
780.38	46.860
780.69	46.797
781.00	46.984
781.30	46.826
781.61	46.622
781.92	46.667
782.22	46.902
782.53	46.575
782.84	46.647
783.14	46.506
783.45	46.368
783.76	46.479
784.06	46.557
784.37	46.401
784.68	46.413
784.98	46.744
785.29	47.011
785.60	46.869
785.90	46.977
786.21	46.785
786.51	46.999
786.82	47.366
787.13	47.637
787.43	47.901
787.74	48.029
788.04	48.510
788.35	48.455
788.66	48.416
788.96	48.424
789.27	48.860
789.57	48.906
789.88	48.719
790.19	48.228
790.49	47.832
790.80	47.804
791.10	47.901
791.41	47.851
791.71	48.048
792.02	48.067
792.32	47.938
792.63	48.011
792.93	48.175
793.24	48.427
793.54	48.641
793.85	48.946
794.15	48.740
794.46	48.664
794.76	48.725
795.07	48.441
795.37	48.561
795.68	48.880
795.98	48.836
796.29	49.003
796.59	48.883
796.90	48.935
797.20	48.687
797.51	48.808
797.81	48.594
798.12	48.522
798.42	48.804
798.72	49.152
799.03	49.057
799.33	49.236
799.64	49.472
799.94	49.861
800.25	49.615
800.55	49.992
800.85	50.118
801.16	50.523
801.46	50.325
801.77	50.015
802.07	50.076
802.37	50.062
802.68	49.691
802.98	49.202
803.28	48.940
803.59	49.249
803.89	48.961
804.20	48.939
804.50	48.903
804.80	49.098
805.11	49.589
805.41	49.167
805.71	49.403
806.02	49.499
806.32	50.039
806.62	50.311
806.93	50.704
807.23	51.088
807.53	51.192
807.83	50.900
808.14	51.126
808.44	50.942
808.74	51.183
809.05	51.325
809.35	51.529
809.65	51.632
809.95	51.302
810.26	51.024
810.56	51.086
810.86	51.177
811.16	51.798
811.47	52.062
811.77	52.603
812.07	52.153
812.37	52.120
812.68	52.666
812.98	52.369
813.28	52.682
813.58	53.123
813.88	52.531
814.19	52.879
814.49	53.055
814.79	52.909
815.09	52.661
815.39	53.217
815.70	53.441
816.00	53.057
816.30	52.862
816.60	52.665
816.90	52.224
817.20	52.986
817.50	52.929
817.81	52.606
818.11	52.743
818.41	52.910
818.71	52.852
819.01	53.031
819.31	53.332
819.61	53.657
819.92	53.880
820.22	54.215
820.52	54.381
820.82	54.595
821.12	54.863
821.42	55.119
821.72	55.333
822.02	55.703
822.32	55.895
822.62	56.123
822.92	56.324
823.22	56.545
823.52	56.795
823.83	56.885
824.13	56.993
824.43	56.966
824.73	57.006
825.03	56.901
825.33	56.869
825.63	56.915
825.93	56.734
826.23	56.544
826.53	56.396
826.83	56.124
827.13	56.321
827.43	56.310
827.73	56.683
828.03	56.751
828.33	57.317
828.63	57.216
828.93	57.146
829.23	57.157
829.53	57.164
829.83	57.122
830.13	57.049
830.42	56.533
830.72	56.267
831.02	55.889
831.32	55.544
831.62	55.122
831.92	55.049
832.22	55.148
832.52	55.078
832.82	55.497
833.12	55.556
833.42	55.586
833.72	55.699
834.01	55.948
834.31	56.210
834.61	56.561
834.91	56.958
835.21	56.980
835.51	56.867
835.81	56.811
836.11	56.547
836.40	56.479
836.70	56.394
837.00	56.322
837.30	55.893
837.60	56.112
837.90	56.244
838.19	55.851
838.49	56.306
838.79	56.510
839.09	57.167
839.39	57.377
839.68	57.827
839.98	56.758
840.28	56.241
840.58	56.764
840.88	56.615
841.17	55.570
841.47	55.389
841.77	54.809
842.07	54.098
842.36	53.515
842.66	51.898
842.96	50.673
843.26	51.056
843.55	51.109
843.85	50.826
844.15	50.545
844.45	50.426
844.74	50.396
845.04	51.129
845.34	50.758
845.63	51.782
845.93	52.785
846.23	55.111
846.53	56.244
846.82	56.669
847.12	56.140
847.42	54.652
847.71	53.983
848.01	53.858
848.31	53.116
848.60	53.404
848.90	50.637
849.19	50.170
849.49	48.419
849.79	50.107
850.08	50.540
850.38	50.616
850.68	52.031
850.97	53.600
851.27	54.332
851.56	54.440
851.86	54.727
852.16	55.822
852.45	56.291
852.75	57.720
853.04	56.820
853.34	56.596
853.64	55.520
853.93	54.771
854.23	54.099
854.52	53.007
854.82	53.836
855.11	54.088
855.41	55.643
855.70	57.171
856.00	55.732
856.30	54.951
856.59	56.040
856.89	57.971
857.18	59.104
857.48	60.671
857.77	60.416
858.07	59.256
858.36	57.914
858.66	56.879
858.95	56.494
859.25	56.313
859.54	55.899
859.84	54.973
860.13	53.825
860.42	52.465
860.72	50.821
861.01	50.345
861.31	51.906
861.60	54.010
861.90	54.860
862.19	55.256
862.49	54.340
862.78	54.548
863.07	54.956
863.37	55.211
863.66	53.692
863.96	56.415
864.25	57.392
864.54	56.720
864.84	56.790
865.13	56.571
865.43	56.727
865.72	60.890
866.01	60.817
866.31	61.568
866.60	55.064
866.89	68.897
>>>>>End Spectral Data<<<<<
