OOIBase32 Version 2.0.0.6 Data File
++++++++++++++++++++++++++++++++++++
Date: 01-23-2012, 23:23:31
User: Valued Ocean Optics Customer
Spectrometer Serial Number: USB2E2917
Spectrometer Channel: Master
Integration Time (msec): 5
Spectra Averaged: 10
Boxcar Smoothing: 5
Correct for Electrical Dark: Enabled
Time Normalized: Disabled
Dual-beam Reference: Disabled
Reference Channel: Master
Temperature: Not acquired
Spectrometer Type: S2000
ADC Type: USB2000
Number of Pixels in File: 2048
Graph Title: 
>>>>>Begin Spectral Data<<<<<
180.30	0.000
180.67	0.000
181.03	-8.108
181.40	706.771
181.77	-7591.361
182.14	101.291
182.51	-338.064
182.88	199.764
183.25	28.777
183.62	52.389
183.99	113.784
184.36	86.053
184.73	-113.436
185.10	12.973
185.46	-495.929
185.83	417.464
186.20	1285.797
186.57	-21.320
186.94	58.724
187.31	65.401
187.68	-32.213
188.05	74.349
188.42	120.195
188.78	233.012
189.15	640.124
189.52	-116.310
189.89	-23.925
190.26	-1.835
190.63	18.265
191.00	26.448
191.37	22.207
191.73	33.628
192.10	31.779
192.47	25.945
192.84	26.797
193.21	28.330
193.58	23.279
193.94	3.944
194.31	-13.326
194.68	-26.423
195.05	-40.284
195.42	-27.002
195.79	-56.294
196.15	-84.301
196.52	-108.792
196.89	-99.579
197.26	-104.565
197.63	-76.464
198.00	-64.983
198.36	-65.772
198.73	-89.666
199.10	-73.612
199.47	-74.942
199.84	-58.799
200.20	-36.676
200.57	-17.107
200.94	-33.109
201.31	-41.459
201.68	-50.788
202.04	-48.017
202.41	-41.729
202.78	-50.847
203.15	-48.388
203.51	-52.040
203.88	-53.424
204.25	-68.798
204.62	-95.012
204.98	-90.714
205.35	-91.102
205.72	-89.238
206.09	-70.813
206.46	-119.285
206.82	-86.817
207.19	-92.867
207.56	-140.772
207.92	-132.659
208.29	-120.692
208.66	-67.986
209.03	-66.096
209.39	-34.873
209.76	-23.998
210.13	-71.614
210.50	-64.787
210.86	-66.541
211.23	-77.780
211.60	-60.633
211.96	-58.419
212.33	-54.288
212.70	-70.611
213.07	-74.846
213.43	-133.518
213.80	-157.213
214.17	-82.210
214.53	-52.122
214.90	-41.712
215.27	-29.676
215.63	-31.088
216.00	-24.784
216.37	-24.367
216.74	-27.279
217.10	-15.101
217.47	-0.609
217.84	10.365
218.20	4.659
218.57	7.285
218.94	8.245
219.30	9.126
219.67	11.726
220.04	15.570
220.40	9.620
220.77	5.810
221.13	2.830
221.50	-1.165
221.87	0.627
222.23	-4.695
222.60	-11.859
222.97	-10.311
223.33	-8.878
223.70	-6.662
224.07	-8.838
224.43	-5.187
224.80	1.786
225.16	0.743
225.53	0.248
225.90	-3.378
226.26	0.889
226.63	2.728
226.99	2.651
227.36	2.814
227.73	3.997
228.09	3.349
228.46	3.888
228.82	2.604
229.19	1.602
229.56	2.898
229.92	5.234
230.29	3.390
230.65	1.490
231.02	0.428
231.38	-3.249
231.75	-4.621
232.12	-5.190
232.48	-7.278
232.85	-8.063
233.21	-6.971
233.58	-9.789
233.94	-10.833
234.31	-9.525
234.68	-8.900
235.04	-8.164
235.41	-5.530
235.77	-4.985
236.14	-2.694
236.50	-1.068
236.87	0.251
237.23	1.135
237.60	2.292
237.96	3.242
238.33	2.147
238.69	2.262
239.06	2.007
239.42	2.378
239.79	2.163
240.15	1.841
240.52	2.515
240.88	3.108
241.25	3.057
241.61	2.943
241.98	2.716
242.34	2.855
242.71	3.094
243.07	3.462
243.44	3.192
243.80	3.228
244.17	2.914
244.53	2.170
244.90	1.693
245.26	1.540
245.63	1.656
245.99	1.546
246.36	1.251
246.72	1.192
247.09	0.880
247.45	0.907
247.81	1.038
248.18	1.019
248.54	1.778
248.91	1.505
249.27	1.753
249.64	1.588
250.00	1.516
250.36	1.516
250.73	1.379
251.09	1.590
251.46	1.389
251.82	1.069
252.19	0.837
252.55	-0.389
252.91	0.042
253.28	-0.269
253.64	-0.247
254.01	0.148
254.37	0.874
254.73	1.211
255.10	1.171
255.46	1.689
255.83	2.025
256.19	2.447
256.55	2.487
256.92	2.510
257.28	2.658
257.65	2.841
258.01	2.821
258.37	2.741
258.74	2.624
259.10	2.528
259.46	2.264
259.83	2.054
260.19	1.924
260.55	2.018
260.92	2.041
261.28	1.729
261.64	1.564
262.01	1.484
262.37	1.706
262.73	1.561
263.10	1.897
263.46	2.194
263.82	1.965
264.19	1.843
264.55	1.675
264.91	1.397
265.28	1.667
265.64	1.652
266.00	1.606
266.37	1.205
266.73	1.368
267.09	1.293
267.46	1.094
267.82	1.030
268.18	1.337
268.54	1.560
268.91	1.644
269.27	1.475
269.63	1.634
270.00	1.428
270.36	1.477
270.72	1.613
271.08	1.434
271.45	1.559
271.81	1.792
272.17	1.589
272.53	1.671
272.90	1.875
273.26	2.101
273.62	1.818
273.98	1.892
274.35	1.989
274.71	1.994
275.07	2.077
275.43	1.959
275.80	1.924
276.16	1.907
276.52	1.806
276.88	1.836
277.25	1.560
277.61	1.516
277.97	1.405
278.33	1.529
278.69	1.128
279.06	1.296
279.42	1.448
279.78	1.496
280.14	1.601
280.50	1.859
280.87	1.835
281.23	1.929
281.59	2.127
281.95	2.389
282.31	2.363
282.68	2.400
283.04	2.443
283.40	2.454
283.76	2.441
284.12	2.473
284.48	2.323
284.85	2.330
285.21	2.352
285.57	2.222
285.93	2.170
286.29	2.082
286.65	2.225
287.02	2.377
287.38	2.301
287.74	2.247
288.10	2.192
288.46	2.209
288.82	2.014
289.18	1.920
289.54	1.961
289.91	1.956
290.27	2.024
290.63	2.119
290.99	1.942
291.35	2.140
291.71	2.324
292.07	2.254
292.43	2.055
292.79	2.143
293.16	2.081
293.52	2.191
293.88	2.306
294.24	2.290
294.60	2.215
294.96	2.205
295.32	2.135
295.68	2.129
296.04	2.195
296.40	2.369
296.76	2.359
297.12	2.466
297.49	2.355
297.85	2.183
298.21	2.199
298.57	2.092
298.93	2.071
299.29	1.923
299.65	1.819
300.01	1.763
300.37	1.681
300.73	1.867
301.09	1.949
301.45	2.180
301.81	2.387
302.17	2.361
302.53	2.369
302.89	2.300
303.25	2.384
303.61	2.505
303.97	2.426
304.33	2.407
304.69	2.326
305.05	2.202
305.41	1.892
305.77	1.779
306.13	1.815
306.49	1.840
306.85	1.930
307.21	1.943
307.57	1.944
307.93	2.029
308.29	2.185
308.65	2.246
309.01	2.200
309.37	2.283
309.73	2.347
310.09	2.446
310.45	2.548
310.81	2.502
311.17	2.459
311.53	2.417
311.89	2.480
312.25	2.423
312.61	2.345
312.96	2.455
313.32	2.541
313.68	2.434
314.04	2.381
314.40	2.342
314.76	2.328
315.12	2.388
315.48	2.314
315.84	2.202
316.20	2.204
316.56	2.244
316.92	2.184
317.27	2.017
317.63	2.095
317.99	1.900
318.35	1.871
318.71	1.937
319.07	1.982
319.43	2.038
319.79	2.110
320.15	2.130
320.50	2.098
320.86	2.159
321.22	2.212
321.58	2.065
321.94	2.089
322.30	2.070
322.66	1.980
323.01	1.785
323.37	1.736
323.73	1.679
324.09	1.556
324.45	1.555
324.81	1.485
325.17	1.529
325.52	1.558
325.88	1.553
326.24	1.538
326.60	1.585
326.96	1.719
327.31	1.726
327.67	1.707
328.03	1.793
328.39	1.717
328.75	1.782
329.11	1.919
329.46	2.093
329.82	2.178
330.18	2.182
330.54	2.198
330.90	2.190
331.25	2.153
331.61	2.300
331.97	2.276
332.33	2.424
332.68	2.442
333.04	2.415
333.40	2.281
333.76	2.300
334.11	2.352
334.47	2.361
334.83	2.381
335.19	2.365
335.54	2.258
335.90	2.240
336.26	2.153
336.62	2.050
336.97	1.910
337.33	1.844
337.69	1.784
338.05	1.704
338.40	1.642
338.76	1.592
339.12	1.692
339.48	1.697
339.83	1.712
340.19	1.785
340.55	1.914
340.90	1.909
341.26	1.916
341.62	1.939
341.97	1.945
342.33	1.992
342.69	1.993
343.04	1.967
343.40	1.944
343.76	1.873
344.12	1.877
344.47	1.889
344.83	1.998
345.19	2.091
345.54	2.038
345.90	2.059
346.26	2.086
346.61	2.093
346.97	2.099
347.32	2.144
347.68	2.178
348.04	2.066
348.39	1.945
348.75	1.900
349.11	1.858
349.46	1.900
349.82	1.895
350.18	1.814
350.53	1.878
350.89	1.926
351.24	1.906
351.60	1.938
351.96	2.050
352.31	2.055
352.67	2.026
353.02	1.993
353.38	1.978
353.74	1.992
354.09	1.993
354.45	1.962
354.80	1.922
355.16	1.974
355.52	1.937
355.87	1.815
356.23	1.864
356.58	1.937
356.94	1.998
357.29	2.029
357.65	2.022
358.00	2.063
358.36	2.075
358.72	2.066
359.07	2.036
359.43	2.064
359.78	2.131
360.14	2.134
360.49	2.066
360.85	2.024
361.20	2.002
361.56	1.976
361.91	1.956
362.27	1.916
362.62	1.893
362.98	1.888
363.33	1.843
363.69	1.797
364.04	1.815
364.40	1.818
364.75	1.843
365.11	1.819
365.46	1.838
365.82	1.873
366.17	1.929
366.53	1.993
366.88	1.977
367.24	2.035
367.59	2.045
367.95	2.024
368.30	2.027
368.66	2.008
369.01	2.046
369.37	2.042
369.72	2.039
370.08	2.029
370.43	1.973
370.78	1.990
371.14	1.932
371.49	1.930
371.85	1.918
372.20	1.948
372.56	1.987
372.91	1.970
373.26	1.975
373.62	1.926
373.97	1.899
374.33	1.887
374.68	1.910
375.03	1.959
375.39	1.957
375.74	1.974
376.10	1.965
376.45	1.978
376.80	2.009
377.16	2.024
377.51	2.064
377.87	2.071
378.22	2.056
378.57	2.051
378.93	2.085
379.28	2.139
379.63	2.128
379.99	2.154
380.34	2.145
380.70	2.126
381.05	2.145
381.40	2.131
381.76	2.150
382.11	2.187
382.46	2.227
382.82	2.213
383.17	2.185
383.52	2.179
383.88	2.116
384.23	2.091
384.58	2.104
384.94	2.099
385.29	2.135
385.64	2.143
385.99	2.189
386.35	2.145
386.70	2.151
387.05	2.104
387.41	2.100
387.76	2.126
388.11	2.121
388.47	2.101
388.82	2.124
389.17	2.120
389.52	2.113
389.88	2.112
390.23	2.115
390.58	2.135
390.93	2.184
391.29	2.199
391.64	2.223
391.99	2.267
392.34	2.290
392.70	2.244
393.05	2.216
393.40	2.233
393.75	2.182
394.11	2.200
394.46	2.145
394.81	2.139
395.16	2.092
395.52	2.072
395.87	2.040
396.22	2.047
396.57	2.020
396.92	2.004
397.28	1.946
397.63	1.945
397.98	1.920
398.33	1.923
398.68	1.903
399.04	1.965
399.39	1.958
399.74	1.944
400.09	1.922
400.44	1.964
400.80	2.002
401.15	2.023
401.50	2.045
401.85	2.048
402.20	2.047
402.55	2.070
402.90	2.024
403.26	2.036
403.61	2.011
403.96	2.000
404.31	1.995
404.66	1.980
405.01	1.971
405.36	1.963
405.72	1.951
406.07	1.964
406.42	1.945
406.77	1.962
407.12	1.931
407.47	1.999
407.82	1.995
408.17	2.003
408.53	2.003
408.88	1.987
409.23	1.981
409.58	1.976
409.93	1.963
410.28	1.976
410.63	1.946
410.98	1.960
411.33	1.914
411.68	1.944
412.03	1.946
412.38	1.931
412.73	1.970
413.09	1.997
413.44	2.019
413.79	2.047
414.14	2.063
414.49	2.122
414.84	2.148
415.19	2.182
415.54	2.199
415.89	2.211
416.24	2.263
416.59	2.281
416.94	2.284
417.29	2.305
417.64	2.309
417.99	2.320
418.34	2.320
418.69	2.330
419.04	2.336
419.39	2.348
419.74	2.376
420.09	2.372
420.44	2.380
420.79	2.399
421.14	2.403
421.49	2.424
421.84	2.434
422.19	2.449
422.54	2.452
422.89	2.441
423.24	2.423
423.59	2.402
423.94	2.394
424.29	2.389
424.64	2.374
424.99	2.361
425.34	2.331
425.68	2.310
426.03	2.281
426.38	2.259
426.73	2.271
427.08	2.278
427.43	2.280
427.78	2.277
428.13	2.272
428.48	2.292
428.83	2.297
429.18	2.315
429.53	2.327
429.87	2.318
430.22	2.324
430.57	2.332
430.92	2.328
431.27	2.333
431.62	2.322
431.97	2.324
432.32	2.306
432.67	2.302
433.01	2.275
433.36	2.261
433.71	2.266
434.06	2.265
434.41	2.255
434.76	2.257
435.11	2.244
435.45	2.266
435.80	2.261
436.15	2.273
436.50	2.277
436.85	2.296
437.20	2.301
437.54	2.312
437.89	2.320
438.24	2.339
438.59	2.344
438.94	2.336
439.29	2.330
439.63	2.336
439.98	2.330
440.33	2.315
440.68	2.307
441.03	2.313
441.37	2.321
441.72	2.338
442.07	2.336
442.42	2.347
442.76	2.374
443.11	2.383
443.46	2.391
443.81	2.395
444.16	2.423
444.50	2.436
444.85	2.434
445.20	2.426
445.55	2.413
445.89	2.403
446.24	2.390
446.59	2.372
446.94	2.349
447.28	2.315
447.63	2.297
447.98	2.266
448.32	2.244
448.67	2.230
449.02	2.213
449.37	2.177
449.71	2.180
450.06	2.177
450.41	2.175
450.75	2.184
451.10	2.198
451.45	2.185
451.79	2.179
452.14	2.182
452.49	2.173
452.84	2.166
453.18	2.170
453.53	2.151
453.88	2.149
454.22	2.144
454.57	2.160
454.92	2.188
455.26	2.218
455.61	2.255
455.95	2.278
456.30	2.300
456.65	2.331
456.99	2.355
457.34	2.381
457.69	2.395
458.03	2.416
458.38	2.430
458.73	2.419
459.07	2.406
459.42	2.381
459.76	2.361
460.11	2.331
460.46	2.297
460.80	2.286
461.15	2.268
461.49	2.261
461.84	2.246
462.19	2.220
462.53	2.214
462.88	2.232
463.22	2.238
463.57	2.243
463.91	2.273
464.26	2.286
464.61	2.285
464.95	2.272
465.30	2.257
465.64	2.255
465.99	2.262
466.33	2.269
466.68	2.261
467.02	2.256
467.37	2.252
467.71	2.242
468.06	2.254
468.41	2.240
468.75	2.244
469.10	2.260
469.44	2.250
469.79	2.230
470.13	2.201
470.48	2.181
470.82	2.172
471.17	2.173
471.51	2.158
471.86	2.137
472.20	2.135
472.55	2.125
472.89	2.114
473.23	2.094
473.58	2.101
473.92	2.093
474.27	2.093
474.61	2.088
474.96	2.071
475.30	2.074
475.65	2.062
475.99	2.058
476.34	2.063
476.68	2.057
477.02	2.071
477.37	2.077
477.71	2.118
478.06	2.144
478.40	2.205
478.75	2.282
479.09	2.376
479.43	2.479
479.78	2.579
480.12	2.677
480.47	2.782
480.81	2.879
481.15	2.969
481.50	3.054
481.84	3.146
482.19	3.227
482.53	3.311
482.87	3.358
483.22	3.363
483.56	3.328
483.90	3.266
484.25	3.188
484.59	3.109
484.94	3.034
485.28	2.964
485.62	2.885
485.97	2.809
486.31	2.723
486.65	2.668
487.00	2.641
487.34	2.641
487.68	2.652
488.03	2.664
488.37	2.674
488.71	2.671
489.06	2.660
489.40	2.664
489.74	2.645
490.09	2.634
490.43	2.606
490.77	2.570
491.11	2.544
491.46	2.523
491.80	2.494
492.14	2.458
492.49	2.438
492.83	2.396
493.17	2.333
493.51	2.296
493.86	2.248
494.20	2.204
494.54	2.187
494.88	2.180
495.23	2.169
495.57	2.171
495.91	2.189
496.25	2.197
496.60	2.209
496.94	2.212
497.28	2.206
497.62	2.200
497.97	2.207
498.31	2.208
498.65	2.194
498.99	2.181
499.33	2.173
499.68	2.164
500.02	2.156
500.36	2.142
500.70	2.141
501.04	2.140
501.39	2.129
501.73	2.129
502.07	2.146
502.41	2.151
502.75	2.169
503.09	2.177
503.44	2.180
503.78	2.161
504.12	2.162
504.46	2.178
504.80	2.191
505.14	2.228
505.49	2.244
505.83	2.249
506.17	2.270
506.51	2.283
506.85	2.296
507.19	2.311
507.53	2.332
507.87	2.351
508.22	2.352
508.56	2.350
508.90	2.332
509.24	2.339
509.58	2.322
509.92	2.323
510.26	2.306
510.60	2.307
510.94	2.306
511.28	2.294
511.63	2.294
511.97	2.289
512.31	2.297
512.65	2.313
512.99	2.311
513.33	2.343
513.67	2.355
514.01	2.394
514.35	2.427
514.69	2.453
515.03	2.502
515.37	2.539
515.71	2.578
516.05	2.601
516.39	2.617
516.73	2.633
517.07	2.643
517.41	2.638
517.75	2.625
518.09	2.608
518.43	2.587
518.77	2.552
519.11	2.524
519.45	2.490
519.79	2.481
520.13	2.452
520.47	2.449
520.81	2.447
521.15	2.474
521.49	2.489
521.83	2.508
522.17	2.536
522.51	2.578
522.85	2.630
523.19	2.707
523.53	2.777
523.87	2.888
524.21	2.971
524.55	3.045
524.89	3.105
525.23	3.181
525.57	3.238
525.91	3.289
526.25	3.331
526.58	3.377
526.92	3.408
527.26	3.428
527.60	3.426
527.94	3.416
528.28	3.399
528.62	3.376
528.96	3.346
529.30	3.325
529.64	3.311
529.97	3.288
530.31	3.248
530.65	3.211
530.99	3.190
531.33	3.173
531.67	3.163
532.01	3.166
532.35	3.172
532.68	3.165
533.02	3.149
533.36	3.129
533.70	3.123
534.04	3.113
534.38	3.111
534.71	3.095
535.05	3.067
535.39	3.054
535.73	3.036
536.07	3.030
536.41	3.043
536.74	3.064
537.08	3.093
537.42	3.127
537.76	3.167
538.10	3.201
538.43	3.235
538.77	3.279
539.11	3.318
539.45	3.355
539.79	3.387
540.12	3.405
540.46	3.420
540.80	3.425
541.14	3.413
541.47	3.390
541.81	3.372
542.15	3.352
542.49	3.335
542.82	3.314
543.16	3.283
543.50	3.251
543.84	3.216
544.17	3.186
544.51	3.164
544.85	3.148
545.18	3.143
545.52	3.141
545.86	3.120
546.20	3.100
546.53	3.070
546.87	3.047
547.21	3.018
547.54	2.993
547.88	2.979
548.22	2.951
548.55	2.946
548.89	2.941
549.23	2.927
549.56	2.928
549.90	2.935
550.24	2.937
550.57	2.940
550.91	2.944
551.25	2.970
551.58	2.959
551.92	2.957
552.26	2.936
552.59	2.929
552.93	2.909
553.27	2.915
553.60	2.905
553.94	2.901
554.27	2.906
554.61	2.913
554.95	2.904
555.28	2.925
555.62	2.927
555.95	2.943
556.29	2.970
556.63	2.980
556.96	2.961
557.30	2.967
557.63	2.974
557.97	2.969
558.31	2.962
558.64	2.956
558.98	2.972
559.31	3.006
559.65	3.029
559.98	3.011
560.32	3.016
560.65	3.054
560.99	3.079
561.33	3.097
561.66	3.124
562.00	3.172
562.33	3.205
562.67	3.222
563.00	3.214
563.34	3.226
563.67	3.251
564.01	3.280
564.34	3.283
564.68	3.301
565.01	3.327
565.35	3.331
565.68	3.329
566.02	3.325
566.35	3.322
566.69	3.338
567.02	3.352
567.36	3.374
567.69	3.396
568.03	3.445
568.36	3.452
568.69	3.453
569.03	3.476
569.36	3.482
569.70	3.501
570.03	3.539
570.37	3.546
570.70	3.560
571.04	3.559
571.37	3.564
571.70	3.546
572.04	3.550
572.37	3.563
572.71	3.575
573.04	3.590
573.37	3.605
573.71	3.594
574.04	3.617
574.38	3.592
574.71	3.606
575.04	3.597
575.38	3.581
575.71	3.573
576.05	3.559
576.38	3.548
576.71	3.517
577.05	3.506
577.38	3.489
577.71	3.451
578.05	3.459
578.38	3.446
578.71	3.428
579.05	3.425
579.38	3.414
579.71	3.408
580.05	3.385
580.38	3.406
580.71	3.396
581.05	3.412
581.38	3.436
581.71	3.443
582.05	3.443
582.38	3.469
582.71	3.484
583.04	3.501
583.38	3.491
583.71	3.521
584.04	3.508
584.38	3.534
584.71	3.540
585.04	3.550
585.37	3.577
585.71	3.591
586.04	3.602
586.37	3.642
586.70	3.677
587.04	3.718
587.37	3.744
587.70	3.777
588.03	3.800
588.37	3.833
588.70	3.851
589.03	3.862
589.36	3.889
589.69	3.895
590.03	3.892
590.36	3.884
590.69	3.871
591.02	3.852
591.35	3.844
591.69	3.841
592.02	3.834
592.35	3.857
592.68	3.883
593.01	3.876
593.35	3.907
593.68	3.908
594.01	3.934
594.34	3.945
594.67	3.977
595.00	4.002
595.34	4.009
595.67	3.992
596.00	3.984
596.33	3.948
596.66	3.930
596.99	3.888
597.32	3.879
597.65	3.860
597.99	3.837
598.32	3.783
598.65	3.754
598.98	3.741
599.31	3.757
599.64	3.779
599.97	3.797
600.30	3.829
600.63	3.854
600.96	3.889
601.30	3.896
601.63	3.946
601.96	3.999
602.29	4.026
602.62	4.023
602.95	4.017
603.28	4.004
603.61	4.005
603.94	4.011
604.27	4.026
604.60	3.994
604.93	4.008
605.26	4.009
605.59	3.994
605.92	3.990
606.25	4.003
606.58	4.024
606.91	4.006
607.24	4.011
607.57	3.997
607.90	3.997
608.23	4.017
608.56	3.994
608.89	3.960
609.22	3.962
609.55	3.956
609.88	3.935
610.21	3.913
610.54	3.898
610.87	3.872
611.20	3.853
611.53	3.827
611.86	3.793
612.19	3.764
612.52	3.767
612.85	3.766
613.18	3.775
613.51	3.768
613.84	3.744
614.17	3.744
614.49	3.772
614.82	3.772
615.15	3.790
615.48	3.819
615.81	3.841
616.14	3.863
616.47	3.843
616.80	3.824
617.13	3.805
617.46	3.830
617.78	3.847
618.11	3.832
618.44	3.848
618.77	3.837
619.10	3.822
619.43	3.838
619.76	3.826
620.09	3.873
620.41	3.876
620.74	3.935
621.07	3.979
621.40	4.037
621.73	4.070
622.06	4.109
622.38	4.151
622.71	4.200
623.04	4.257
623.37	4.345
623.70	4.354
624.02	4.420
624.35	4.461
624.68	4.504
625.01	4.557
625.34	4.603
625.66	4.645
625.99	4.666
626.32	4.689
626.65	4.713
626.98	4.707
627.30	4.729
627.63	4.729
627.96	4.715
628.29	4.691
628.61	4.650
628.94	4.646
629.27	4.630
629.60	4.612
629.92	4.599
630.25	4.562
630.58	4.520
630.91	4.522
631.23	4.515
631.56	4.534
631.89	4.532
632.21	4.538
632.54	4.542
632.87	4.547
633.19	4.553
633.52	4.573
633.85	4.570
634.18	4.593
634.50	4.586
634.83	4.578
635.16	4.568
635.48	4.559
635.81	4.536
636.14	4.529
636.46	4.521
636.79	4.558
637.11	4.522
637.44	4.511
637.77	4.474
638.09	4.448
638.42	4.462
638.75	4.460
639.07	4.463
639.40	4.497
639.73	4.476
640.05	4.463
640.38	4.449
640.70	4.459
641.03	4.506
641.36	4.546
641.68	4.581
642.01	4.582
642.33	4.600
642.66	4.640
642.98	4.652
643.31	4.672
643.64	4.690
643.96	4.699
644.29	4.745
644.61	4.791
644.94	4.848
645.26	4.903
645.59	4.988
645.91	5.060
646.24	5.112
646.56	5.150
646.89	5.214
647.22	5.254
647.54	5.285
647.87	5.306
648.19	5.288
648.52	5.295
648.84	5.305
649.17	5.285
649.49	5.254
649.82	5.254
650.14	5.252
650.47	5.223
650.79	5.271
651.11	5.279
651.44	5.313
651.76	5.332
652.09	5.347
652.41	5.386
652.74	5.399
653.06	5.471
653.39	5.491
653.71	5.532
654.04	5.640
654.36	5.641
654.68	5.725
655.01	5.739
655.33	5.788
655.66	5.820
655.98	5.866
656.30	5.905
656.63	5.901
656.95	5.937
657.28	5.966
657.60	5.921
657.92	5.932
658.25	5.909
658.57	5.932
658.90	5.922
659.22	5.897
659.54	5.864
659.87	5.841
660.19	5.817
660.51	5.769
660.84	5.731
661.16	5.725
661.48	5.731
661.81	5.721
662.13	5.661
662.45	5.664
662.78	5.677
663.10	5.721
663.42	5.740
663.75	5.755
664.07	5.768
664.39	5.741
664.72	5.736
665.04	5.703
665.36	5.733
665.69	5.796
666.01	5.831
666.33	5.886
666.65	5.820
666.98	5.863
667.30	5.926
667.62	5.942
667.94	6.032
668.27	6.093
668.59	6.156
668.91	6.170
669.23	6.239
669.56	6.241
669.88	6.297
670.20	6.332
670.52	6.361
670.85	6.335
671.17	6.402
671.49	6.421
671.81	6.456
672.13	6.458
672.46	6.484
672.78	6.439
673.10	6.519
673.42	6.533
673.74	6.617
674.07	6.647
674.39	6.759
674.71	6.794
675.03	6.904
675.35	7.010
675.67	7.117
676.00	7.222
676.32	7.363
676.64	7.420
676.96	7.539
677.28	7.656
677.60	7.754
677.92	7.847
678.25	7.940
678.57	8.020
678.89	8.001
679.21	8.055
679.53	8.077
679.85	8.109
680.17	8.139
680.49	8.127
680.81	8.143
681.13	8.144
681.46	8.142
681.78	8.231
682.10	8.266
682.42	8.366
682.74	8.492
683.06	8.608
683.38	8.773
683.70	8.941
684.02	9.095
684.34	9.278
684.66	9.482
684.98	9.642
685.30	9.763
685.62	9.854
685.94	10.009
686.26	10.089
686.58	10.181
686.90	10.225
687.22	10.232
687.54	10.252
687.86	10.222
688.18	10.201
688.50	10.188
688.82	10.160
689.14	10.119
689.46	10.115
689.78	10.078
690.10	10.029
690.42	9.957
690.74	9.997
691.06	9.994
691.38	9.960
691.70	10.004
692.02	10.071
692.34	10.104
692.66	10.156
692.98	10.183
693.30	10.281
693.62	10.399
693.94	10.466
694.26	10.462
694.57	10.568
694.89	10.702
695.21	10.775
695.53	10.850
695.85	10.825
696.17	10.881
696.49	10.922
696.81	10.974
697.13	10.980
697.44	11.001
697.76	11.047
698.08	11.090
698.40	11.121
698.72	11.098
699.04	11.004
699.36	11.123
699.67	11.123
699.99	11.055
700.31	10.860
700.63	10.857
700.95	10.835
701.27	10.801
701.58	10.665
701.90	10.493
702.22	10.513
702.54	10.543
702.86	10.454
703.17	10.452
703.49	10.582
703.81	10.814
704.13	10.735
704.45	10.822
704.76	10.907
705.08	11.003
705.40	11.141
705.72	11.213
706.03	11.325
706.35	11.411
706.67	11.510
706.99	11.569
707.30	11.586
707.62	11.805
707.94	11.913
708.26	12.030
708.57	12.105
708.89	12.165
709.21	12.141
709.53	12.206
709.84	12.317
710.16	12.469
710.48	12.482
710.79	12.545
711.11	12.556
711.43	12.587
711.74	12.598
712.06	12.684
712.38	12.756
712.69	12.838
713.01	12.962
713.33	13.059
713.64	13.143
713.96	13.372
714.28	13.530
714.59	13.686
714.91	13.802
715.23	13.932
715.54	13.929
715.86	14.110
716.17	14.283
716.49	14.343
716.81	14.391
717.12	14.330
717.44	14.290
717.76	14.435
718.07	14.408
718.39	14.454
718.70	14.401
719.02	14.536
719.33	14.445
719.65	14.391
719.97	14.371
720.28	14.347
720.60	14.406
720.91	14.517
721.23	14.482
721.54	14.549
721.86	14.510
722.17	14.634
722.49	14.718
722.81	14.731
723.12	14.901
723.44	15.045
723.75	15.233
724.07	15.329
724.38	15.364
724.70	15.397
725.01	15.473
725.33	15.550
725.64	15.616
725.96	15.731
726.27	15.838
726.59	15.917
726.90	16.016
727.22	15.901
727.53	16.013
727.84	16.143
728.16	16.145
728.47	16.187
728.79	16.207
729.10	16.222
729.42	16.144
729.73	16.053
730.05	16.004
730.36	15.952
730.67	15.979
730.99	15.849
731.30	15.678
731.62	15.677
731.93	15.641
732.24	15.630
732.56	15.643
732.87	15.718
733.19	15.875
733.50	15.826
733.81	15.646
734.13	15.797
734.44	15.832
734.76	15.768
735.07	15.723
735.38	15.674
735.70	15.800
736.01	15.745
736.32	15.654
736.64	15.672
736.95	15.702
737.26	15.756
737.58	15.601
737.89	15.666
738.20	15.730
738.52	15.856
738.83	15.802
739.14	15.748
739.45	15.826
739.77	15.851
740.08	15.767
740.39	15.789
740.71	15.868
741.02	15.901
741.33	15.722
741.64	15.683
741.96	15.481
742.27	15.427
742.58	15.338
742.90	15.348
743.21	15.328
743.52	15.400
743.83	15.335
744.14	15.335
744.46	15.423
744.77	15.576
745.08	15.606
745.39	15.681
745.71	15.790
746.02	15.980
746.33	16.076
746.64	16.140
746.95	16.230
747.27	16.416
747.58	16.464
747.89	16.456
748.20	16.436
748.51	16.547
748.82	16.539
749.14	16.724
749.45	16.692
749.76	16.613
750.07	16.808
750.38	16.687
750.69	16.832
751.01	16.903
751.32	16.962
751.63	17.065
751.94	17.035
752.25	17.137
752.56	17.170
752.87	17.323
753.18	17.391
753.49	17.402
753.81	17.775
754.12	17.658
754.43	17.720
754.74	17.927
755.05	18.180
755.36	18.436
755.67	18.873
755.98	19.240
756.29	19.486
756.60	19.737
756.91	20.026
757.22	20.466
757.53	20.969
757.84	21.497
758.15	21.804
758.46	22.251
758.77	22.671
759.09	22.871
759.40	23.109
759.71	23.425
760.02	23.738
760.33	23.942
760.64	23.912
760.95	24.010
761.26	23.982
761.57	24.019
761.88	23.902
762.18	23.923
762.49	23.875
762.80	23.846
763.11	23.706
763.42	23.460
763.73	23.228
764.04	23.093
764.35	22.799
764.66	22.614
764.97	22.381
765.28	22.162
765.59	21.769
765.90	21.425
766.21	20.929
766.52	20.423
766.83	20.253
767.14	20.170
767.44	19.844
767.75	19.521
768.06	19.483
768.37	19.295
768.68	19.472
768.99	19.332
769.30	19.300
769.61	19.503
769.91	19.531
770.22	19.513
770.53	19.540
770.84	19.667
771.15	19.709
771.46	19.380
771.77	19.361
772.07	19.162
772.38	19.342
772.69	19.472
773.00	19.564
773.31	19.727
773.61	19.791
773.92	19.406
774.23	19.265
774.54	19.540
774.85	19.656
775.15	19.655
775.46	19.468
775.77	19.231
776.08	19.111
776.39	18.813
776.69	18.826
777.00	18.834
777.31	19.074
777.62	18.988
777.92	19.001
778.23	19.200
778.54	19.376
778.85	19.606
779.15	19.807
779.46	19.955
779.77	20.311
780.07	20.637
780.38	20.987
780.69	21.102
781.00	21.452
781.30	21.335
781.61	21.124
781.92	21.300
782.22	21.527
782.53	21.579
782.84	21.749
783.14	21.868
783.45	21.519
783.76	21.584
784.06	21.653
784.37	21.641
784.68	21.902
784.98	22.363
785.29	22.542
785.60	22.608
785.90	22.757
786.21	22.928
786.51	22.841
786.82	23.268
787.13	23.414
787.43	23.704
787.74	23.879
788.04	24.040
788.35	24.190
788.66	24.012
788.96	23.986
789.27	23.979
789.57	23.919
789.88	24.119
790.19	24.140
790.49	23.866
790.80	23.809
791.10	23.880
791.41	24.050
791.71	23.978
792.02	24.316
792.32	24.237
792.63	24.359
792.93	24.334
793.24	24.358
793.54	24.320
793.85	24.397
794.15	24.531
794.46	24.725
794.76	24.586
795.07	24.546
795.37	24.522
795.68	24.766
795.98	25.088
796.29	25.326
796.59	25.105
796.90	25.151
797.20	25.274
797.51	25.253
797.81	25.083
798.12	25.273
798.42	25.451
798.72	25.821
799.03	25.799
799.33	25.383
799.64	25.362
799.94	25.676
800.25	25.873
800.55	26.053
800.85	26.322
801.16	26.385
801.46	26.181
801.77	25.838
802.07	25.562
802.37	25.583
802.68	25.976
802.98	26.008
803.28	26.009
803.59	25.970
803.89	25.708
804.20	25.452
804.50	25.865
804.80	26.112
805.11	26.421
805.41	26.421
805.71	26.450
806.02	26.712
806.32	26.398
806.62	26.512
806.93	26.477
807.23	27.330
807.53	27.623
807.83	27.340
808.14	27.643
808.44	27.727
808.74	27.800
809.05	28.023
809.35	27.928
809.65	28.806
809.95	29.183
810.26	29.219
810.56	28.887
810.86	28.749
811.16	28.775
811.47	28.913
811.77	29.630
812.07	29.755
812.37	29.820
812.68	30.300
812.98	30.732
813.28	30.996
813.58	31.489
813.88	31.205
814.19	31.905
814.49	32.404
814.79	32.632
815.09	32.719
815.39	33.038
815.70	33.261
816.00	33.191
816.30	32.770
816.60	32.751
816.90	32.897
817.20	33.526
817.50	33.479
817.81	33.437
818.11	33.595
818.41	33.685
818.71	33.649
819.01	34.066
819.31	34.306
819.61	34.702
819.92	34.959
820.22	35.164
820.52	35.311
820.82	35.546
821.12	35.784
821.42	35.928
821.72	36.113
822.02	36.420
822.32	36.547
822.62	36.791
822.92	36.864
823.22	37.035
823.52	37.254
823.83	37.327
824.13	37.399
824.43	37.403
824.73	37.501
825.03	37.491
825.33	37.487
825.63	37.337
825.93	37.104
826.23	36.996
826.53	36.749
826.83	36.542
827.13	36.750
827.43	36.673
827.73	36.756
828.03	36.788
828.33	36.909
828.63	36.856
828.93	36.973
829.23	37.043
829.53	37.076
829.83	37.093
830.13	36.800
830.42	36.328
830.72	36.350
831.02	36.197
831.32	35.967
831.62	35.906
831.92	35.895
832.22	35.998
832.52	35.744
832.82	35.707
833.12	35.808
833.42	36.016
833.72	36.023
834.01	36.091
834.31	36.239
834.61	36.381
834.91	36.620
835.21	36.657
835.51	36.624
835.81	36.788
836.11	36.838
836.40	36.841
836.70	37.016
837.00	37.197
837.30	36.828
837.60	36.941
837.90	37.030
838.19	36.547
838.49	36.486
838.79	36.631
839.09	36.789
839.39	36.698
839.68	36.611
839.98	35.810
840.28	35.382
840.58	35.677
840.88	35.356
841.17	34.918
841.47	34.924
841.77	35.133
842.07	34.427
842.36	34.160
842.66	33.698
842.96	32.819
843.26	31.806
843.55	31.674
843.85	30.463
844.15	29.953
844.45	30.095
844.74	30.588
845.04	30.093
845.34	30.507
845.63	30.405
845.93	31.825
846.23	32.197
846.53	33.712
846.82	33.874
847.12	34.891
847.42	34.856
847.71	34.068
848.01	32.793
848.31	32.607
848.60	31.078
848.90	30.331
849.19	28.876
849.49	28.776
849.79	28.416
850.08	28.914
850.38	27.969
850.68	27.834
850.97	29.022
851.27	29.562
851.56	29.244
851.86	31.093
852.16	31.497
852.45	31.179
852.75	30.476
853.04	31.489
853.34	30.954
853.64	31.247
853.93	30.353
854.23	29.453
854.52	29.833
854.82	30.609
855.11	29.818
855.41	30.923
855.70	31.448
856.00	31.113
856.30	28.572
856.59	29.431
856.89	30.228
857.18	31.654
857.48	31.586
857.77	30.449
858.07	29.236
858.36	27.674
858.66	27.583
858.95	28.478
859.25	30.013
859.54	31.901
859.84	31.283
860.13	29.229
860.42	29.808
860.72	29.465
861.01	31.086
861.31	32.590
861.60	34.960
861.90	34.838
862.19	34.501
862.49	33.918
862.78	34.247
863.07	32.993
863.37	34.474
863.66	33.436
863.96	36.617
864.25	35.749
864.54	36.434
864.84	36.642
865.13	37.317
865.43	37.851
865.72	34.846
866.01	48.854
866.31	40.315
866.60	39.504
866.89	41.237
>>>>>End Spectral Data<<<<<
