OOIBase32 Version 2.0.0.6 Data File
++++++++++++++++++++++++++++++++++++
Date: 01-23-2012, 21:55:55
User: Valued Ocean Optics Customer
Spectrometer Serial Number: USB2E2917
Spectrometer Channel: Master
Integration Time (msec): 5
Spectra Averaged: 10
Boxcar Smoothing: 5
Correct for Electrical Dark: Enabled
Time Normalized: Disabled
Dual-beam Reference: Disabled
Reference Channel: Master
Temperature: Not acquired
Spectrometer Type: S2000
ADC Type: USB2000
Number of Pixels in File: 2048
Graph Title: 
>>>>>Begin Spectral Data<<<<<
180.30	0.000
180.67	0.000
181.03	132.037
181.40	-219.245
181.77	18270.133
182.14	-167.289
182.51	111.079
182.88	-193.114
183.25	419.034
183.62	-89.366
183.99	37.455
184.36	211.661
184.73	222.433
185.10	-30.735
185.46	52.678
185.83	180.767
186.20	37.586
186.57	826.519
186.94	-212.797
187.31	16.974
187.68	-284.685
188.05	119.819
188.42	115.755
188.78	147.002
189.15	102.202
189.52	90.489
189.89	59.167
190.26	42.979
190.63	48.023
191.00	27.230
191.37	16.310
191.73	17.872
192.10	21.748
192.47	7.496
192.84	-3.084
193.21	-16.024
193.58	-9.046
193.94	-4.956
194.31	-8.960
194.68	-8.567
195.05	-17.534
195.42	-17.676
195.79	-12.791
196.15	-14.049
196.52	-6.037
196.89	-9.846
197.26	1.986
197.63	-2.092
198.00	2.234
198.36	3.007
198.73	2.396
199.10	10.197
199.47	4.907
199.84	-3.500
200.20	5.427
200.57	-13.141
200.94	-20.036
201.31	-27.610
201.68	-8.913
202.04	-13.179
202.41	-7.382
202.78	-15.392
203.15	-4.566
203.51	-12.316
203.88	-3.840
204.25	-9.459
204.62	12.815
204.98	26.046
205.35	31.747
205.72	42.315
206.09	38.688
206.46	60.358
206.82	60.766
207.19	41.155
207.56	35.870
207.92	29.819
208.29	30.930
208.66	23.978
209.03	25.192
209.39	22.588
209.76	3.626
210.13	-3.081
210.50	-25.461
210.86	-24.405
211.23	-4.001
211.60	-6.306
211.96	2.622
212.33	-14.449
212.70	-10.541
213.07	-27.406
213.43	-22.155
213.80	-18.970
214.17	-12.943
214.53	-2.205
214.90	4.314
215.27	0.386
215.63	-6.436
216.00	-12.266
216.37	1.002
216.74	-13.991
217.10	-4.240
217.47	-4.212
217.84	-2.822
218.20	0.935
218.57	3.206
218.94	0.930
219.30	-4.106
219.67	2.589
220.04	4.283
220.40	-1.136
220.77	1.666
221.13	0.925
221.50	-5.759
221.87	-0.552
222.23	0.101
222.60	0.341
222.97	-4.355
223.33	-6.014
223.70	-1.999
224.07	1.885
224.43	3.393
224.80	6.352
225.16	7.681
225.53	9.119
225.90	2.599
226.26	-0.019
226.63	-2.912
226.99	-1.091
227.36	0.432
227.73	-0.705
228.09	-4.004
228.46	-4.338
228.82	-3.691
229.19	-2.632
229.56	-3.499
229.92	0.086
230.29	2.408
230.65	4.055
231.02	1.593
231.38	-0.124
231.75	-0.085
232.12	2.651
232.48	3.943
232.85	2.586
233.21	1.535
233.58	1.955
233.94	1.949
234.31	-0.120
234.68	-1.533
235.04	-0.221
235.41	1.203
235.77	0.643
236.14	-0.071
236.50	-1.910
236.87	-1.181
237.23	-2.295
237.60	-2.500
237.96	-2.696
238.33	-0.820
238.69	-0.412
239.06	-0.503
239.42	-0.525
239.79	0.008
240.15	0.332
240.52	0.503
240.88	0.264
241.25	0.708
241.61	1.115
241.98	1.658
242.34	1.162
242.71	1.373
243.07	1.884
243.44	2.098
243.80	2.000
244.17	2.002
244.53	2.504
244.90	2.429
245.26	2.558
245.63	2.399
245.99	2.239
246.36	2.449
246.72	2.348
247.09	2.082
247.45	1.660
247.81	1.647
248.18	1.073
248.54	0.805
248.91	0.902
249.27	0.998
249.64	1.265
250.00	1.417
250.36	1.340
250.73	1.586
251.09	1.968
251.46	2.684
251.82	3.307
252.19	3.978
252.55	3.695
252.91	3.693
253.28	3.352
253.64	3.271
254.01	3.206
254.37	2.815
254.73	3.079
255.10	3.066
255.46	2.590
255.83	1.992
256.19	2.168
256.55	2.409
256.92	2.311
257.28	2.223
257.65	2.378
258.01	2.495
258.37	2.359
258.74	2.225
259.10	2.074
259.46	2.361
259.83	2.564
260.19	2.476
260.55	2.390
260.92	2.360
261.28	2.275
261.64	1.855
262.01	1.353
262.37	1.257
262.73	1.094
263.10	1.416
263.46	1.223
263.82	1.239
264.19	1.123
264.55	1.060
264.91	1.403
265.28	1.678
265.64	1.864
266.00	1.797
266.37	2.068
266.73	2.234
267.09	1.947
267.46	1.885
267.82	1.625
268.18	2.043
268.54	2.096
268.91	2.199
269.27	2.246
269.63	2.175
270.00	2.398
270.36	2.314
270.72	2.082
271.08	1.768
271.45	1.759
271.81	2.070
272.17	1.997
272.53	1.803
272.90	1.473
273.26	1.238
273.62	1.178
273.98	1.040
274.35	0.943
274.71	1.281
275.07	1.614
275.43	1.825
275.80	1.739
276.16	1.565
276.52	1.514
276.88	1.606
277.25	1.729
277.61	1.968
277.97	1.986
278.33	1.865
278.69	1.791
279.06	1.928
279.42	1.652
279.78	1.502
280.14	1.477
280.50	1.743
280.87	1.839
281.23	1.958
281.59	1.796
281.95	2.062
282.31	2.492
282.68	2.500
283.04	2.495
283.40	2.651
283.76	2.608
284.12	2.618
284.48	2.521
284.85	2.485
285.21	2.425
285.57	2.516
285.93	2.309
286.29	1.964
286.65	1.938
287.02	1.906
287.38	1.888
287.74	1.977
288.10	1.962
288.46	1.955
288.82	1.631
289.18	1.522
289.54	1.439
289.91	1.819
290.27	2.056
290.63	1.914
290.99	1.673
291.35	1.622
291.71	1.863
292.07	1.735
292.43	1.868
292.79	2.468
293.16	2.580
293.52	2.721
293.88	2.585
294.24	2.649
294.60	2.669
294.96	2.772
295.32	2.743
295.68	2.441
296.04	2.635
296.40	2.634
296.76	2.438
297.12	2.460
297.49	2.433
297.85	2.459
298.21	2.409
298.57	2.367
298.93	2.477
299.29	2.495
299.65	2.548
300.01	2.513
300.37	2.346
300.73	2.461
301.09	2.439
301.45	2.476
301.81	2.317
302.17	2.279
302.53	2.338
302.89	2.387
303.25	2.289
303.61	2.358
303.97	2.290
304.33	2.361
304.69	2.231
305.05	2.347
305.41	2.200
305.77	2.223
306.13	2.166
306.49	2.336
306.85	2.199
307.21	2.352
307.57	2.300
307.93	2.265
308.29	2.399
308.65	2.389
309.01	2.304
309.37	2.501
309.73	2.584
310.09	2.681
310.45	2.573
310.81	2.579
311.17	2.450
311.53	2.450
311.89	2.572
312.25	2.486
312.61	2.469
312.96	2.500
313.32	2.404
313.68	2.156
314.04	2.102
314.40	2.070
314.76	2.128
315.12	2.236
315.48	2.406
315.84	2.173
316.20	2.301
316.56	2.365
316.92	2.287
317.27	2.246
317.63	2.426
317.99	2.511
318.35	2.535
318.71	2.516
319.07	2.476
319.43	2.466
319.79	2.606
320.15	2.491
320.50	2.402
320.86	2.525
321.22	2.539
321.58	2.432
321.94	2.361
322.30	2.418
322.66	2.481
323.01	2.495
323.37	2.420
323.73	2.428
324.09	2.422
324.45	2.486
324.81	2.387
325.17	2.350
325.52	2.458
325.88	2.416
326.24	2.420
326.60	2.492
326.96	2.622
327.31	2.596
327.67	2.624
328.03	2.621
328.39	2.643
328.75	2.746
329.11	2.825
329.46	2.879
329.82	2.989
330.18	3.024
330.54	2.915
330.90	2.859
331.25	2.969
331.61	2.996
331.97	2.990
332.33	3.102
332.68	2.975
333.04	2.924
333.40	2.899
333.76	2.918
334.11	2.911
334.47	2.932
334.83	2.862
335.19	2.863
335.54	2.901
335.90	3.001
336.26	2.943
336.62	3.011
336.97	2.999
337.33	2.960
337.69	2.932
338.05	2.904
338.40	2.869
338.76	2.931
339.12	2.875
339.48	2.834
339.83	2.807
340.19	2.770
340.55	2.780
340.90	2.743
341.26	2.662
341.62	2.653
341.97	2.737
342.33	2.868
342.69	2.820
343.04	2.817
343.40	2.786
343.76	2.772
344.12	2.784
344.47	2.856
344.83	2.905
345.19	2.956
345.54	3.006
345.90	2.999
346.26	2.857
346.61	2.966
346.97	2.898
347.32	2.957
347.68	2.904
348.04	2.892
348.39	2.884
348.75	2.942
349.11	2.904
349.46	2.849
349.82	2.750
350.18	2.886
350.53	2.788
350.89	2.877
351.24	2.878
351.60	2.922
351.96	2.986
352.31	3.041
352.67	3.005
353.02	3.087
353.38	3.064
353.74	3.039
354.09	2.966
354.45	3.052
354.80	3.093
355.16	3.111
355.52	3.134
355.87	3.023
356.23	2.939
356.58	2.992
356.94	2.978
357.29	3.027
357.65	3.095
358.00	3.103
358.36	3.085
358.72	3.108
359.07	3.086
359.43	3.098
359.78	3.146
360.14	3.115
360.49	3.093
360.85	3.061
361.20	3.067
361.56	3.101
361.91	3.110
362.27	3.101
362.62	3.049
362.98	3.030
363.33	3.018
363.69	3.001
364.04	3.045
364.40	3.067
364.75	3.159
365.11	3.174
365.46	3.152
365.82	3.157
366.17	3.152
366.53	3.163
366.88	3.204
367.24	3.275
367.59	3.334
367.95	3.385
368.30	3.364
368.66	3.348
369.01	3.393
369.37	3.414
369.72	3.457
370.08	3.496
370.43	3.496
370.78	3.486
371.14	3.435
371.49	3.467
371.85	3.462
372.20	3.491
372.56	3.520
372.91	3.465
373.26	3.471
373.62	3.456
373.97	3.473
374.33	3.496
374.68	3.536
375.03	3.609
375.39	3.575
375.74	3.581
376.10	3.568
376.45	3.590
376.80	3.611
377.16	3.659
377.51	3.717
377.87	3.680
378.22	3.722
378.57	3.773
378.93	3.762
379.28	3.824
379.63	3.856
379.99	3.942
380.34	3.969
380.70	4.011
381.05	4.059
381.40	4.087
381.76	4.152
382.11	4.206
382.46	4.188
382.82	4.232
383.17	4.251
383.52	4.287
383.88	4.265
384.23	4.278
384.58	4.281
384.94	4.266
385.29	4.289
385.64	4.348
385.99	4.351
386.35	4.454
386.70	4.477
387.05	4.522
387.41	4.559
387.76	4.598
388.11	4.614
388.47	4.707
388.82	4.756
389.17	4.755
389.52	4.788
389.88	4.865
390.23	4.865
390.58	4.909
390.93	4.954
391.29	5.004
391.64	5.079
391.99	5.141
392.34	5.172
392.70	5.191
393.05	5.252
393.40	5.290
393.75	5.303
394.11	5.355
394.46	5.394
394.81	5.415
395.16	5.399
395.52	5.432
395.87	5.452
396.22	5.446
396.57	5.498
396.92	5.541
397.28	5.590
397.63	5.644
397.98	5.697
398.33	5.749
398.68	5.813
399.04	5.914
399.39	5.960
399.74	6.041
400.09	6.100
400.44	6.191
400.80	6.231
401.15	6.277
401.50	6.301
401.85	6.352
402.20	6.387
402.55	6.461
402.90	6.479
403.26	6.560
403.61	6.595
403.96	6.683
404.31	6.684
404.66	6.770
405.01	6.823
405.36	6.892
405.72	6.917
406.07	7.014
406.42	7.065
406.77	7.133
407.12	7.164
407.47	7.214
407.82	7.241
408.17	7.305
408.53	7.351
408.88	7.414
409.23	7.488
409.58	7.561
409.93	7.589
410.28	7.656
410.63	7.756
410.98	7.842
411.33	7.921
411.68	7.992
412.03	8.088
412.38	8.166
412.73	8.205
413.09	8.246
413.44	8.289
413.79	8.367
414.14	8.371
414.49	8.381
414.84	8.399
415.19	8.433
415.54	8.472
415.89	8.502
416.24	8.515
416.59	8.568
416.94	8.623
417.29	8.653
417.64	8.681
417.99	8.744
418.34	8.782
418.69	8.825
419.04	8.879
419.39	8.938
419.74	8.985
420.09	9.028
420.44	9.057
420.79	9.085
421.14	9.121
421.49	9.162
421.84	9.199
422.19	9.252
422.54	9.301
422.89	9.338
423.24	9.370
423.59	9.418
423.94	9.479
424.29	9.544
424.64	9.584
424.99	9.662
425.34	9.717
425.68	9.771
426.03	9.859
426.38	9.921
426.73	10.005
427.08	10.062
427.43	10.112
427.78	10.189
428.13	10.232
428.48	10.321
428.83	10.379
429.18	10.413
429.53	10.462
429.87	10.483
430.22	10.492
430.57	10.507
430.92	10.525
431.27	10.570
431.62	10.575
431.97	10.597
432.32	10.600
432.67	10.613
433.01	10.639
433.36	10.680
433.71	10.704
434.06	10.758
434.41	10.798
434.76	10.855
435.11	10.869
435.45	10.908
435.80	10.938
436.15	10.966
436.50	10.979
436.85	11.004
437.20	11.011
437.54	11.042
437.89	11.046
438.24	11.051
438.59	11.050
438.94	11.060
439.29	11.072
439.63	11.082
439.98	11.122
440.33	11.153
440.68	11.192
441.03	11.216
441.37	11.230
441.72	11.267
442.07	11.297
442.42	11.334
442.76	11.357
443.11	11.367
443.46	11.373
443.81	11.374
444.16	11.397
444.50	11.396
444.85	11.423
445.20	11.434
445.55	11.426
445.89	11.435
446.24	11.419
446.59	11.433
446.94	11.451
447.28	11.499
447.63	11.511
447.98	11.531
448.32	11.569
448.67	11.563
449.02	11.589
449.37	11.622
449.71	11.669
450.06	11.693
450.41	11.728
450.75	11.732
451.10	11.723
451.45	11.762
451.79	11.772
452.14	11.760
452.49	11.798
452.84	11.799
453.18	11.825
453.53	11.829
453.88	11.883
454.22	11.897
454.57	11.944
454.92	11.996
455.26	12.022
455.61	12.046
455.95	12.081
456.30	12.097
456.65	12.134
456.99	12.137
457.34	12.159
457.69	12.189
458.03	12.208
458.38	12.226
458.73	12.234
459.07	12.271
459.42	12.308
459.76	12.337
460.11	12.368
460.46	12.398
460.80	12.478
461.15	12.527
461.49	12.552
461.84	12.622
462.19	12.676
462.53	12.735
462.88	12.753
463.22	12.808
463.57	12.868
463.91	12.926
464.26	12.977
464.61	13.004
464.95	13.063
465.30	13.110
465.64	13.130
465.99	13.159
466.33	13.195
466.68	13.247
467.02	13.276
467.37	13.296
467.71	13.305
468.06	13.324
468.41	13.352
468.75	13.362
469.10	13.391
469.44	13.395
469.79	13.419
470.13	13.453
470.48	13.432
470.82	13.447
471.17	13.465
471.51	13.496
471.86	13.507
472.20	13.504
472.55	13.525
472.89	13.521
473.23	13.551
473.58	13.549
473.92	13.541
474.27	13.576
474.61	13.576
474.96	13.577
475.30	13.556
475.65	13.578
475.99	13.592
476.34	13.598
476.68	13.608
477.02	13.624
477.37	13.664
477.71	13.684
478.06	13.718
478.40	13.765
478.75	13.850
479.09	13.969
479.43	14.077
479.78	14.219
480.12	14.384
480.47	14.583
480.81	14.785
481.15	14.990
481.50	15.207
481.84	15.465
482.19	15.745
482.53	15.981
482.87	16.093
483.22	16.076
483.56	15.934
483.90	15.698
484.25	15.397
484.59	15.115
484.94	14.906
485.28	14.701
485.62	14.433
485.97	14.144
486.31	13.887
486.65	13.736
487.00	13.713
487.34	13.817
487.68	13.986
488.03	14.198
488.37	14.377
488.71	14.451
489.06	14.484
489.40	14.525
489.74	14.548
490.09	14.568
490.43	14.589
490.77	14.609
491.11	14.617
491.46	14.643
491.80	14.673
492.14	14.708
492.49	14.725
492.83	14.761
493.17	14.788
493.51	14.808
493.86	14.839
494.20	14.895
494.54	14.972
494.88	15.025
495.23	15.075
495.57	15.111
495.91	15.151
496.25	15.190
496.60	15.227
496.94	15.283
497.28	15.348
497.62	15.416
497.97	15.477
498.31	15.530
498.65	15.591
498.99	15.641
499.33	15.721
499.68	15.781
500.02	15.858
500.36	15.912
500.70	15.955
501.04	16.031
501.39	16.083
501.73	16.161
502.07	16.199
502.41	16.246
502.75	16.300
503.09	16.351
503.44	16.396
503.78	16.440
504.12	16.521
504.46	16.574
504.80	16.628
505.14	16.681
505.49	16.701
505.83	16.770
506.17	16.825
506.51	16.866
506.85	16.888
507.19	16.937
507.53	16.997
507.87	17.025
508.22	17.089
508.56	17.112
508.90	17.163
509.24	17.231
509.58	17.280
509.92	17.341
510.26	17.399
510.60	17.480
510.94	17.540
511.28	17.585
511.63	17.667
511.97	17.714
512.31	17.789
512.65	17.846
512.99	17.916
513.33	17.976
513.67	18.050
514.01	18.125
514.35	18.178
514.69	18.256
515.03	18.316
515.37	18.333
515.71	18.387
516.05	18.399
516.39	18.422
516.73	18.427
517.07	18.470
517.41	18.489
517.75	18.516
518.09	18.552
518.43	18.573
518.77	18.617
519.11	18.669
519.45	18.716
519.79	18.769
520.13	18.842
520.47	18.906
520.81	18.950
521.15	19.016
521.49	19.053
521.83	19.090
522.17	19.121
522.51	19.141
522.85	19.207
523.19	19.277
523.53	19.423
523.87	19.527
524.21	19.659
524.55	19.765
524.89	19.858
525.23	19.965
525.57	20.049
525.91	20.135
526.25	20.233
526.58	20.300
526.92	20.352
527.26	20.349
527.60	20.351
527.94	20.323
528.28	20.298
528.62	20.268
528.96	20.242
529.30	20.216
529.64	20.174
529.97	20.124
530.31	20.082
530.65	20.039
530.99	20.032
531.33	20.033
531.67	20.055
532.01	20.081
532.35	20.109
532.68	20.114
533.02	20.110
533.36	20.108
533.70	20.114
534.04	20.107
534.38	20.128
534.71	20.162
535.05	20.182
535.39	20.187
535.73	20.213
536.07	20.242
536.41	20.308
536.74	20.371
537.08	20.432
537.42	20.498
537.76	20.561
538.10	20.598
538.43	20.625
538.77	20.669
539.11	20.709
539.45	20.746
539.79	20.759
540.12	20.765
540.46	20.745
540.80	20.739
541.14	20.704
541.47	20.691
541.81	20.687
542.15	20.681
542.49	20.663
542.82	20.649
543.16	20.628
543.50	20.624
543.84	20.611
544.17	20.658
544.51	20.693
544.85	20.740
545.18	20.756
545.52	20.763
545.86	20.756
546.20	20.781
546.53	20.833
546.87	20.857
547.21	20.883
547.54	20.929
547.88	20.961
548.22	20.988
548.55	21.023
548.89	21.085
549.23	21.134
549.56	21.183
549.90	21.225
550.24	21.237
550.57	21.250
550.91	21.252
551.25	21.246
551.58	21.267
551.92	21.285
552.26	21.305
552.59	21.322
552.93	21.339
553.27	21.372
553.60	21.371
553.94	21.385
554.27	21.411
554.61	21.468
554.95	21.519
555.28	21.553
555.62	21.580
555.95	21.601
556.29	21.629
556.63	21.664
556.96	21.686
557.30	21.716
557.63	21.766
557.97	21.793
558.31	21.813
558.64	21.827
558.98	21.825
559.31	21.840
559.65	21.865
559.98	21.846
560.32	21.851
560.65	21.830
560.99	21.855
561.33	21.850
561.66	21.880
562.00	21.883
562.33	21.868
562.67	21.892
563.00	21.904
563.34	21.898
563.67	21.916
564.01	21.906
564.34	21.925
564.68	21.923
565.01	21.903
565.35	21.917
565.68	21.913
566.02	21.927
566.35	21.941
566.69	21.953
567.02	21.980
567.36	21.997
567.69	22.009
568.03	22.025
568.36	22.020
568.69	22.031
569.03	22.011
569.36	22.026
569.70	22.049
570.03	22.038
570.37	22.018
570.70	22.020
571.04	21.994
571.37	21.994
571.70	21.977
572.04	21.990
572.37	21.999
572.71	22.013
573.04	22.009
573.37	22.013
573.71	22.027
574.04	22.065
574.38	22.076
574.71	22.120
575.04	22.177
575.38	22.214
575.71	22.241
576.05	22.293
576.38	22.325
576.71	22.358
577.05	22.353
577.38	22.378
577.71	22.412
578.05	22.419
578.38	22.423
578.71	22.430
579.05	22.436
579.38	22.442
579.71	22.398
580.05	22.322
580.38	22.341
580.71	22.365
581.05	22.359
581.38	22.312
581.71	22.334
582.05	22.341
582.38	22.322
582.71	22.364
583.04	22.327
583.38	22.364
583.71	22.429
584.04	22.400
584.38	22.397
584.71	22.395
585.04	22.421
585.37	22.403
585.71	22.399
586.04	22.390
586.37	22.338
586.70	22.335
587.04	22.292
587.37	22.276
587.70	22.265
588.03	22.267
588.37	22.228
588.70	22.197
589.03	22.165
589.36	22.158
589.69	22.134
590.03	22.118
590.36	22.099
590.69	22.111
591.02	22.084
591.35	22.043
591.69	21.973
592.02	21.983
592.35	21.945
592.68	21.938
593.01	21.911
593.35	21.900
593.68	21.853
594.01	21.847
594.34	21.799
594.67	21.742
595.00	21.710
595.34	21.703
595.67	21.654
596.00	21.651
596.33	21.587
596.66	21.531
596.99	21.495
597.32	21.495
597.65	21.463
597.99	21.433
598.32	21.445
598.65	21.450
598.98	21.414
599.31	21.405
599.64	21.385
599.97	21.410
600.30	21.377
600.63	21.366
600.96	21.293
601.30	21.270
601.63	21.248
601.96	21.190
602.29	21.161
602.62	21.146
602.95	21.112
603.28	21.073
603.61	21.017
603.94	20.988
604.27	20.946
604.60	20.986
604.93	20.967
605.26	20.933
605.59	20.932
605.92	20.884
606.25	20.855
606.58	20.847
606.91	20.845
607.24	20.841
607.57	20.815
607.90	20.808
608.23	20.747
608.56	20.725
608.89	20.717
609.22	20.724
609.55	20.729
609.88	20.712
610.21	20.674
610.54	20.648
610.87	20.617
611.20	20.637
611.53	20.618
611.86	20.645
612.19	20.630
612.52	20.643
612.85	20.612
613.18	20.625
613.51	20.586
613.84	20.584
614.17	20.554
614.49	20.548
614.82	20.538
615.15	20.508
615.48	20.482
615.81	20.444
616.14	20.400
616.47	20.349
616.80	20.299
617.13	20.288
617.46	20.281
617.78	20.266
618.11	20.203
618.44	20.158
618.77	20.124
619.10	20.062
619.43	20.035
619.76	20.015
620.09	19.999
620.41	20.002
620.74	19.951
621.07	19.866
621.40	19.813
621.73	19.801
622.06	19.770
622.38	19.732
622.71	19.705
623.04	19.661
623.37	19.620
623.70	19.588
624.02	19.523
624.35	19.550
624.68	19.542
625.01	19.523
625.34	19.488
625.66	19.460
625.99	19.457
626.32	19.424
626.65	19.410
626.98	19.373
627.30	19.378
627.63	19.347
627.96	19.323
628.29	19.287
628.61	19.279
628.94	19.270
629.27	19.240
629.60	19.226
629.92	19.227
630.25	19.234
630.58	19.172
630.91	19.111
631.23	19.107
631.56	19.066
631.89	19.072
632.21	19.046
632.54	18.977
632.87	18.937
633.19	18.865
633.52	18.822
633.85	18.754
634.18	18.725
634.50	18.665
634.83	18.581
635.16	18.528
635.48	18.499
635.81	18.439
636.14	18.430
636.46	18.384
636.79	18.372
637.11	18.337
637.44	18.306
637.77	18.313
638.09	18.289
638.42	18.287
638.75	18.270
639.07	18.185
639.40	18.144
639.73	18.133
640.05	18.155
640.38	18.120
640.70	18.105
641.03	18.112
641.36	18.120
641.68	18.089
642.01	18.079
642.33	18.042
642.66	18.056
642.98	18.045
643.31	18.028
643.64	18.014
643.96	17.998
644.29	17.957
644.61	17.889
644.94	17.864
645.26	17.840
645.59	17.835
645.91	17.813
646.24	17.811
646.56	17.790
646.89	17.730
647.22	17.730
647.54	17.695
647.87	17.642
648.19	17.627
648.52	17.593
648.84	17.552
649.17	17.502
649.49	17.479
649.82	17.409
650.14	17.381
650.47	17.363
650.79	17.292
651.11	17.283
651.44	17.284
651.76	17.224
652.09	17.167
652.41	17.184
652.74	17.166
653.06	17.082
653.39	17.080
653.71	17.052
654.04	17.074
654.36	17.061
654.68	17.015
655.01	16.960
655.33	16.943
655.66	16.921
655.98	16.901
656.30	16.840
656.63	16.851
656.95	16.803
657.28	16.752
657.60	16.655
657.92	16.587
658.25	16.514
658.57	16.516
658.90	16.481
659.22	16.429
659.54	16.379
659.87	16.349
660.19	16.271
660.51	16.248
660.84	16.234
661.16	16.212
661.48	16.197
661.81	16.226
662.13	16.185
662.45	16.187
662.78	16.160
663.10	16.151
663.42	16.175
663.75	16.257
664.07	16.251
664.39	16.201
664.72	16.172
665.04	16.111
665.36	16.079
665.69	16.053
666.01	15.963
666.33	15.956
666.65	15.911
666.98	15.844
667.30	15.747
667.62	15.699
667.94	15.697
668.27	15.761
668.59	15.711
668.91	15.692
669.23	15.705
669.56	15.719
669.88	15.700
670.20	15.661
670.52	15.612
670.85	15.615
671.17	15.636
671.49	15.634
671.81	15.564
672.13	15.628
672.46	15.580
672.78	15.482
673.10	15.435
673.42	15.458
673.74	15.440
674.07	15.383
674.39	15.348
674.71	15.286
675.03	15.242
675.35	15.184
675.67	15.161
676.00	15.113
676.32	15.127
676.64	15.198
676.96	15.148
677.28	15.135
677.60	15.175
677.92	15.186
678.25	15.219
678.57	15.183
678.89	15.153
679.21	15.177
679.53	15.262
679.85	15.253
680.17	15.256
680.49	15.249
680.81	15.259
681.13	15.266
681.46	15.234
681.78	15.199
682.10	15.225
682.42	15.268
682.74	15.212
683.06	15.121
683.38	15.106
683.70	15.090
684.02	15.055
684.34	15.091
684.66	15.134
684.98	15.191
685.30	15.269
685.62	15.245
685.94	15.216
686.26	15.188
686.58	15.190
686.90	15.196
687.22	15.117
687.54	15.155
687.86	15.102
688.18	15.033
688.50	14.941
688.82	14.808
689.14	14.753
689.46	14.689
689.78	14.635
690.10	14.547
690.42	14.511
690.74	14.454
691.06	14.352
691.38	14.329
691.70	14.277
692.02	14.246
692.34	14.237
692.66	14.240
692.98	14.314
693.30	14.362
693.62	14.425
693.94	14.370
694.26	14.391
694.57	14.359
694.89	14.249
695.21	14.281
695.53	14.262
695.85	14.284
696.17	14.281
696.49	14.222
696.81	14.231
697.13	14.189
697.44	14.218
697.76	14.202
698.08	14.252
698.40	14.283
698.72	14.186
699.04	14.118
699.36	13.970
699.67	13.909
699.99	13.789
700.31	13.631
700.63	13.600
700.95	13.493
701.27	13.365
701.58	13.278
701.90	13.241
702.22	13.290
702.54	13.272
702.86	13.307
703.17	13.296
703.49	13.343
703.81	13.345
704.13	13.280
704.45	13.369
704.76	13.417
705.08	13.354
705.40	13.340
705.72	13.330
706.03	13.398
706.35	13.360
706.67	13.321
706.99	13.246
707.30	13.203
707.62	13.192
707.94	13.108
708.26	13.115
708.57	13.079
708.89	13.096
709.21	13.014
709.53	12.949
709.84	12.911
710.16	12.910
710.48	13.036
710.79	13.066
711.11	13.058
711.43	12.943
711.74	12.893
712.06	12.918
712.38	12.914
712.69	12.969
713.01	12.999
713.33	13.061
713.64	13.140
713.96	13.140
714.28	13.280
714.59	13.346
714.91	13.535
715.23	13.617
715.54	13.656
715.86	13.740
716.17	13.813
716.49	13.852
716.81	13.908
717.12	13.843
717.44	13.751
717.76	13.715
718.07	13.668
718.39	13.543
718.70	13.483
719.02	13.497
719.33	13.460
719.65	13.427
719.97	13.422
720.28	13.264
720.60	13.289
720.91	13.413
721.23	13.329
721.54	13.359
721.86	13.458
722.17	13.454
722.49	13.404
722.81	13.267
723.12	13.262
723.44	13.150
723.75	13.257
724.07	13.227
724.38	13.146
724.70	13.251
725.01	13.351
725.33	13.352
725.64	13.486
725.96	13.474
726.27	13.479
726.59	13.412
726.90	13.509
727.22	13.509
727.53	13.566
727.84	13.657
728.16	13.643
728.47	13.521
728.79	13.457
729.10	13.279
729.42	13.259
729.73	13.292
730.05	13.265
730.36	13.213
730.67	13.085
730.99	13.045
731.30	12.807
731.62	12.587
731.93	12.533
732.24	12.440
732.56	12.460
732.87	12.360
733.19	12.279
733.50	12.262
733.81	12.161
734.13	12.250
734.44	12.171
734.76	12.193
735.07	12.188
735.38	12.138
735.70	12.139
736.01	12.146
736.32	12.177
736.64	12.227
736.95	12.102
737.26	12.137
737.58	12.057
737.89	12.006
738.20	12.006
738.52	11.906
738.83	11.890
739.14	11.815
739.45	11.740
739.77	11.788
740.08	11.669
740.39	11.562
740.71	11.461
741.02	11.409
741.33	11.275
741.64	11.209
741.96	11.098
742.27	11.066
742.58	10.984
742.90	10.909
743.21	10.749
743.52	10.717
743.83	10.869
744.14	10.828
744.46	10.740
744.77	10.824
745.08	10.796
745.39	10.909
745.71	10.830
746.02	10.997
746.33	10.965
746.64	11.052
746.95	11.046
747.27	11.065
747.58	11.155
747.89	11.225
748.20	11.133
748.51	11.096
748.82	11.235
749.14	11.127
749.45	10.982
749.76	11.040
750.07	10.927
750.38	10.940
750.69	10.946
751.01	10.907
751.32	10.769
751.63	10.750
751.94	10.787
752.25	10.662
752.56	10.808
752.87	10.905
753.18	10.800
753.49	10.781
753.81	10.718
754.12	10.728
754.43	10.858
754.74	11.086
755.05	11.177
755.36	11.387
755.67	11.671
755.98	11.828
756.29	12.112
756.60	12.381
756.91	12.850
757.22	13.274
757.53	13.537
757.84	13.771
758.15	14.024
758.46	14.454
758.77	14.694
759.09	14.918
759.40	15.226
759.71	15.370
760.02	15.347
760.33	15.361
760.64	15.427
760.95	15.411
761.26	15.420
761.57	15.391
761.88	15.233
762.18	15.193
762.49	15.101
762.80	14.921
763.11	14.646
763.42	14.640
763.73	14.383
764.04	14.023
764.35	13.864
764.66	13.596
764.97	13.206
765.28	13.127
765.59	12.844
765.90	12.486
766.21	12.357
766.52	12.188
766.83	11.892
767.14	11.843
767.44	11.689
767.75	11.340
768.06	11.084
768.37	11.124
768.68	10.884
768.99	10.715
769.30	10.478
769.61	10.090
769.91	10.012
770.22	9.929
770.53	9.744
770.84	9.960
771.15	10.179
771.46	10.349
771.77	10.136
772.07	10.238
772.38	9.971
772.69	9.889
773.00	9.819
773.31	10.211
773.61	10.302
773.92	10.262
774.23	10.014
774.54	9.891
774.85	9.825
775.15	10.083
775.46	9.749
775.77	9.908
776.08	10.114
776.39	10.039
776.69	9.707
777.00	9.661
777.31	9.732
777.62	9.901
777.92	9.874
778.23	9.904
778.54	9.769
778.85	9.756
779.15	9.792
779.46	9.727
779.77	10.047
780.07	10.013
780.38	9.982
780.69	9.763
781.00	9.466
781.30	9.424
781.61	9.199
781.92	9.221
782.22	9.297
782.53	9.441
782.84	9.646
783.14	9.639
783.45	9.789
783.76	10.058
784.06	10.499
784.37	10.944
784.68	10.966
784.98	11.351
785.29	11.651
785.60	12.062
785.90	12.357
786.21	12.446
786.51	12.445
786.82	12.304
787.13	12.534
787.43	12.665
787.74	12.593
788.04	12.787
788.35	12.373
788.66	12.181
788.96	11.894
789.27	11.916
789.57	11.891
789.88	11.951
790.19	12.441
790.49	12.166
790.80	11.987
791.10	12.171
791.41	12.182
791.71	12.474
792.02	12.764
792.32	12.813
792.63	12.621
792.93	12.674
793.24	12.624
793.54	12.293
793.85	12.567
794.15	12.774
794.46	12.498
794.76	12.295
795.07	12.071
795.37	12.042
795.68	11.876
795.98	11.777
796.29	11.671
796.59	11.608
796.90	11.390
797.20	11.026
797.51	11.119
797.81	11.135
798.12	11.217
798.42	11.484
798.72	11.212
799.03	11.541
799.33	11.833
799.64	11.891
799.94	11.931
800.25	12.409
800.55	12.449
800.85	11.908
801.16	11.858
801.46	11.974
801.77	11.939
802.07	12.069
802.37	11.990
802.68	11.779
802.98	11.559
803.28	11.704
803.59	10.986
803.89	10.992
804.20	11.301
804.50	11.415
804.80	11.141
805.11	11.522
805.41	11.407
805.71	11.547
806.02	11.295
806.32	11.943
806.62	11.947
806.93	12.322
807.23	12.148
807.53	12.086
807.83	12.381
808.14	12.649
808.44	12.397
808.74	12.769
809.05	12.816
809.35	13.019
809.65	12.681
809.95	12.804
810.26	12.821
810.56	13.634
810.86	13.677
811.16	13.385
811.47	13.473
811.77	13.807
812.07	13.637
812.37	13.428
812.68	13.708
812.98	14.349
813.28	14.518
813.58	14.683
813.88	13.752
814.19	14.058
814.49	14.137
814.79	14.318
815.09	13.993
815.39	14.621
815.70	14.891
816.00	14.778
816.30	14.249
816.60	14.026
816.90	14.557
817.20	15.261
817.50	15.776
817.81	16.219
818.11	16.383
818.41	16.803
818.71	16.735
819.01	16.947
819.31	17.229
819.61	17.251
819.92	17.301
820.22	17.302
820.52	17.372
820.82	17.367
821.12	17.403
821.42	17.434
821.72	17.441
822.02	17.353
822.32	17.270
822.62	17.201
822.92	17.218
823.22	17.195
823.52	17.222
823.83	17.102
824.13	17.016
824.43	16.916
824.73	16.796
825.03	16.642
825.33	16.784
825.63	16.858
825.93	16.744
826.23	16.731
826.53	16.718
826.83	16.610
827.13	16.568
827.43	16.467
827.73	16.495
828.03	16.412
828.33	16.316
828.63	16.265
828.93	16.026
829.23	16.061
829.53	15.792
829.83	15.960
830.13	15.489
830.42	15.503
830.72	15.789
831.02	15.637
831.32	15.645
831.62	15.714
831.92	15.564
832.22	15.716
832.52	15.583
832.82	15.909
833.12	15.851
833.42	16.113
833.72	16.386
834.01	16.245
834.31	16.219
834.61	16.305
834.91	16.346
835.21	16.454
835.51	16.442
835.81	16.478
836.11	16.327
836.40	16.094
836.70	16.082
837.00	15.995
837.30	15.600
837.60	15.842
837.90	16.038
838.19	16.065
838.49	15.669
838.79	15.597
839.09	15.193
839.39	14.685
839.68	14.428
839.98	14.120
840.28	13.690
840.58	13.652
840.88	13.039
841.17	12.279
841.47	11.529
841.77	11.928
842.07	10.985
842.36	10.953
842.66	10.307
842.96	10.549
843.26	9.546
843.55	8.618
843.85	8.487
844.15	7.948
844.45	8.022
844.74	7.959
845.04	7.842
845.34	8.038
845.63	8.032
845.93	9.953
846.23	11.424
846.53	12.972
846.82	12.845
847.12	12.046
847.42	11.422
847.71	11.598
848.01	12.682
848.31	12.871
848.60	12.296
848.90	10.865
849.19	8.526
849.49	6.823
849.79	7.171
850.08	8.128
850.38	9.167
850.68	10.785
850.97	11.617
851.27	10.694
851.56	9.035
851.86	9.524
852.16	11.643
852.45	13.248
852.75	13.691
853.04	12.957
853.34	12.414
853.64	11.973
853.93	11.762
854.23	11.173
854.52	10.727
854.82	12.690
855.11	12.563
855.41	11.525
855.70	11.501
856.00	10.823
856.30	10.069
856.59	9.587
856.89	10.585
857.18	10.711
857.48	10.260
857.77	10.708
858.07	9.981
858.36	10.275
858.66	9.900
858.95	9.231
859.25	9.129
859.54	10.209
859.84	10.254
860.13	8.944
860.42	8.386
860.72	9.377
861.01	10.749
861.31	10.191
861.60	9.949
861.90	8.759
862.19	8.274
862.49	8.118
862.78	7.979
863.07	8.126
863.37	7.341
863.66	7.199
863.96	6.758
864.25	5.106
864.54	5.295
864.84	5.856
865.13	6.381
865.43	5.194
865.72	5.152
866.01	10.794
866.31	12.642
866.60	-8.182
866.89	-11.287
>>>>>End Spectral Data<<<<<
