OOIBase32 Version 2.0.0.6 Data File
++++++++++++++++++++++++++++++++++++
Date: 01-23-2012, 21:56:21
User: Valued Ocean Optics Customer
Spectrometer Serial Number: USB2E2917
Spectrometer Channel: Master
Integration Time (msec): 5
Spectra Averaged: 10
Boxcar Smoothing: 5
Correct for Electrical Dark: Enabled
Time Normalized: Disabled
Dual-beam Reference: Disabled
Reference Channel: Master
Temperature: Not acquired
Spectrometer Type: S2000
ADC Type: USB2000
Number of Pixels in File: 2048
Graph Title: 
>>>>>Begin Spectral Data<<<<<
180.30	0.000
180.67	0.000
181.03	121.059
181.40	-152.922
181.77	-7283.800
182.14	83.554
182.51	76.576
182.88	-6155.456
183.25	496.803
183.62	-108.870
183.99	55.244
184.36	161.996
184.73	56.676
185.10	-137.011
185.46	-48.312
185.83	26.197
186.20	58.202
186.57	6.234
186.94	3.779
187.31	21.033
187.68	-197.814
188.05	18.961
188.42	16.941
188.78	1.515
189.15	4.855
189.52	-2.293
189.89	-5.134
190.26	-36.806
190.63	-7.838
191.00	-24.238
191.37	-9.010
191.73	-2.804
192.10	-10.137
192.47	-6.762
192.84	1.875
193.21	-6.970
193.58	1.213
193.94	-4.236
194.31	-4.521
194.68	-3.624
195.05	-10.109
195.42	-30.723
195.79	-33.922
196.15	-27.728
196.52	-20.413
196.89	-45.908
197.26	-35.546
197.63	-54.769
198.00	-49.740
198.36	-40.805
198.73	-43.527
199.10	-22.109
199.47	-17.304
199.84	-20.846
200.20	-6.175
200.57	-35.524
200.94	-25.788
201.31	-36.408
201.68	-11.299
202.04	-20.058
202.41	-10.319
202.78	-21.312
203.15	-20.497
203.51	-37.996
203.88	-33.262
204.25	-42.116
204.62	-14.254
204.98	4.130
205.35	23.213
205.72	31.310
206.09	43.810
206.46	45.220
206.82	60.230
207.19	41.533
207.56	44.363
207.92	40.388
208.29	32.582
208.66	38.198
209.03	36.911
209.39	16.541
209.76	-0.334
210.13	-13.842
210.50	-11.665
210.86	-15.491
211.23	10.324
211.60	6.396
211.96	12.340
212.33	-0.895
212.70	-3.135
213.07	-17.365
213.43	-11.812
213.80	-7.689
214.17	-10.004
214.53	-8.412
214.90	-9.497
215.27	-22.335
215.63	-22.385
216.00	-28.270
216.37	-13.357
216.74	-34.061
217.10	-28.567
217.47	-32.761
217.84	-29.156
218.20	-15.577
218.57	-13.670
218.94	-11.458
219.30	-4.997
219.67	-5.713
220.04	-2.337
220.40	-1.938
220.77	-0.249
221.13	-2.353
221.50	-0.234
221.87	-6.516
222.23	-8.897
222.60	-9.589
222.97	-12.737
223.33	-26.719
223.70	-28.107
224.07	-19.156
224.43	-17.475
224.80	-8.566
225.16	-7.569
225.53	-6.642
225.90	-9.320
226.26	-9.459
226.63	-8.296
226.99	-8.022
227.36	-4.876
227.73	-2.727
228.09	-6.187
228.46	-4.993
228.82	-4.864
229.19	-3.892
229.56	-5.227
229.92	-2.927
230.29	-0.154
230.65	-0.489
231.02	1.626
231.38	0.141
231.75	-1.776
232.12	0.461
232.48	-0.793
232.85	-2.786
233.21	-1.672
233.58	0.552
233.94	1.575
234.31	-1.722
234.68	-4.403
235.04	-6.019
235.41	-4.285
235.77	-2.696
236.14	-2.555
236.50	-3.421
236.87	-2.353
237.23	-2.186
237.60	-1.799
237.96	-2.479
238.33	-0.526
238.69	0.623
239.06	0.583
239.42	1.135
239.79	1.104
240.15	1.778
240.52	2.036
240.88	2.165
241.25	2.375
241.61	2.491
241.98	3.403
242.34	2.993
242.71	3.634
243.07	4.184
243.44	3.823
243.80	3.703
244.17	3.812
244.53	3.857
244.90	3.622
245.26	3.358
245.63	3.127
245.99	2.914
246.36	2.974
246.72	2.260
247.09	2.006
247.45	2.008
247.81	1.652
248.18	1.026
248.54	1.280
248.91	1.384
249.27	1.826
249.64	1.661
250.00	1.213
250.36	1.401
250.73	1.694
251.09	1.776
251.46	1.522
251.82	2.278
252.19	3.040
252.55	2.797
252.91	2.576
253.28	1.759
253.64	2.144
254.01	2.749
254.37	2.797
254.73	3.535
255.10	3.572
255.46	3.794
255.83	3.224
256.19	2.883
256.55	2.629
256.92	2.486
257.28	2.576
257.65	2.831
258.01	2.843
258.37	2.576
258.74	2.469
259.10	2.309
259.46	2.409
259.83	2.662
260.19	2.624
260.55	2.749
260.92	3.007
261.28	2.923
261.64	2.573
262.01	2.426
262.37	2.600
262.73	2.111
263.10	2.200
263.46	2.220
263.82	1.881
264.19	1.668
264.55	1.753
264.91	1.719
265.28	1.885
265.64	1.774
266.00	1.418
266.37	1.291
266.73	1.639
267.09	1.667
267.46	1.712
267.82	1.866
268.18	2.178
268.54	2.004
268.91	2.147
269.27	2.062
269.63	2.153
270.00	2.483
270.36	2.486
270.72	2.293
271.08	2.077
271.45	1.942
271.81	1.948
272.17	1.762
272.53	1.590
272.90	1.336
273.26	1.347
273.62	1.305
273.98	1.140
274.35	1.047
274.71	1.328
275.07	1.493
275.43	1.701
275.80	1.860
276.16	2.222
276.52	2.371
276.88	2.455
277.25	2.461
277.61	2.646
277.97	2.628
278.33	2.361
278.69	2.099
279.06	2.407
279.42	1.961
279.78	1.803
280.14	1.726
280.50	1.876
280.87	1.981
281.23	2.216
281.59	2.157
281.95	2.212
282.31	2.538
282.68	2.632
283.04	2.519
283.40	2.768
283.76	2.566
284.12	2.593
284.48	2.589
284.85	2.415
285.21	2.276
285.57	2.275
285.93	2.413
286.29	2.421
286.65	2.381
287.02	2.452
287.38	2.494
287.74	2.841
288.10	2.840
288.46	2.810
288.82	2.824
289.18	2.801
289.54	2.737
289.91	2.810
290.27	2.898
290.63	3.057
290.99	2.932
291.35	3.038
291.71	3.405
292.07	3.411
292.43	3.812
292.79	4.359
293.16	4.671
293.52	4.842
293.88	5.068
294.24	5.317
294.60	5.369
294.96	5.700
295.32	5.921
295.68	5.816
296.04	6.159
296.40	6.230
296.76	6.370
297.12	6.602
297.49	6.920
297.85	7.144
298.21	7.378
298.57	7.764
298.93	8.038
299.29	8.313
299.65	8.590
300.01	8.831
300.37	9.063
300.73	9.533
301.09	9.737
301.45	10.062
301.81	10.279
302.17	10.504
302.53	10.769
302.89	10.881
303.25	10.992
303.61	11.380
303.97	11.443
304.33	11.720
304.69	11.710
305.05	11.929
305.41	12.080
305.77	12.387
306.13	12.603
306.49	12.846
306.85	13.089
307.21	13.268
307.57	13.336
307.93	13.594
308.29	13.691
308.65	13.642
309.01	13.641
309.37	13.824
309.73	13.699
310.09	13.680
310.45	13.698
310.81	13.674
311.17	13.595
311.53	13.607
311.89	13.701
312.25	13.753
312.61	13.843
312.96	13.942
313.32	13.937
313.68	13.954
314.04	14.079
314.40	14.132
314.76	14.219
315.12	14.425
315.48	14.453
315.84	14.274
316.20	14.371
316.56	14.515
316.92	14.511
317.27	14.321
317.63	14.346
317.99	14.233
318.35	14.049
318.71	14.188
319.07	14.111
319.43	14.125
319.79	14.162
320.15	14.065
320.50	13.764
320.86	13.876
321.22	14.061
321.58	14.100
321.94	14.106
322.30	14.200
322.66	14.140
323.01	14.067
323.37	14.032
323.73	14.007
324.09	13.955
324.45	14.237
324.81	14.080
325.17	14.038
325.52	14.074
325.88	14.080
326.24	14.044
326.60	14.194
326.96	14.275
327.31	14.220
327.67	14.246
328.03	14.178
328.39	13.970
328.75	14.065
329.11	14.087
329.46	14.020
329.82	13.988
330.18	13.944
330.54	13.748
330.90	13.714
331.25	13.821
331.61	13.767
331.97	13.790
332.33	13.806
332.68	13.679
333.04	13.521
333.40	13.516
333.76	13.463
334.11	13.366
334.47	13.318
334.83	13.192
335.19	13.048
335.54	13.104
335.90	13.125
336.26	13.168
336.62	13.258
336.97	13.151
337.33	13.087
337.69	13.132
338.05	13.133
338.40	13.027
338.76	13.053
339.12	13.060
339.48	13.005
339.83	12.986
340.19	12.990
340.55	12.887
340.90	12.950
341.26	12.915
341.62	12.854
341.97	12.933
342.33	12.949
342.69	12.874
343.04	12.854
343.40	12.811
343.76	12.839
344.12	12.861
344.47	12.849
344.83	12.813
345.19	12.789
345.54	12.724
345.90	12.760
346.26	12.774
346.61	12.830
346.97	12.797
347.32	12.812
347.68	12.661
348.04	12.526
348.39	12.544
348.75	12.622
349.11	12.607
349.46	12.569
349.82	12.439
350.18	12.401
350.53	12.362
350.89	12.355
351.24	12.301
351.60	12.354
351.96	12.368
352.31	12.403
352.67	12.336
353.02	12.390
353.38	12.422
353.74	12.365
354.09	12.322
354.45	12.337
354.80	12.287
355.16	12.238
355.52	12.168
355.87	12.086
356.23	11.975
356.58	12.029
356.94	11.957
357.29	11.937
357.65	11.965
358.00	11.961
358.36	11.917
358.72	11.956
359.07	11.973
359.43	11.979
359.78	12.023
360.14	11.993
360.49	11.919
360.85	11.929
361.20	11.965
361.56	11.962
361.91	11.935
362.27	11.904
362.62	11.871
362.98	11.835
363.33	11.836
363.69	11.716
364.04	11.703
364.40	11.689
364.75	11.618
365.11	11.619
365.46	11.569
365.82	11.527
366.17	11.498
366.53	11.507
366.88	11.477
367.24	11.426
367.59	11.509
367.95	11.528
368.30	11.482
368.66	11.448
369.01	11.412
369.37	11.403
369.72	11.418
370.08	11.433
370.43	11.372
370.78	11.349
371.14	11.335
371.49	11.305
371.85	11.230
372.20	11.269
372.56	11.323
372.91	11.185
373.26	11.157
373.62	11.124
373.97	11.130
374.33	11.142
374.68	11.115
375.03	11.112
375.39	11.031
375.74	11.022
376.10	10.923
376.45	10.893
376.80	10.950
377.16	10.949
377.51	10.975
377.87	10.910
378.22	10.886
378.57	10.905
378.93	10.874
379.28	10.914
379.63	10.909
379.99	10.959
380.34	10.955
380.70	10.964
381.05	10.960
381.40	10.865
381.76	10.887
382.11	10.836
382.46	10.754
382.82	10.729
383.17	10.703
383.52	10.700
383.88	10.598
384.23	10.559
384.58	10.498
384.94	10.493
385.29	10.509
385.64	10.505
385.99	10.502
386.35	10.544
386.70	10.540
387.05	10.472
387.41	10.458
387.76	10.478
388.11	10.413
388.47	10.442
388.82	10.362
389.17	10.313
389.52	10.257
389.88	10.231
390.23	10.191
390.58	10.152
390.93	10.161
391.29	10.146
391.64	10.126
391.99	10.124
392.34	10.080
392.70	10.081
393.05	10.060
393.40	10.015
393.75	10.004
394.11	10.002
394.46	9.973
394.81	9.916
395.16	9.850
395.52	9.827
395.87	9.787
396.22	9.715
396.57	9.682
396.92	9.655
397.28	9.663
397.63	9.587
397.98	9.561
398.33	9.576
398.68	9.598
399.04	9.576
399.39	9.580
399.74	9.559
400.09	9.546
400.44	9.525
400.80	9.478
401.15	9.443
401.50	9.462
401.85	9.422
402.20	9.384
402.55	9.365
402.90	9.339
403.26	9.292
403.61	9.268
403.96	9.275
404.31	9.262
404.66	9.280
405.01	9.261
405.36	9.248
405.72	9.219
406.07	9.192
406.42	9.176
406.77	9.179
407.12	9.143
407.47	9.156
407.82	9.134
408.17	9.102
408.53	9.083
408.88	9.086
409.23	9.051
409.58	9.017
409.93	8.980
410.28	8.968
410.63	8.932
410.98	8.906
411.33	8.874
411.68	8.837
412.03	8.798
412.38	8.764
412.73	8.726
413.09	8.704
413.44	8.693
413.79	8.693
414.14	8.641
414.49	8.615
414.84	8.583
415.19	8.568
415.54	8.548
415.89	8.562
416.24	8.530
416.59	8.510
416.94	8.511
417.29	8.502
417.64	8.459
417.99	8.452
418.34	8.453
418.69	8.452
419.04	8.435
419.39	8.429
419.74	8.400
420.09	8.405
420.44	8.398
420.79	8.371
421.14	8.350
421.49	8.361
421.84	8.364
422.19	8.344
422.54	8.357
422.89	8.349
423.24	8.346
423.59	8.347
423.94	8.354
424.29	8.335
424.64	8.337
424.99	8.358
425.34	8.366
425.68	8.356
426.03	8.374
426.38	8.348
426.73	8.355
427.08	8.340
427.43	8.364
427.78	8.360
428.13	8.382
428.48	8.393
428.83	8.382
429.18	8.359
429.53	8.366
429.87	8.370
430.22	8.362
430.57	8.363
430.92	8.351
431.27	8.336
431.62	8.317
431.97	8.311
432.32	8.294
432.67	8.274
433.01	8.272
433.36	8.268
433.71	8.248
434.06	8.248
434.41	8.255
434.76	8.276
435.11	8.251
435.45	8.237
435.80	8.224
436.15	8.212
436.50	8.221
436.85	8.213
437.20	8.200
437.54	8.198
437.89	8.181
438.24	8.165
438.59	8.141
438.94	8.144
439.29	8.144
439.63	8.129
439.98	8.136
440.33	8.111
440.68	8.108
441.03	8.088
441.37	8.058
441.72	8.057
442.07	8.037
442.42	8.021
442.76	8.006
443.11	8.004
443.46	8.003
443.81	7.984
444.16	7.982
444.50	7.958
444.85	7.950
445.20	7.950
445.55	7.933
445.89	7.911
446.24	7.891
446.59	7.887
446.94	7.874
447.28	7.854
447.63	7.850
447.98	7.861
448.32	7.892
448.67	7.890
449.02	7.881
449.37	7.886
449.71	7.890
450.06	7.900
450.41	7.895
450.75	7.890
451.10	7.891
451.45	7.877
451.79	7.835
452.14	7.797
452.49	7.776
452.84	7.769
453.18	7.758
453.53	7.747
453.88	7.748
454.22	7.743
454.57	7.730
454.92	7.716
455.26	7.735
455.61	7.741
455.95	7.743
456.30	7.773
456.65	7.764
456.99	7.756
457.34	7.763
457.69	7.757
458.03	7.752
458.38	7.747
458.73	7.743
459.07	7.721
459.42	7.705
459.76	7.690
460.11	7.654
460.46	7.640
460.80	7.644
461.15	7.646
461.49	7.640
461.84	7.633
462.19	7.640
462.53	7.649
462.88	7.656
463.22	7.677
463.57	7.702
463.91	7.709
464.26	7.725
464.61	7.703
464.95	7.703
465.30	7.700
465.64	7.690
465.99	7.675
466.33	7.665
466.68	7.649
467.02	7.640
467.37	7.617
467.71	7.616
468.06	7.600
468.41	7.598
468.75	7.557
469.10	7.528
469.44	7.509
469.79	7.494
470.13	7.487
470.48	7.468
470.82	7.449
471.17	7.435
471.51	7.399
471.86	7.385
472.20	7.366
472.55	7.380
472.89	7.372
473.23	7.377
473.58	7.366
473.92	7.362
474.27	7.340
474.61	7.327
474.96	7.310
475.30	7.294
475.65	7.296
475.99	7.286
476.34	7.267
476.68	7.275
477.02	7.256
477.37	7.244
477.71	7.229
478.06	7.241
478.40	7.254
478.75	7.313
479.09	7.383
479.43	7.448
479.78	7.535
480.12	7.620
480.47	7.726
480.81	7.832
481.15	7.957
481.50	8.079
481.84	8.221
482.19	8.366
482.53	8.475
482.87	8.521
483.22	8.490
483.56	8.389
483.90	8.245
484.25	8.069
484.59	7.913
484.94	7.770
485.28	7.639
485.62	7.475
485.97	7.291
486.31	7.126
486.65	7.024
487.00	7.001
487.34	7.032
487.68	7.097
488.03	7.173
488.37	7.231
488.71	7.238
489.06	7.218
489.40	7.202
489.74	7.194
490.09	7.180
490.43	7.149
490.77	7.113
491.11	7.081
491.46	7.056
491.80	7.028
492.14	6.986
492.49	6.950
492.83	6.926
493.17	6.885
493.51	6.849
493.86	6.824
494.20	6.814
494.54	6.796
494.88	6.794
495.23	6.782
495.57	6.766
495.91	6.775
496.25	6.770
496.60	6.742
496.94	6.738
497.28	6.724
497.62	6.702
497.97	6.685
498.31	6.680
498.65	6.662
498.99	6.656
499.33	6.659
499.68	6.643
500.02	6.647
500.36	6.653
500.70	6.630
501.04	6.624
501.39	6.601
501.73	6.614
502.07	6.610
502.41	6.615
502.75	6.589
503.09	6.575
503.44	6.568
503.78	6.550
504.12	6.546
504.46	6.553
504.80	6.555
505.14	6.570
505.49	6.548
505.83	6.543
506.17	6.535
506.51	6.547
506.85	6.533
507.19	6.520
507.53	6.515
507.87	6.505
508.22	6.498
508.56	6.478
508.90	6.459
509.24	6.456
509.58	6.453
509.92	6.451
510.26	6.434
510.60	6.451
510.94	6.439
511.28	6.433
511.63	6.431
511.97	6.411
512.31	6.407
512.65	6.405
512.99	6.398
513.33	6.385
513.67	6.388
514.01	6.388
514.35	6.379
514.69	6.395
515.03	6.407
515.37	6.401
515.71	6.421
516.05	6.420
516.39	6.432
516.73	6.442
517.07	6.439
517.41	6.425
517.75	6.420
518.09	6.400
518.43	6.375
518.77	6.355
519.11	6.351
519.45	6.329
519.79	6.307
520.13	6.270
520.47	6.243
520.81	6.231
521.15	6.225
521.49	6.213
521.83	6.213
522.17	6.232
522.51	6.239
522.85	6.248
523.19	6.281
523.53	6.347
523.87	6.407
524.21	6.449
524.55	6.488
524.89	6.522
525.23	6.567
525.57	6.601
525.91	6.632
526.25	6.664
526.58	6.684
526.92	6.691
527.26	6.683
527.60	6.666
527.94	6.649
528.28	6.624
528.62	6.598
528.96	6.563
529.30	6.528
529.64	6.480
529.97	6.428
530.31	6.384
530.65	6.345
530.99	6.308
531.33	6.281
531.67	6.264
532.01	6.256
532.35	6.247
532.68	6.230
533.02	6.203
533.36	6.186
533.70	6.174
534.04	6.154
534.38	6.135
534.71	6.117
535.05	6.100
535.39	6.068
535.73	6.051
536.07	6.038
536.41	6.047
536.74	6.068
537.08	6.086
537.42	6.098
537.76	6.120
538.10	6.134
538.43	6.157
538.77	6.174
539.11	6.192
539.45	6.198
539.79	6.202
540.12	6.191
540.46	6.180
540.80	6.159
541.14	6.124
541.47	6.103
541.81	6.078
542.15	6.041
542.49	6.006
542.82	5.980
543.16	5.951
543.50	5.911
543.84	5.873
544.17	5.848
544.51	5.830
544.85	5.822
545.18	5.800
545.52	5.792
545.86	5.763
546.20	5.739
546.53	5.704
546.87	5.665
547.21	5.620
547.54	5.597
547.88	5.577
548.22	5.559
548.55	5.545
548.89	5.528
549.23	5.500
549.56	5.514
549.90	5.528
550.24	5.517
550.57	5.540
550.91	5.551
551.25	5.553
551.58	5.539
551.92	5.530
552.26	5.520
552.59	5.503
552.93	5.487
553.27	5.485
553.60	5.459
553.94	5.458
554.27	5.425
554.61	5.442
554.95	5.447
555.28	5.452
555.62	5.453
555.95	5.466
556.29	5.483
556.63	5.484
556.96	5.449
557.30	5.445
557.63	5.438
557.97	5.422
558.31	5.409
558.64	5.419
558.98	5.419
559.31	5.419
559.65	5.425
559.98	5.402
560.32	5.410
560.65	5.411
560.99	5.416
561.33	5.421
561.66	5.449
562.00	5.452
562.33	5.444
562.67	5.423
563.00	5.422
563.34	5.407
563.67	5.405
564.01	5.383
564.34	5.379
564.68	5.390
565.01	5.384
565.35	5.358
565.68	5.340
566.02	5.316
566.35	5.326
566.69	5.322
567.02	5.326
567.36	5.337
567.69	5.349
568.03	5.363
568.36	5.331
568.69	5.330
569.03	5.340
569.36	5.336
569.70	5.335
570.03	5.329
570.37	5.313
570.70	5.316
571.04	5.295
571.37	5.296
571.70	5.276
572.04	5.289
572.37	5.284
572.71	5.281
573.04	5.287
573.37	5.301
573.71	5.298
574.04	5.312
574.38	5.292
574.71	5.291
575.04	5.278
575.38	5.262
575.71	5.240
576.05	5.243
576.38	5.225
576.71	5.210
577.05	5.172
577.38	5.159
577.71	5.135
578.05	5.101
578.38	5.089
578.71	5.077
579.05	5.067
579.38	5.072
579.71	5.029
580.05	5.010
580.38	5.005
580.71	5.002
581.05	4.983
581.38	4.980
581.71	4.982
582.05	4.969
582.38	4.976
582.71	4.999
583.04	4.979
583.38	5.001
583.71	5.013
584.04	5.014
584.38	5.020
584.71	5.016
585.04	5.003
585.37	5.033
585.71	5.048
586.04	5.053
586.37	5.048
586.70	5.062
587.04	5.042
587.37	5.035
587.70	5.047
588.03	5.059
588.37	5.055
588.70	5.045
589.03	5.029
589.36	5.002
589.69	4.966
590.03	4.948
590.36	4.920
590.69	4.945
591.02	4.945
591.35	4.889
591.69	4.869
592.02	4.878
592.35	4.897
592.68	4.887
593.01	4.905
593.35	4.914
593.68	4.920
594.01	4.923
594.34	4.902
594.67	4.876
595.00	4.893
595.34	4.869
595.67	4.856
596.00	4.830
596.33	4.810
596.66	4.764
596.99	4.737
597.32	4.710
597.65	4.697
597.99	4.667
598.32	4.668
598.65	4.657
598.98	4.652
599.31	4.645
599.64	4.659
599.97	4.667
600.30	4.679
600.63	4.691
600.96	4.697
601.30	4.709
601.63	4.719
601.96	4.713
602.29	4.708
602.62	4.725
602.95	4.721
603.28	4.689
603.61	4.673
603.94	4.683
604.27	4.655
604.60	4.640
604.93	4.610
605.26	4.602
605.59	4.578
605.92	4.565
606.25	4.539
606.58	4.541
606.91	4.569
607.24	4.574
607.57	4.547
607.90	4.566
608.23	4.550
608.56	4.548
608.89	4.529
609.22	4.540
609.55	4.512
609.88	4.483
610.21	4.444
610.54	4.391
610.87	4.351
611.20	4.321
611.53	4.279
611.86	4.261
612.19	4.232
612.52	4.219
612.85	4.201
613.18	4.228
613.51	4.211
613.84	4.213
614.17	4.219
614.49	4.217
614.82	4.215
615.15	4.234
615.48	4.220
615.81	4.206
616.14	4.199
616.47	4.201
616.80	4.174
617.13	4.171
617.46	4.136
617.78	4.127
618.11	4.120
618.44	4.143
618.77	4.110
619.10	4.106
619.43	4.115
619.76	4.112
620.09	4.073
620.41	4.041
620.74	4.067
621.07	4.088
621.40	4.051
621.73	4.055
622.06	4.018
622.38	4.018
622.71	4.003
623.04	3.996
623.37	4.004
623.70	4.019
624.02	4.030
624.35	4.032
624.68	4.051
625.01	4.103
625.34	4.097
625.66	4.115
625.99	4.130
626.32	4.150
626.65	4.149
626.98	4.143
627.30	4.151
627.63	4.152
627.96	4.125
628.29	4.082
628.61	4.032
628.94	4.014
629.27	4.001
629.60	3.993
629.92	3.958
630.25	3.980
630.58	3.955
630.91	3.939
631.23	3.932
631.56	3.921
631.89	3.923
632.21	3.917
632.54	3.914
632.87	3.906
633.19	3.868
633.52	3.846
633.85	3.791
634.18	3.736
634.50	3.703
634.83	3.676
635.16	3.675
635.48	3.664
635.81	3.632
636.14	3.607
636.46	3.553
636.79	3.567
637.11	3.604
637.44	3.620
637.77	3.642
638.09	3.619
638.42	3.578
638.75	3.554
639.07	3.524
639.40	3.510
639.73	3.506
640.05	3.580
640.38	3.549
640.70	3.525
641.03	3.503
641.36	3.534
641.68	3.537
642.01	3.548
642.33	3.550
642.66	3.562
642.98	3.585
643.31	3.556
643.64	3.502
643.96	3.499
644.29	3.476
644.61	3.470
644.94	3.449
645.26	3.485
645.59	3.530
645.91	3.531
646.24	3.542
646.56	3.556
646.89	3.561
647.22	3.571
647.54	3.558
647.87	3.542
648.19	3.538
648.52	3.562
648.84	3.546
649.17	3.540
649.49	3.518
649.82	3.488
650.14	3.506
650.47	3.518
650.79	3.464
651.11	3.485
651.44	3.499
651.76	3.517
652.09	3.485
652.41	3.483
652.74	3.448
653.06	3.463
653.39	3.464
653.71	3.444
654.04	3.435
654.36	3.508
654.68	3.532
655.01	3.552
655.33	3.533
655.66	3.558
655.98	3.552
656.30	3.569
656.63	3.602
656.95	3.635
657.28	3.635
657.60	3.622
657.92	3.596
658.25	3.556
658.57	3.541
658.90	3.537
659.22	3.493
659.54	3.507
659.87	3.457
660.19	3.368
660.51	3.326
660.84	3.313
661.16	3.312
661.48	3.239
661.81	3.217
662.13	3.178
662.45	3.152
662.78	3.106
663.10	3.067
663.42	3.102
663.75	3.144
664.07	3.137
664.39	3.092
664.72	3.076
665.04	3.093
665.36	3.078
665.69	3.095
666.01	3.096
666.33	3.147
666.65	3.125
666.98	3.070
667.30	3.054
667.62	2.994
667.94	2.990
668.27	3.017
668.59	3.054
668.91	3.067
669.23	3.064
669.56	3.038
669.88	2.980
670.20	2.923
670.52	2.935
670.85	2.905
671.17	2.936
671.49	2.940
671.81	2.894
672.13	2.840
672.46	2.814
672.78	2.748
673.10	2.713
673.42	2.708
673.74	2.768
674.07	2.790
674.39	2.767
674.71	2.758
675.03	2.766
675.35	2.753
675.67	2.798
676.00	2.844
676.32	2.933
676.64	2.966
676.96	3.010
677.28	3.062
677.60	3.083
677.92	3.151
678.25	3.181
678.57	3.193
678.89	3.204
679.21	3.201
679.53	3.196
679.85	3.178
680.17	3.189
680.49	3.194
680.81	3.162
681.13	3.173
681.46	3.121
681.78	3.156
682.10	3.123
682.42	3.157
682.74	3.171
683.06	3.136
683.38	3.162
683.70	3.188
684.02	3.168
684.34	3.167
684.66	3.156
684.98	3.187
685.30	3.173
685.62	3.221
685.94	3.215
686.26	3.183
686.58	3.193
686.90	3.187
687.22	3.138
687.54	3.126
687.86	3.071
688.18	3.020
688.50	3.009
688.82	2.968
689.14	2.878
689.46	2.840
689.78	2.813
690.10	2.776
690.42	2.714
690.74	2.699
691.06	2.752
691.38	2.742
691.70	2.701
692.02	2.697
692.34	2.716
692.66	2.752
692.98	2.774
693.30	2.858
693.62	2.871
693.94	2.868
694.26	2.971
694.57	2.919
694.89	2.984
695.21	3.110
695.53	3.138
695.85	3.196
696.17	3.217
696.49	3.264
696.81	3.259
697.13	3.326
697.44	3.390
697.76	3.315
698.08	3.360
698.40	3.321
698.72	3.233
699.04	3.125
699.36	3.009
699.67	2.928
699.99	2.722
700.31	2.627
700.63	2.465
700.95	2.300
701.27	2.183
701.58	2.026
701.90	1.914
702.22	1.870
702.54	1.833
702.86	1.722
703.17	1.605
703.49	1.690
703.81	1.638
704.13	1.655
704.45	1.682
704.76	1.710
705.08	1.664
705.40	1.661
705.72	1.619
706.03	1.627
706.35	1.728
706.67	1.750
706.99	1.736
707.30	1.703
707.62	1.666
707.94	1.633
708.26	1.591
708.57	1.620
708.89	1.703
709.21	1.722
709.53	1.724
709.84	1.704
710.16	1.777
710.48	1.832
710.79	1.909
711.11	1.993
711.43	1.978
711.74	2.021
712.06	2.045
712.38	1.976
712.69	1.973
713.01	2.018
713.33	2.063
713.64	2.089
713.96	2.133
714.28	2.249
714.59	2.270
714.91	2.412
715.23	2.588
715.54	2.708
715.86	2.887
716.17	3.045
716.49	3.180
716.81	3.228
717.12	3.209
717.44	3.146
717.76	3.044
718.07	2.959
718.39	2.823
718.70	2.642
719.02	2.513
719.33	2.330
719.65	2.221
719.97	2.179
720.28	2.081
720.60	2.171
720.91	2.216
721.23	2.241
721.54	2.296
721.86	2.438
722.17	2.465
722.49	2.514
722.81	2.492
723.12	2.465
723.44	2.437
723.75	2.493
724.07	2.476
724.38	2.526
724.70	2.536
725.01	2.669
725.33	2.644
725.64	2.720
725.96	2.767
726.27	2.855
726.59	2.877
726.90	2.860
727.22	2.867
727.53	2.787
727.84	2.705
728.16	2.605
728.47	2.422
728.79	2.481
729.10	2.426
729.42	2.359
729.73	2.332
730.05	2.306
730.36	2.186
730.67	2.071
730.99	2.070
731.30	1.950
731.62	1.867
731.93	1.876
732.24	1.632
732.56	1.499
732.87	1.306
733.19	1.210
733.50	1.201
733.81	1.176
734.13	1.151
734.44	1.055
734.76	1.089
735.07	1.051
735.38	0.940
735.70	1.015
736.01	0.988
736.32	1.114
736.64	1.079
736.95	0.902
737.26	0.944
737.58	0.866
737.89	0.873
738.20	0.708
738.52	0.652
738.83	0.614
739.14	0.491
739.45	0.428
739.77	0.395
740.08	0.335
740.39	0.243
740.71	0.073
741.02	0.214
741.33	0.197
741.64	0.313
741.96	0.197
742.27	0.092
742.58	-0.024
742.90	0.016
743.21	-0.274
743.52	-0.349
743.83	-0.125
744.14	-0.226
744.46	-0.481
744.77	-0.556
745.08	-0.586
745.39	-0.572
745.71	-0.602
746.02	-0.561
746.33	-0.633
746.64	-0.389
746.95	-0.293
747.27	-0.395
747.58	-0.190
747.89	-0.092
748.20	-0.155
748.51	-0.242
748.82	-0.120
749.14	-0.071
749.45	-0.113
749.76	-0.105
750.07	-0.229
750.38	-0.221
750.69	-0.073
751.01	-0.133
751.32	-0.161
751.63	-0.140
751.94	-0.148
752.25	-0.242
752.56	-0.203
752.87	-0.208
753.18	-0.264
753.49	-0.201
753.81	-0.354
754.12	-0.503
754.43	-0.374
754.74	-0.216
755.05	-0.114
755.36	0.194
755.67	0.422
755.98	0.721
756.29	1.037
756.60	1.330
756.91	1.649
757.22	2.322
757.53	2.658
757.84	2.924
758.15	3.139
758.46	3.554
758.77	3.789
759.09	4.104
759.40	4.256
759.71	4.447
760.02	4.516
760.33	4.577
760.64	4.546
760.95	4.517
761.26	4.455
761.57	4.524
761.88	4.330
762.18	4.241
762.49	4.109
762.80	3.883
763.11	3.618
763.42	3.491
763.73	3.400
764.04	3.024
764.35	2.668
764.66	2.363
764.97	1.887
765.28	1.725
765.59	1.454
765.90	1.119
766.21	0.964
766.52	0.649
766.83	0.438
767.14	0.033
767.44	-0.150
767.75	-0.224
768.06	-0.360
768.37	-0.475
768.68	-0.638
768.99	-0.960
769.30	-1.164
769.61	-1.486
769.91	-1.537
770.22	-1.777
770.53	-1.941
770.84	-1.765
771.15	-1.708
771.46	-1.782
771.77	-1.980
772.07	-1.882
772.38	-1.995
772.69	-1.990
773.00	-2.042
773.31	-1.763
773.61	-1.816
773.92	-1.748
774.23	-2.099
774.54	-2.160
774.85	-2.158
775.15	-1.927
775.46	-2.262
775.77	-2.272
776.08	-2.288
776.39	-2.230
776.69	-2.424
777.00	-2.153
777.31	-2.252
777.62	-1.937
777.92	-1.834
778.23	-1.798
778.54	-1.973
778.85	-1.855
779.15	-1.623
779.46	-1.571
779.77	-1.391
780.07	-1.263
780.38	-1.525
780.69	-1.454
781.00	-1.945
781.30	-2.067
781.61	-2.220
781.92	-1.921
782.22	-1.900
782.53	-2.028
782.84	-1.981
783.14	-1.833
783.45	-1.686
783.76	-1.274
784.06	-1.119
784.37	-0.702
784.68	-0.685
784.98	-0.065
785.29	0.180
785.60	0.367
785.90	0.454
786.21	0.554
786.51	0.623
786.82	0.408
787.13	0.615
787.43	0.727
787.74	0.773
788.04	0.912
788.35	0.624
788.66	0.303
788.96	0.281
789.27	0.687
789.57	0.601
789.88	0.480
790.19	0.571
790.49	0.095
790.80	0.170
791.10	0.213
791.41	0.161
791.71	0.271
792.02	0.653
792.32	0.725
792.63	0.576
792.93	0.443
793.24	0.177
793.54	0.312
793.85	0.962
794.15	0.855
794.46	0.681
794.76	0.807
795.07	0.791
795.37	0.623
795.68	0.620
795.98	0.547
796.29	0.765
796.59	0.898
796.90	0.851
797.20	0.418
797.51	0.472
797.81	0.331
798.12	0.429
798.42	0.187
798.72	-0.263
799.03	-0.392
799.33	-0.428
799.64	-0.402
799.94	-0.202
800.25	-0.230
800.55	-0.115
800.85	-0.280
801.16	0.111
801.46	0.130
801.77	0.237
802.07	0.583
802.37	0.538
802.68	0.593
802.98	0.526
803.28	0.626
803.59	0.563
803.89	0.568
804.20	0.775
804.50	0.603
804.80	0.233
805.11	0.514
805.41	0.725
805.71	0.792
806.02	0.696
806.32	1.073
806.62	1.031
806.93	1.229
807.23	1.319
807.53	1.062
807.83	1.302
808.14	1.821
808.44	1.790
808.74	1.948
809.05	1.991
809.35	2.194
809.65	2.011
809.95	2.128
810.26	2.124
810.56	2.154
810.86	2.415
811.16	2.415
811.47	2.440
811.77	2.813
812.07	2.746
812.37	2.617
812.68	2.458
812.98	2.957
813.28	2.887
813.58	3.126
813.88	2.585
814.19	2.720
814.49	2.331
814.79	2.167
815.09	1.887
815.39	2.026
815.70	2.440
816.00	2.410
816.30	1.776
816.60	1.965
816.90	2.497
817.20	3.478
817.50	3.920
817.81	4.531
818.11	4.929
818.41	5.320
818.71	5.409
819.01	5.495
819.31	5.687
819.61	5.866
819.92	5.957
820.22	5.932
820.52	5.929
820.82	5.951
821.12	5.925
821.42	5.923
821.72	5.917
822.02	5.889
822.32	5.869
822.62	5.853
822.92	5.810
823.22	5.774
823.52	5.769
823.83	5.642
824.13	5.536
824.43	5.472
824.73	5.362
825.03	5.301
825.33	5.401
825.63	5.392
825.93	5.297
826.23	5.434
826.53	5.338
826.83	5.403
827.13	5.442
827.43	5.485
827.73	5.422
828.03	5.346
828.33	5.110
828.63	4.839
828.93	4.802
829.23	4.828
829.53	4.519
829.83	4.581
830.13	4.052
830.42	3.982
830.72	4.086
831.02	4.375
831.32	4.559
831.62	4.611
831.92	4.620
832.22	4.795
832.52	4.813
832.82	4.860
833.12	4.744
833.42	4.821
833.72	5.049
834.01	4.785
834.31	4.852
834.61	4.683
834.91	4.798
835.21	4.690
835.51	4.295
835.81	4.389
836.11	4.265
836.40	3.946
836.70	4.067
837.00	3.691
837.30	3.902
837.60	3.545
837.90	3.758
838.19	3.385
838.49	3.356
838.79	3.307
839.09	3.016
839.39	2.179
839.68	2.625
839.98	2.348
840.28	2.135
840.58	1.571
840.88	0.867
841.17	-0.015
841.47	0.011
841.77	0.511
842.07	0.459
842.36	-0.019
842.66	0.608
842.96	0.735
843.26	-0.369
843.55	-0.930
843.85	-1.085
844.15	-1.331
844.45	-0.093
844.74	-0.198
845.04	-1.811
845.34	-2.544
845.63	-2.989
845.93	-2.887
846.23	-3.328
846.53	-1.917
846.82	-1.933
847.12	-2.068
847.42	-2.484
847.71	-4.533
848.01	-5.189
848.31	-3.856
848.60	-4.014
848.90	-5.694
849.19	-6.144
849.49	-6.841
849.79	-7.782
850.08	-6.714
850.38	-6.622
850.68	-5.727
850.97	-4.766
851.27	-4.757
851.56	-6.500
851.86	-7.641
852.16	-5.212
852.45	-4.750
852.75	-4.204
853.04	-3.910
853.34	-4.467
853.64	-5.526
853.93	-6.014
854.23	-6.269
854.52	-6.201
854.82	-3.451
855.11	-1.613
855.41	-1.372
855.70	-1.453
856.00	-1.123
856.30	-1.073
856.59	-0.852
856.89	1.274
857.18	2.399
857.48	3.839
857.77	2.118
858.07	-0.127
858.36	-0.970
858.66	-2.592
858.95	-2.164
859.25	-2.891
859.54	-3.593
859.84	-4.050
860.13	-4.146
860.42	-3.586
860.72	-3.363
861.01	-2.051
861.31	-1.838
861.60	-0.210
861.90	-1.770
862.19	-3.112
862.49	-3.568
862.78	-0.751
863.07	-1.118
863.37	-3.536
863.66	-4.594
863.96	-4.022
864.25	-4.047
864.54	-2.891
864.84	-4.323
865.13	-3.210
865.43	-3.587
865.72	-8.316
866.01	4.101
866.31	-10.040
866.60	-14.702
866.89	-12.646
>>>>>End Spectral Data<<<<<
