OOIBase32 Version 2.0.0.6 Data File
++++++++++++++++++++++++++++++++++++
Date: 01-22-2012, 12:51:03
User: Valued Ocean Optics Customer
Spectrometer Serial Number: USB2E2917
Spectrometer Channel: Master
Integration Time (msec): 5
Spectra Averaged: 10
Boxcar Smoothing: 5
Correct for Electrical Dark: Enabled
Time Normalized: Disabled
Dual-beam Reference: Disabled
Reference Channel: Master
Temperature: Not acquired
Spectrometer Type: S2000
ADC Type: USB2000
Number of Pixels in File: 2048
Graph Title: 
>>>>>Begin Spectral Data<<<<<
180.30	0.000
180.67	0.000
181.03	66.331
181.40	106.745
181.77	97.638
182.14	138.974
182.51	56.572
182.88	32.555
183.25	200.598
183.62	-23.541
183.99	80.952
184.36	13.356
184.73	25.003
185.10	23.810
185.46	-64.066
185.83	-184.128
186.20	2.158
186.57	55.987
186.94	-1222.184
187.31	135.546
187.68	173.584
188.05	248.129
188.42	109.117
188.78	232.121
189.15	-94.227
189.52	-4.079
189.89	-16.424
190.26	4.449
190.63	16.055
191.00	0.893
191.37	6.068
191.73	2.967
192.10	24.126
192.47	12.934
192.84	30.181
193.21	12.954
193.58	32.442
193.94	28.397
194.31	34.218
194.68	18.381
195.05	-1.288
195.42	-7.532
195.79	13.242
196.15	7.101
196.52	1.195
196.89	-10.671
197.26	8.147
197.63	-11.555
198.00	16.370
198.36	-11.618
198.73	-9.756
199.10	-3.626
199.47	0.608
199.84	-9.371
200.20	5.577
200.57	-9.050
200.94	-2.011
201.31	-22.986
201.68	-22.330
202.04	-33.106
202.41	-12.481
202.78	6.668
203.15	8.176
203.51	-0.041
203.88	-8.583
204.25	-17.212
204.62	-1.537
204.98	-0.534
205.35	7.840
205.72	-8.898
206.09	-11.532
206.46	-0.863
206.82	9.650
207.19	19.563
207.56	25.740
207.92	25.722
208.29	47.393
208.66	44.397
209.03	47.367
209.39	39.301
209.76	37.061
210.13	24.718
210.50	11.659
210.86	2.401
211.23	7.022
211.60	5.196
211.96	8.750
212.33	-3.241
212.70	4.581
213.07	-14.492
213.43	-5.357
213.80	7.278
214.17	11.753
214.53	11.827
214.90	2.119
215.27	-3.207
215.63	-4.667
216.00	-19.666
216.37	-43.927
216.74	-47.465
217.10	-27.054
217.47	-31.847
217.84	-20.824
218.20	-9.626
218.57	-6.176
218.94	0.846
219.30	-2.518
219.67	-5.662
220.04	15.596
220.40	22.107
220.77	21.186
221.13	21.401
221.50	15.859
221.87	8.340
222.23	10.636
222.60	7.171
222.97	9.392
223.33	11.662
223.70	19.071
224.07	10.389
224.43	11.728
224.80	14.298
225.16	13.842
225.53	12.157
225.90	13.151
226.26	9.158
226.63	9.039
226.99	6.684
227.36	5.646
227.73	2.939
228.09	2.926
228.46	2.359
228.82	2.134
229.19	2.024
229.56	3.102
229.92	2.623
230.29	5.661
230.65	6.735
231.02	7.866
231.38	8.884
231.75	10.388
232.12	12.800
232.48	13.356
232.85	12.686
233.21	10.025
233.58	9.293
233.94	8.607
234.31	5.737
234.68	3.864
235.04	3.040
235.41	2.604
235.77	1.048
236.14	-0.250
236.50	-0.229
236.87	-0.365
237.23	-0.004
237.60	-0.249
237.96	-0.058
238.33	0.925
238.69	1.566
239.06	1.487
239.42	0.926
239.79	1.497
240.15	1.672
240.52	1.157
240.88	1.074
241.25	1.541
241.61	2.344
241.98	3.177
242.34	3.238
242.71	3.286
243.07	3.332
243.44	3.871
243.80	3.591
244.17	3.491
244.53	3.771
244.90	3.619
245.26	3.872
245.63	3.775
245.99	3.518
246.36	3.094
246.72	3.214
247.09	3.405
247.45	3.515
247.81	3.918
248.18	3.797
248.54	4.044
248.91	4.205
249.27	3.886
249.64	3.576
250.00	3.074
250.36	3.402
250.73	3.454
251.09	2.799
251.46	2.290
251.82	2.327
252.19	2.724
252.55	1.806
252.91	2.384
253.28	2.069
253.64	2.379
254.01	2.599
254.37	2.136
254.73	2.456
255.10	3.093
255.46	3.181
255.83	2.746
256.19	2.477
256.55	2.768
256.92	2.533
257.28	2.774
257.65	2.615
258.01	2.941
258.37	3.251
258.74	3.137
259.10	2.954
259.46	3.051
259.83	3.156
260.19	3.406
260.55	3.490
260.92	3.542
261.28	3.525
261.64	3.739
262.01	3.538
262.37	3.448
262.73	3.152
263.10	3.424
263.46	2.970
263.82	2.999
264.19	2.640
264.55	2.637
264.91	2.844
265.28	2.979
265.64	3.140
266.00	3.225
266.37	3.437
266.73	3.764
267.09	3.757
267.46	3.906
267.82	3.822
268.18	3.971
268.54	3.854
268.91	3.947
269.27	3.737
269.63	3.764
270.00	3.594
270.36	3.571
270.72	3.421
271.08	3.181
271.45	3.351
271.81	3.548
272.17	3.425
272.53	3.367
272.90	3.099
273.26	3.061
273.62	2.973
273.98	3.004
274.35	2.981
274.71	3.089
275.07	3.305
275.43	3.183
275.80	2.949
276.16	3.100
276.52	3.056
276.88	3.499
277.25	3.662
277.61	3.501
277.97	3.541
278.33	3.538
278.69	3.356
279.06	3.294
279.42	3.203
279.78	3.065
280.14	2.866
280.50	2.922
280.87	2.723
281.23	2.822
281.59	2.811
281.95	2.788
282.31	2.543
282.68	2.695
283.04	2.928
283.40	3.008
283.76	3.141
284.12	3.328
284.48	3.385
284.85	3.217
285.21	3.060
285.57	2.848
285.93	2.772
286.29	2.984
286.65	2.912
287.02	2.798
287.38	2.783
287.74	2.749
288.10	2.651
288.46	2.640
288.82	2.825
289.18	2.736
289.54	3.020
289.91	3.185
290.27	3.202
290.63	3.196
290.99	2.968
291.35	3.034
291.71	3.010
292.07	3.073
292.43	3.168
292.79	3.209
293.16	3.412
293.52	3.605
293.88	3.497
294.24	3.405
294.60	3.404
294.96	3.600
295.32	3.523
295.68	3.675
296.04	3.704
296.40	3.675
296.76	3.689
297.12	3.772
297.49	3.640
297.85	3.613
298.21	3.770
298.57	3.805
298.93	3.724
299.29	3.862
299.65	3.728
300.01	3.735
300.37	3.728
300.73	3.695
301.09	3.459
301.45	3.656
301.81	3.736
302.17	3.541
302.53	3.742
302.89	3.854
303.25	3.834
303.61	3.931
303.97	3.876
304.33	3.949
304.69	3.894
305.05	4.210
305.41	4.181
305.77	4.452
306.13	4.490
306.49	4.270
306.85	4.078
307.21	4.023
307.57	4.093
307.93	4.136
308.29	3.922
308.65	3.974
309.01	3.867
309.37	3.778
309.73	3.501
310.09	3.537
310.45	3.431
310.81	3.660
311.17	3.712
311.53	3.644
311.89	3.711
312.25	3.849
312.61	3.774
312.96	3.709
313.32	3.601
313.68	3.856
314.04	3.873
314.40	4.089
314.76	3.983
315.12	4.010
315.48	4.066
315.84	4.110
316.20	4.154
316.56	4.134
316.92	4.157
317.27	4.127
317.63	3.922
317.99	3.790
318.35	3.743
318.71	3.845
319.07	3.751
319.43	3.730
319.79	3.508
320.15	3.579
320.50	3.553
320.86	3.579
321.22	3.683
321.58	3.859
321.94	4.008
322.30	4.034
322.66	3.918
323.01	3.927
323.37	3.948
323.73	4.126
324.09	4.159
324.45	4.264
324.81	4.210
325.17	4.268
325.52	4.275
325.88	4.322
326.24	4.332
326.60	4.418
326.96	4.550
327.31	4.718
327.67	4.793
328.03	4.829
328.39	4.994
328.75	5.281
329.11	5.472
329.46	5.594
329.82	5.720
330.18	5.950
330.54	6.091
330.90	6.297
331.25	6.300
331.61	6.408
331.97	6.504
332.33	6.615
332.68	6.662
333.04	6.848
333.40	6.904
333.76	7.087
334.11	7.132
334.47	7.320
334.83	7.326
335.19	7.446
335.54	7.458
335.90	7.614
336.26	7.588
336.62	7.625
336.97	7.511
337.33	7.489
337.69	7.417
338.05	7.407
338.40	7.309
338.76	7.299
339.12	7.292
339.48	7.358
339.83	7.457
340.19	7.608
340.55	7.686
340.90	7.801
341.26	7.911
341.62	8.015
341.97	8.180
342.33	8.281
342.69	8.363
343.04	8.387
343.40	8.396
343.76	8.300
344.12	8.267
344.47	8.187
344.83	8.206
345.19	8.099
345.54	7.988
345.90	7.917
346.26	7.889
346.61	7.753
346.97	7.753
347.32	7.787
347.68	7.813
348.04	7.760
348.39	7.743
348.75	7.700
349.11	7.780
349.46	7.785
349.82	7.758
350.18	7.788
350.53	7.937
350.89	7.915
351.24	7.906
351.60	7.912
351.96	7.824
352.31	8.009
352.67	8.090
353.02	8.140
353.38	8.247
353.74	8.312
354.09	8.327
354.45	8.369
354.80	8.384
355.16	8.485
355.52	8.462
355.87	8.712
356.23	8.733
356.58	8.776
356.94	8.800
357.29	8.833
357.65	8.859
358.00	8.822
358.36	8.844
358.72	9.003
359.07	9.003
359.43	9.005
359.78	8.907
360.14	8.898
360.49	8.856
360.85	8.890
361.20	8.872
361.56	8.852
361.91	8.906
362.27	8.873
362.62	8.806
362.98	8.764
363.33	8.727
363.69	8.706
364.04	8.649
364.40	8.672
364.75	8.694
365.11	8.666
365.46	8.691
365.82	8.724
366.17	8.832
366.53	8.916
366.88	8.917
367.24	9.062
367.59	9.136
367.95	9.257
368.30	9.302
368.66	9.359
369.01	9.468
369.37	9.520
369.72	9.573
370.08	9.516
370.43	9.559
370.78	9.656
371.14	9.699
371.49	9.815
371.85	9.862
372.20	9.916
372.56	9.926
372.91	9.972
373.26	9.970
373.62	10.041
373.97	10.150
374.33	10.177
374.68	10.164
375.03	10.148
375.39	10.218
375.74	10.228
376.10	10.285
376.45	10.332
376.80	10.406
377.16	10.610
377.51	10.683
377.87	10.797
378.22	10.903
378.57	11.064
378.93	11.289
379.28	11.417
379.63	11.574
379.99	11.668
380.34	11.832
380.70	12.011
381.05	12.086
381.40	12.192
381.76	12.281
382.11	12.438
382.46	12.514
382.82	12.553
383.17	12.589
383.52	12.621
383.88	12.738
384.23	12.788
384.58	12.802
384.94	12.864
385.29	12.930
385.64	12.970
385.99	12.946
386.35	13.030
386.70	13.088
387.05	13.138
387.41	13.192
387.76	13.310
388.11	13.391
388.47	13.467
388.82	13.524
389.17	13.643
389.52	13.762
389.88	13.881
390.23	14.010
390.58	14.112
390.93	14.244
391.29	14.429
391.64	14.500
391.99	14.594
392.34	14.671
392.70	14.768
393.05	14.813
393.40	14.839
393.75	14.910
394.11	14.919
394.46	14.968
394.81	15.024
395.16	14.992
395.52	14.981
395.87	14.940
396.22	14.955
396.57	14.940
396.92	14.910
397.28	14.951
397.63	14.907
397.98	14.890
398.33	14.865
398.68	14.828
399.04	14.832
399.39	14.851
399.74	14.957
400.09	15.030
400.44	15.098
400.80	15.181
401.15	15.250
401.50	15.381
401.85	15.514
402.20	15.657
402.55	15.805
402.90	15.940
403.26	16.093
403.61	16.182
403.96	16.236
404.31	16.327
404.66	16.423
405.01	16.465
405.36	16.527
405.72	16.572
406.07	16.604
406.42	16.647
406.77	16.715
407.12	16.736
407.47	16.789
407.82	16.888
408.17	16.935
408.53	16.992
408.88	17.079
409.23	17.127
409.58	17.189
409.93	17.254
410.28	17.315
410.63	17.372
410.98	17.446
411.33	17.484
411.68	17.559
412.03	17.698
412.38	17.809
412.73	17.902
413.09	18.064
413.44	18.209
413.79	18.328
414.14	18.407
414.49	18.542
414.84	18.660
415.19	18.817
415.54	18.941
415.89	19.034
416.24	19.139
416.59	19.287
416.94	19.365
417.29	19.456
417.64	19.566
417.99	19.656
418.34	19.735
418.69	19.836
419.04	19.923
419.39	20.008
419.74	20.098
420.09	20.167
420.44	20.200
420.79	20.239
421.14	20.281
421.49	20.329
421.84	20.405
422.19	20.395
422.54	20.399
422.89	20.420
423.24	20.384
423.59	20.353
423.94	20.341
424.29	20.329
424.64	20.332
424.99	20.323
425.34	20.294
425.68	20.265
426.03	20.309
426.38	20.311
426.73	20.321
427.08	20.395
427.43	20.467
427.78	20.544
428.13	20.611
428.48	20.686
428.83	20.764
429.18	20.838
429.53	20.925
429.87	20.987
430.22	21.071
430.57	21.132
430.92	21.158
431.27	21.178
431.62	21.193
431.97	21.224
432.32	21.270
432.67	21.284
433.01	21.311
433.36	21.305
433.71	21.315
434.06	21.333
434.41	21.335
434.76	21.392
435.11	21.453
435.45	21.534
435.80	21.629
436.15	21.675
436.50	21.742
436.85	21.774
437.20	21.841
437.54	21.917
437.89	21.944
438.24	21.977
438.59	22.001
438.94	21.998
439.29	21.974
439.63	21.936
439.98	21.943
440.33	21.917
440.68	21.924
441.03	21.948
441.37	21.968
441.72	22.013
442.07	22.071
442.42	22.109
442.76	22.174
443.11	22.224
443.46	22.261
443.81	22.294
444.16	22.341
444.50	22.350
444.85	22.323
445.20	22.275
445.55	22.220
445.89	22.162
446.24	22.083
446.59	22.013
446.94	21.940
447.28	21.870
447.63	21.766
447.98	21.683
448.32	21.641
448.67	21.586
449.02	21.603
449.37	21.587
449.71	21.588
450.06	21.632
450.41	21.648
450.75	21.689
451.10	21.721
451.45	21.750
451.79	21.763
452.14	21.801
452.49	21.836
452.84	21.838
453.18	21.893
453.53	21.920
453.88	21.970
454.22	22.007
454.57	22.078
454.92	22.184
455.26	22.316
455.61	22.427
455.95	22.537
456.30	22.666
456.65	22.781
456.99	22.871
457.34	22.977
457.69	23.037
458.03	23.103
458.38	23.132
458.73	23.131
459.07	23.120
459.42	23.108
459.76	23.080
460.11	23.017
460.46	22.979
460.80	22.928
461.15	22.848
461.49	22.818
461.84	22.835
462.19	22.845
462.53	22.902
462.88	22.960
463.22	23.033
463.57	23.094
463.91	23.181
464.26	23.213
464.61	23.307
464.95	23.414
465.30	23.481
465.64	23.513
465.99	23.531
466.33	23.560
466.68	23.532
467.02	23.527
467.37	23.514
467.71	23.514
468.06	23.552
468.41	23.512
468.75	23.515
469.10	23.498
469.44	23.476
469.79	23.509
470.13	23.476
470.48	23.501
470.82	23.537
471.17	23.557
471.51	23.534
471.86	23.501
472.20	23.483
472.55	23.471
472.89	23.494
473.23	23.508
473.58	23.505
473.92	23.559
474.27	23.623
474.61	23.597
474.96	23.604
475.30	23.642
475.65	23.681
475.99	23.750
476.34	23.796
476.68	23.817
477.02	23.876
477.37	23.945
477.71	24.023
478.06	24.134
478.40	24.435
478.75	24.892
479.09	25.384
479.43	26.020
479.78	26.791
480.12	27.526
480.47	28.287
480.81	29.031
481.15	29.756
481.50	30.487
481.84	31.317
482.19	32.148
482.53	32.864
482.87	33.316
483.22	33.388
483.56	33.082
483.90	32.608
484.25	31.983
484.59	31.266
484.94	30.454
485.28	29.588
485.62	28.707
485.97	27.852
486.31	27.060
486.65	26.550
487.00	26.276
487.34	26.210
487.68	26.246
488.03	26.357
488.37	26.520
488.71	26.731
489.06	26.957
489.40	27.032
489.74	27.029
490.09	27.013
490.43	26.917
490.77	26.804
491.11	26.727
491.46	26.628
491.80	26.537
492.14	26.438
492.49	26.338
492.83	26.241
493.17	26.165
493.51	26.077
493.86	26.022
494.20	26.011
494.54	26.071
494.88	26.132
495.23	26.235
495.57	26.353
495.91	26.431
496.25	26.525
496.60	26.604
496.94	26.686
497.28	26.748
497.62	26.798
497.97	26.863
498.31	26.929
498.65	27.007
498.99	27.071
499.33	27.127
499.68	27.237
500.02	27.334
500.36	27.449
500.70	27.534
501.04	27.654
501.39	27.789
501.73	27.930
502.07	28.066
502.41	28.156
502.75	28.289
503.09	28.451
503.44	28.594
503.78	28.740
504.12	28.896
504.46	29.081
504.80	29.257
505.14	29.415
505.49	29.596
505.83	29.747
506.17	29.899
506.51	30.034
506.85	30.188
507.19	30.316
507.53	30.445
507.87	30.558
508.22	30.665
508.56	30.780
508.90	30.913
509.24	31.021
509.58	31.149
509.92	31.261
510.26	31.392
510.60	31.492
510.94	31.622
511.28	31.730
511.63	31.832
511.97	31.939
512.31	32.058
512.65	32.170
512.99	32.305
513.33	32.452
513.67	32.650
514.01	32.868
514.35	33.051
514.69	33.249
515.03	33.447
515.37	33.613
515.71	33.812
516.05	33.952
516.39	34.101
516.73	34.242
517.07	34.359
517.41	34.453
517.75	34.479
518.09	34.520
518.43	34.515
518.77	34.538
519.11	34.550
519.45	34.545
519.79	34.586
520.13	34.598
520.47	34.620
520.81	34.675
521.15	34.749
521.49	34.876
521.83	35.014
522.17	35.170
522.51	35.350
522.85	35.555
523.19	35.855
523.53	36.228
523.87	36.669
524.21	37.081
524.55	37.494
524.89	37.904
525.23	38.311
525.57	38.692
525.91	39.095
526.25	39.460
526.58	39.832
526.92	40.076
527.26	40.129
527.60	39.957
527.94	39.814
528.28	39.646
528.62	39.468
528.96	39.299
529.30	39.118
529.64	38.847
529.97	38.570
530.31	38.239
530.65	37.973
530.99	37.881
531.33	38.043
531.67	38.148
532.01	38.246
532.35	38.283
532.68	38.227
533.02	38.151
533.36	38.113
533.70	38.033
534.04	37.987
534.38	37.920
534.71	37.828
535.05	37.742
535.39	37.655
535.73	37.618
536.07	37.644
536.41	37.730
536.74	37.838
537.08	37.966
537.42	38.154
537.76	38.344
538.10	38.559
538.43	38.771
538.77	38.943
539.11	39.122
539.45	39.281
539.79	39.383
540.12	39.447
540.46	39.470
540.80	39.453
541.14	39.397
541.47	39.313
541.81	39.220
542.15	39.106
542.49	38.972
542.82	38.825
543.16	38.648
543.50	38.491
543.84	38.379
544.17	38.281
544.51	38.221
544.85	38.159
545.18	38.125
545.52	38.050
545.86	38.008
546.20	37.945
546.53	37.896
546.87	37.820
547.21	37.749
547.54	37.683
547.88	37.634
548.22	37.611
548.55	37.603
548.89	37.568
549.23	37.528
549.56	37.513
549.90	37.513
550.24	37.518
550.57	37.559
550.91	37.598
551.25	37.609
551.58	37.637
551.92	37.645
552.26	37.682
552.59	37.674
552.93	37.715
553.27	37.689
553.60	37.734
553.94	37.768
554.27	37.770
554.61	37.811
554.95	37.817
555.28	37.806
555.62	37.805
555.95	37.795
556.29	37.839
556.63	37.842
556.96	37.877
557.30	37.868
557.63	37.852
557.97	37.818
558.31	37.773
558.64	37.791
558.98	37.803
559.31	37.779
559.65	37.772
559.98	37.768
560.32	37.796
560.65	37.835
560.99	37.859
561.33	37.852
561.66	37.907
562.00	37.955
562.33	37.941
562.67	37.963
563.00	38.003
563.34	38.032
563.67	38.040
564.01	38.057
564.34	38.071
564.68	38.109
565.01	38.150
565.35	38.148
565.68	38.091
566.02	38.086
566.35	38.074
566.69	38.074
567.02	38.047
567.36	38.063
567.69	38.054
568.03	38.039
568.36	37.986
568.69	37.939
569.03	37.893
569.36	37.898
569.70	37.924
570.03	37.948
570.37	37.936
570.70	37.906
571.04	37.862
571.37	37.823
571.70	37.736
572.04	37.687
572.37	37.616
572.71	37.591
573.04	37.571
573.37	37.500
573.71	37.395
574.04	37.283
574.38	37.168
574.71	37.067
575.04	36.949
575.38	36.828
575.71	36.733
576.05	36.635
576.38	36.525
576.71	36.368
577.05	36.214
577.38	36.081
577.71	35.951
578.05	35.840
578.38	35.714
578.71	35.586
579.05	35.467
579.38	35.309
579.71	35.165
580.05	35.068
580.38	34.938
580.71	34.835
581.05	34.706
581.38	34.564
581.71	34.413
582.05	34.282
582.38	34.171
582.71	34.077
583.04	33.998
583.38	33.964
583.71	33.862
584.04	33.801
584.38	33.716
584.71	33.692
585.04	33.710
585.37	33.787
585.71	33.833
586.04	33.844
586.37	33.907
586.70	33.929
587.04	33.914
587.37	33.921
587.70	33.903
588.03	33.830
588.37	33.696
588.70	33.540
589.03	33.420
589.36	33.266
589.69	33.151
590.03	33.028
590.36	32.798
590.69	32.631
591.02	32.450
591.35	32.266
591.69	32.210
592.02	32.172
592.35	32.170
592.68	32.062
593.01	31.985
593.35	31.896
593.68	31.792
594.01	31.844
594.34	31.802
594.67	31.730
595.00	31.693
595.34	31.544
595.67	31.381
596.00	31.190
596.33	30.988
596.66	30.724
596.99	30.480
597.32	30.245
597.65	29.876
597.99	29.571
598.32	29.314
598.65	29.050
598.98	28.821
599.31	28.682
599.64	28.612
599.97	28.562
600.30	28.639
600.63	28.684
600.96	28.708
601.30	28.791
601.63	28.822
601.96	28.845
602.29	28.824
602.62	28.806
602.95	28.749
603.28	28.621
603.61	28.496
603.94	28.258
604.27	28.055
604.60	27.851
604.93	27.616
605.26	27.458
605.59	27.221
605.92	27.027
606.25	26.860
606.58	26.724
606.91	26.596
607.24	26.469
607.57	26.449
607.90	26.391
608.23	26.258
608.56	26.114
608.89	25.858
609.22	25.653
609.55	25.389
609.88	25.096
610.21	24.724
610.54	24.364
610.87	23.985
611.20	23.562
611.53	23.141
611.86	22.732
612.19	22.426
612.52	22.191
612.85	21.975
613.18	21.817
613.51	21.669
613.84	21.558
614.17	21.387
614.49	21.322
614.82	21.198
615.15	21.042
615.48	20.979
615.81	20.847
616.14	20.733
616.47	20.579
616.80	20.479
617.13	20.323
617.46	20.145
617.78	20.043
618.11	19.895
618.44	19.744
618.77	19.588
619.10	19.415
619.43	19.240
619.76	19.150
620.09	19.009
620.41	18.874
620.74	18.796
621.07	18.784
621.40	18.793
621.73	18.868
622.06	18.987
622.38	19.157
622.71	19.351
623.04	19.615
623.37	19.724
623.70	19.936
624.02	20.087
624.35	20.245
624.68	20.387
625.01	20.466
625.34	20.463
625.66	20.480
625.99	20.433
626.32	20.372
626.65	20.185
626.98	20.027
627.30	19.802
627.63	19.563
627.96	19.313
628.29	19.009
628.61	18.688
628.94	18.427
629.27	18.088
629.60	17.845
629.92	17.542
630.25	17.281
630.58	17.087
630.91	16.940
631.23	16.785
631.56	16.645
631.89	16.475
632.21	16.363
632.54	16.147
632.87	15.966
633.19	15.672
633.52	15.438
633.85	15.257
634.18	14.911
634.50	14.531
634.83	14.187
635.16	13.774
635.48	13.436
635.81	13.055
636.14	12.711
636.46	12.298
636.79	11.961
637.11	11.579
637.44	11.183
637.77	10.917
638.09	10.738
638.42	10.509
638.75	10.270
639.07	9.948
639.40	9.617
639.73	9.329
640.05	9.163
640.38	8.983
640.70	8.831
641.03	8.724
641.36	8.647
641.68	8.515
642.01	8.418
642.33	8.384
642.66	8.522
642.98	8.689
643.31	8.846
643.64	8.981
643.96	9.141
644.29	9.350
644.61	9.487
644.94	9.596
645.26	9.661
645.59	9.771
645.91	9.801
646.24	9.859
646.56	9.832
646.89	9.789
647.22	9.661
647.54	9.583
647.87	9.327
648.19	9.228
648.52	9.000
648.84	8.877
649.17	8.665
649.49	8.585
649.82	8.298
650.14	8.068
650.47	7.872
650.79	7.703
651.11	7.452
651.44	7.302
651.76	7.088
652.09	7.013
652.41	6.777
652.74	6.733
653.06	6.593
653.39	6.482
653.71	6.427
654.04	6.497
654.36	6.662
654.68	6.800
655.01	6.925
655.33	6.954
655.66	7.051
655.98	7.154
656.30	7.195
656.63	7.204
656.95	7.172
657.28	7.083
657.60	6.876
657.92	6.511
658.25	6.052
658.57	5.621
658.90	5.198
659.22	4.504
659.54	3.837
659.87	2.987
660.19	2.196
660.51	1.436
660.84	0.586
661.16	-0.290
661.48	-1.089
661.81	-1.748
662.13	-2.387
662.45	-2.936
662.78	-3.386
663.10	-3.812
663.42	-4.103
663.75	-4.383
664.07	-4.608
664.39	-4.710
664.72	-4.816
665.04	-4.823
665.36	-4.825
665.69	-4.886
666.01	-5.040
666.33	-5.102
666.65	-5.173
666.98	-5.293
667.30	-5.419
667.62	-5.539
667.94	-5.708
668.27	-5.976
668.59	-6.350
668.91	-6.679
669.23	-7.165
669.56	-7.515
669.88	-7.741
670.20	-8.109
670.52	-8.453
670.85	-8.830
671.17	-9.181
671.49	-9.743
671.81	-10.122
672.13	-10.515
672.46	-10.866
672.78	-11.073
673.10	-11.389
673.42	-11.559
673.74	-11.741
674.07	-11.788
674.39	-11.797
674.71	-11.687
675.03	-11.194
675.35	-10.827
675.67	-10.324
676.00	-9.913
676.32	-9.299
676.64	-8.690
676.96	-8.240
677.28	-7.644
677.60	-7.220
677.92	-6.794
678.25	-6.526
678.57	-6.365
678.89	-6.206
679.21	-6.116
679.53	-6.053
679.85	-6.167
680.17	-6.339
680.49	-6.647
680.81	-6.899
681.13	-7.198
681.46	-7.391
681.78	-7.541
682.10	-7.560
682.42	-7.424
682.74	-7.186
683.06	-6.977
683.38	-6.584
683.70	-5.974
684.02	-5.155
684.34	-4.318
684.66	-3.395
684.98	-2.638
685.30	-1.977
685.62	-1.536
685.94	-1.171
686.26	-0.935
686.58	-0.696
686.90	-0.723
687.22	-0.938
687.54	-1.327
687.86	-1.891
688.18	-2.478
688.50	-3.122
688.82	-3.807
689.14	-4.439
689.46	-5.139
689.78	-5.795
690.10	-6.603
690.42	-7.195
690.74	-7.735
691.06	-8.187
691.38	-8.748
691.70	-9.211
692.02	-9.827
692.34	-10.264
692.66	-10.646
692.98	-11.042
693.30	-11.140
693.62	-10.749
693.94	-10.258
694.26	-9.830
694.57	-9.315
694.89	-8.524
695.21	-7.671
695.53	-6.706
695.85	-5.789
696.17	-4.947
696.49	-4.207
696.81	-3.589
697.13	-3.276
697.44	-3.102
697.76	-3.020
698.08	-3.220
698.40	-3.612
698.72	-4.373
699.04	-5.279
699.36	-6.599
699.67	-8.060
699.99	-9.611
700.31	-11.531
700.63	-13.442
700.95	-15.567
701.27	-17.567
701.58	-19.433
701.90	-21.126
702.22	-22.521
702.54	-23.753
702.86	-24.424
703.17	-25.118
703.49	-25.764
703.81	-26.050
704.13	-26.372
704.45	-26.497
704.76	-26.730
705.08	-26.697
705.40	-26.592
705.72	-26.376
706.03	-26.034
706.35	-26.002
706.67	-25.659
706.99	-25.181
707.30	-25.007
707.62	-24.759
707.94	-24.675
708.26	-24.350
708.57	-24.091
708.89	-23.663
709.21	-23.313
709.53	-23.191
709.84	-22.728
710.16	-22.482
710.48	-22.280
710.79	-21.803
711.11	-21.268
711.43	-20.427
711.74	-19.708
712.06	-18.851
712.38	-17.921
712.69	-17.012
713.01	-15.803
713.33	-14.602
713.64	-13.398
713.96	-12.013
714.28	-10.703
714.59	-9.601
714.91	-8.344
715.23	-7.208
715.54	-6.195
715.86	-5.571
716.17	-5.053
716.49	-4.888
716.81	-4.955
717.12	-5.032
717.44	-5.465
717.76	-5.884
718.07	-6.525
718.39	-7.563
718.70	-8.599
719.02	-9.684
719.33	-10.803
719.65	-11.848
719.97	-12.546
720.28	-13.106
720.60	-13.682
720.91	-13.670
721.23	-14.012
721.54	-13.713
721.86	-13.468
722.17	-13.048
722.49	-12.759
722.81	-12.062
723.12	-11.408
723.44	-10.843
723.75	-10.210
724.07	-9.526
724.38	-9.165
724.70	-8.676
725.01	-8.514
725.33	-8.139
725.64	-7.941
725.96	-7.665
726.27	-7.567
726.59	-7.407
726.90	-7.229
727.22	-7.278
727.53	-7.574
727.84	-7.679
728.16	-7.935
728.47	-8.366
728.79	-9.005
729.10	-9.528
729.42	-9.961
729.73	-10.660
730.05	-11.655
730.36	-12.684
730.67	-13.771
730.99	-14.887
731.30	-16.324
731.62	-17.510
731.93	-18.657
732.24	-19.791
732.56	-21.195
732.87	-22.667
733.19	-24.020
733.50	-25.233
733.81	-26.527
734.13	-27.631
734.44	-28.578
734.76	-29.778
735.07	-31.119
735.38	-31.949
735.70	-32.900
736.01	-33.525
736.32	-34.088
736.64	-35.056
736.95	-35.560
737.26	-36.337
737.58	-37.332
737.89	-38.334
738.20	-39.354
738.52	-39.796
738.83	-40.962
739.14	-42.284
739.45	-43.782
739.77	-45.861
740.08	-47.457
740.39	-49.426
740.71	-51.321
741.02	-52.934
741.33	-54.748
741.64	-55.811
741.96	-57.947
742.27	-59.881
742.58	-61.309
742.90	-62.755
743.21	-64.201
743.52	-65.112
743.83	-66.027
744.14	-66.830
744.46	-67.867
744.77	-67.741
745.08	-67.805
745.39	-67.963
745.71	-67.489
746.02	-67.147
746.33	-66.851
746.64	-65.887
746.95	-65.005
747.27	-64.335
747.58	-63.839
747.89	-62.962
748.20	-62.771
748.51	-63.141
748.82	-63.201
749.14	-62.973
749.45	-63.005
749.76	-63.218
750.07	-62.930
750.38	-63.521
750.69	-63.881
751.01	-64.089
751.32	-64.414
751.63	-64.837
751.94	-65.290
752.25	-65.422
752.56	-66.310
752.87	-66.411
753.18	-65.973
753.49	-66.136
753.81	-65.666
754.12	-64.012
754.43	-61.488
754.74	-58.288
755.05	-54.561
755.36	-49.630
755.67	-44.536
755.98	-38.931
756.29	-33.429
756.60	-27.764
756.91	-22.261
757.22	-16.840
757.53	-12.074
757.84	-7.817
758.15	-3.821
758.46	-0.267
758.77	2.603
759.09	4.934
759.40	6.675
759.71	7.956
760.02	8.747
760.33	9.449
760.64	9.743
760.95	9.880
761.26	9.661
761.57	9.231
761.88	8.606
762.18	7.741
762.49	6.872
762.80	5.924
763.11	4.749
763.42	3.279
763.73	1.483
764.04	-0.624
764.35	-3.239
764.66	-6.383
764.97	-10.145
765.28	-14.059
765.59	-18.474
765.90	-23.684
766.21	-29.448
766.52	-35.737
766.83	-41.980
767.14	-48.097
767.44	-54.541
767.75	-60.573
768.06	-65.691
768.37	-70.246
768.68	-75.888
768.99	-80.215
769.30	-84.494
769.61	-89.383
769.91	-92.373
770.22	-94.991
770.53	-98.135
770.84	-99.769
771.15	-102.519
771.46	-105.808
771.77	-108.158
772.07	-109.061
772.38	-112.322
772.69	-115.442
773.00	-115.634
773.31	-116.710
773.61	-119.597
773.92	-121.205
774.23	-123.062
774.54	-123.183
774.85	-122.939
775.15	-123.624
775.46	-123.497
775.77	-121.593
776.08	-120.923
776.39	-120.608
776.69	-121.921
777.00	-120.351
777.31	-120.405
777.62	-120.395
777.92	-119.219
778.23	-118.598
778.54	-117.755
778.85	-118.318
779.15	-119.850
779.46	-119.738
779.77	-121.225
780.07	-120.481
780.38	-120.954
780.69	-121.222
781.00	-120.755
781.30	-121.412
781.61	-121.764
781.92	-121.210
782.22	-119.399
782.53	-116.961
782.84	-114.667
783.14	-111.642
783.45	-107.613
783.76	-103.314
784.06	-98.143
784.37	-92.521
784.68	-86.852
784.98	-81.463
785.29	-76.234
785.60	-71.731
785.90	-67.508
786.21	-63.288
786.51	-59.469
786.82	-56.600
787.13	-54.303
787.43	-52.285
787.74	-51.441
788.04	-50.732
788.35	-50.578
788.66	-50.429
788.96	-50.682
789.27	-52.051
789.57	-54.202
789.88	-55.462
790.19	-56.683
790.49	-57.916
790.80	-59.712
791.10	-60.175
791.41	-60.846
791.71	-61.498
792.02	-62.112
792.32	-62.435
792.63	-61.468
792.93	-59.148
793.24	-57.417
793.54	-56.261
793.85	-54.993
794.15	-52.432
794.46	-51.069
794.76	-49.698
795.07	-48.044
795.37	-47.084
795.68	-45.561
795.98	-44.414
796.29	-44.145
796.59	-44.465
796.90	-43.762
797.20	-43.308
797.51	-43.129
797.81	-43.851
798.12	-44.222
798.42	-44.557
798.72	-44.681
799.03	-45.968
799.33	-46.395
799.64	-45.932
799.94	-46.017
800.25	-46.714
800.55	-47.246
800.85	-48.548
801.16	-48.958
801.46	-49.920
801.77	-50.138
802.07	-49.484
802.37	-48.789
802.68	-48.447
802.98	-49.535
803.28	-49.552
803.59	-50.738
803.89	-51.120
804.20	-51.068
804.50	-49.930
804.80	-48.880
805.11	-48.335
805.41	-49.175
805.71	-48.524
806.02	-48.961
806.32	-49.062
806.62	-48.521
806.93	-46.693
807.23	-45.823
807.53	-45.150
807.83	-45.231
808.14	-44.467
808.44	-44.135
808.74	-41.701
809.05	-41.701
809.35	-39.846
809.65	-37.195
809.95	-35.389
810.26	-34.155
810.56	-31.923
810.86	-29.991
811.16	-27.639
811.47	-25.678
811.77	-23.780
812.07	-23.076
812.37	-20.695
812.68	-19.264
812.98	-17.050
813.28	-15.401
813.58	-13.924
813.88	-12.659
814.19	-11.333
814.49	-10.320
814.79	-8.851
815.09	-7.796
815.39	-6.267
815.70	-5.683
816.00	-4.980
816.30	-4.398
816.60	-3.575
816.90	-2.444
817.20	-1.107
817.50	1.084
817.81	3.660
818.11	5.541
818.41	7.875
818.71	9.240
819.01	10.678
819.31	11.762
819.61	12.724
819.92	13.377
820.22	13.905
820.52	14.318
820.82	14.705
821.12	14.967
821.42	15.194
821.72	15.178
822.02	15.296
822.32	15.250
822.62	15.219
822.92	14.985
823.22	14.805
823.52	14.651
823.83	14.443
824.13	14.127
824.43	13.744
824.73	13.312
825.03	12.940
825.33	12.602
825.63	12.362
825.93	11.970
826.23	11.775
826.53	11.381
826.83	10.872
827.13	10.451
827.43	10.077
827.73	9.618
828.03	9.070
828.33	8.275
828.63	7.296
828.93	6.379
829.23	5.398
829.53	4.264
829.83	3.693
830.13	3.270
830.42	2.924
830.72	2.773
831.02	2.852
831.32	3.450
831.62	4.055
831.92	4.527
832.22	4.972
832.52	5.545
832.82	5.843
833.12	5.752
833.42	5.845
833.72	5.954
834.01	5.623
834.31	4.879
834.61	3.563
834.91	2.487
835.21	1.493
835.51	-0.078
835.81	-2.049
836.11	-3.921
836.40	-6.003
836.70	-8.811
837.00	-11.763
837.30	-14.893
837.60	-15.922
837.90	-16.454
838.19	-17.854
838.49	-19.446
838.79	-21.176
839.09	-21.202
839.39	-22.631
839.68	-22.917
839.98	-23.814
840.28	-24.984
840.58	-25.568
840.88	-28.024
841.17	-30.124
841.47	-33.665
841.77	-35.972
842.07	-38.758
842.36	-45.336
842.66	-50.622
842.96	-60.213
843.26	-71.341
843.55	-81.259
843.85	-88.967
844.15	-95.814
844.45	-106.888
844.74	-107.892
845.04	-124.584
845.34	-131.491
845.63	-137.520
845.93	-147.689
846.23	-151.656
846.53	-139.164
846.82	-137.840
847.12	-137.761
847.42	-143.173
847.71	-141.451
848.01	-155.243
848.31	-148.165
848.60	-148.301
848.90	-148.632
849.19	-144.169
849.49	-136.692
849.79	-136.845
850.08	-135.467
850.38	-145.971
850.68	-142.675
850.97	-138.712
851.27	-131.496
851.56	-125.535
851.86	-130.571
852.16	-123.359
852.45	-123.937
852.75	-125.886
853.04	-129.358
853.34	-133.455
853.64	-131.510
853.93	-130.786
854.23	-135.304
854.52	-135.832
854.82	-130.830
855.11	-127.838
855.41	-132.398
855.70	-130.476
856.00	-131.094
856.30	-138.803
856.59	-139.452
856.89	-129.710
857.18	-127.376
857.48	-128.085
857.77	-120.321
858.07	-126.749
858.36	-120.688
858.66	-128.946
858.95	-118.610
859.25	-112.183
859.54	-97.948
859.84	-97.776
860.13	-105.034
860.42	-107.697
860.72	-103.315
861.01	-110.581
861.31	-107.792
861.60	-106.055
861.90	-95.142
862.19	-100.912
862.49	-99.149
862.78	-101.681
863.07	-98.083
863.37	-89.006
863.66	-88.194
863.96	-82.987
864.25	-78.164
864.54	-75.611
864.84	-71.447
865.13	-71.681
865.43	-68.063
865.72	-70.464
866.01	-82.533
866.31	-34.410
866.60	-82.254
866.89	-53.187
>>>>>End Spectral Data<<<<<
