OOIBase32 Version 2.0.0.6 Data File
++++++++++++++++++++++++++++++++++++
Date: 01-22-2012, 12:51:49
User: Valued Ocean Optics Customer
Spectrometer Serial Number: USB2E2917
Spectrometer Channel: Master
Integration Time (msec): 5
Spectra Averaged: 10
Boxcar Smoothing: 5
Correct for Electrical Dark: Enabled
Time Normalized: Disabled
Dual-beam Reference: Disabled
Reference Channel: Master
Temperature: Not acquired
Spectrometer Type: S2000
ADC Type: USB2000
Number of Pixels in File: 2048
Graph Title: 
>>>>>Begin Spectral Data<<<<<
180.30	0.000
180.67	0.000
181.03	-3.420
181.40	-10.894
181.77	4.833
182.14	108.488
182.51	18.549
182.88	80.026
183.25	-281.903
183.62	137.043
183.99	-122.849
184.36	19.330
184.73	72.191
185.10	134.334
185.46	-16.485
185.83	150.062
186.20	38.400
186.57	-93.048
186.94	-3482.688
187.31	95.585
187.68	231.408
188.05	-71.900
188.42	-77.566
188.78	-110.464
189.15	360.784
189.52	194.509
189.89	138.782
190.26	94.857
190.63	61.610
191.00	34.882
191.37	24.059
191.73	23.868
192.10	25.184
192.47	22.630
192.84	27.007
193.21	35.468
193.58	24.201
193.94	26.527
194.31	33.554
194.68	46.235
195.05	52.101
195.42	44.507
195.79	48.571
196.15	50.403
196.52	51.316
196.89	33.298
197.26	31.438
197.63	36.836
198.00	24.749
198.36	8.789
198.73	7.764
199.10	5.032
199.47	29.963
199.84	4.228
200.20	-7.078
200.57	-8.154
200.94	9.937
201.31	-10.421
201.68	16.759
202.04	15.832
202.41	12.283
202.78	12.644
203.15	10.460
203.51	-0.902
203.88	9.046
204.25	8.365
204.62	8.579
204.98	11.876
205.35	22.127
205.72	-0.230
206.09	2.214
206.46	21.650
206.82	22.338
207.19	25.901
207.56	25.251
207.92	28.600
208.29	28.763
208.66	30.634
209.03	31.098
209.39	26.838
209.76	30.453
210.13	16.154
210.50	4.238
210.86	-0.831
211.23	-4.216
211.60	-9.511
211.96	-13.069
212.33	-13.560
212.70	-14.111
213.07	-31.537
213.43	-18.662
213.80	-20.948
214.17	-11.351
214.53	-4.159
214.90	-9.547
215.27	-9.185
215.63	-1.750
216.00	-13.717
216.37	-26.463
216.74	-27.150
217.10	-7.740
217.47	-10.999
217.84	-2.061
218.20	2.847
218.57	-0.972
218.94	17.743
219.30	17.845
219.67	9.687
220.04	24.553
220.40	27.126
220.77	33.841
221.13	25.250
221.50	21.093
221.87	24.574
222.23	28.746
222.60	27.204
222.97	20.926
223.33	22.117
223.70	25.477
224.07	22.639
224.43	25.358
224.80	23.271
225.16	22.322
225.53	17.473
225.90	14.482
226.26	11.673
226.63	11.705
226.99	10.260
227.36	11.637
227.73	10.041
228.09	8.592
228.46	9.131
228.82	8.890
229.19	10.416
229.56	13.379
229.92	12.414
230.29	12.903
230.65	13.372
231.02	13.450
231.38	11.986
231.75	12.381
232.12	14.375
232.48	14.965
232.85	14.449
233.21	13.412
233.58	11.043
233.94	12.266
234.31	11.701
234.68	11.638
235.04	11.904
235.41	11.051
235.77	8.966
236.14	7.705
236.50	4.617
236.87	4.823
237.23	4.208
237.60	5.209
237.96	4.784
238.33	5.019
238.69	4.287
239.06	4.805
239.42	5.183
239.79	6.286
240.15	7.005
240.52	7.130
240.88	6.883
241.25	6.821
241.61	6.789
241.98	7.358
242.34	7.629
242.71	8.158
243.07	7.917
243.44	8.296
243.80	8.172
244.17	8.021
244.53	8.341
244.90	8.081
245.26	8.340
245.63	8.344
245.99	8.105
246.36	8.026
246.72	8.152
247.09	8.468
247.45	8.762
247.81	8.749
248.18	8.397
248.54	8.452
248.91	8.514
249.27	8.684
249.64	8.886
250.00	8.568
250.36	8.521
250.73	8.368
251.09	7.873
251.46	7.623
251.82	7.261
252.19	7.581
252.55	7.173
252.91	7.592
253.28	7.201
253.64	7.076
254.01	7.443
254.37	7.215
254.73	7.024
255.10	7.575
255.46	6.982
255.83	7.308
256.19	7.274
256.55	7.305
256.92	7.354
257.28	7.403
257.65	7.427
258.01	7.673
258.37	8.055
258.74	8.070
259.10	7.775
259.46	7.809
259.83	7.898
260.19	7.991
260.55	7.958
260.92	7.823
261.28	8.041
261.64	7.999
262.01	7.704
262.37	7.390
262.73	7.460
263.10	7.611
263.46	7.469
263.82	7.345
264.19	6.920
264.55	7.019
264.91	6.910
265.28	6.689
265.64	6.958
266.00	7.151
266.37	7.024
266.73	7.286
267.09	7.389
267.46	7.365
267.82	7.196
268.18	7.702
268.54	7.628
268.91	7.947
269.27	7.994
269.63	7.902
270.00	7.597
270.36	7.540
270.72	7.149
271.08	7.003
271.45	7.430
271.81	7.525
272.17	7.220
272.53	7.203
272.90	6.850
273.26	6.604
273.62	6.666
273.98	6.806
274.35	6.889
274.71	7.176
275.07	7.387
275.43	7.093
275.80	7.180
276.16	7.260
276.52	7.319
276.88	7.888
277.25	8.034
277.61	7.861
277.97	7.677
278.33	7.595
278.69	7.356
279.06	7.170
279.42	7.402
279.78	7.346
280.14	7.352
280.50	7.183
280.87	6.835
281.23	6.961
281.59	6.881
281.95	6.937
282.31	6.789
282.68	6.751
283.04	6.847
283.40	6.779
283.76	7.009
284.12	7.018
284.48	7.146
284.85	7.206
285.21	7.054
285.57	6.854
285.93	6.916
286.29	7.044
286.65	7.042
287.02	7.059
287.38	6.890
287.74	6.875
288.10	6.957
288.46	6.995
288.82	7.190
289.18	7.169
289.54	7.525
289.91	7.608
290.27	7.751
290.63	7.848
290.99	7.620
291.35	7.944
291.71	7.694
292.07	7.692
292.43	7.761
292.79	7.734
293.16	7.940
293.52	8.187
293.88	8.296
294.24	8.331
294.60	8.513
294.96	8.830
295.32	8.715
295.68	8.957
296.04	9.150
296.40	9.251
296.76	9.463
297.12	9.622
297.49	9.609
297.85	9.770
298.21	9.984
298.57	10.097
298.93	10.183
299.29	10.354
299.65	10.468
300.01	10.614
300.37	10.868
300.73	11.073
301.09	11.197
301.45	11.461
301.81	11.398
302.17	11.595
302.53	11.876
302.89	12.068
303.25	12.335
303.61	12.523
303.97	12.604
304.33	12.592
304.69	12.543
305.05	12.692
305.41	12.701
305.77	13.000
306.13	12.878
306.49	12.596
306.85	12.566
307.21	12.484
307.57	12.452
307.93	12.606
308.29	12.675
308.65	12.779
309.01	12.724
309.37	12.650
309.73	12.578
310.09	12.663
310.45	12.683
310.81	12.723
311.17	12.745
311.53	12.853
311.89	12.796
312.25	12.864
312.61	12.625
312.96	12.595
313.32	12.598
313.68	12.741
314.04	12.581
314.40	12.810
314.76	12.596
315.12	12.518
315.48	12.530
315.84	12.528
316.20	12.510
316.56	12.531
316.92	12.562
317.27	12.559
317.63	12.353
317.99	12.390
318.35	12.295
318.71	12.312
319.07	12.239
319.43	12.146
319.79	12.047
320.15	11.938
320.50	12.061
320.86	11.909
321.22	11.786
321.58	11.829
321.94	11.840
322.30	11.736
322.66	11.727
323.01	11.746
323.37	11.550
323.73	11.486
324.09	11.365
324.45	11.109
324.81	11.022
325.17	10.915
325.52	10.721
325.88	10.621
326.24	10.514
326.60	10.506
326.96	10.407
327.31	10.289
327.67	10.158
328.03	10.072
328.39	10.061
328.75	10.022
329.11	10.049
329.46	10.076
329.82	9.998
330.18	9.904
330.54	9.789
330.90	9.752
331.25	9.782
331.61	9.633
331.97	9.562
332.33	9.576
332.68	9.491
333.04	9.592
333.40	9.543
333.76	9.508
334.11	9.509
334.47	9.547
334.83	9.464
335.19	9.511
335.54	9.484
335.90	9.564
336.26	9.443
336.62	9.444
336.97	9.219
337.33	9.136
337.69	9.080
338.05	9.109
338.40	8.991
338.76	9.036
339.12	8.960
339.48	9.041
339.83	9.071
340.19	9.118
340.55	9.125
340.90	9.258
341.26	9.355
341.62	9.422
341.97	9.454
342.33	9.438
342.69	9.465
343.04	9.367
343.40	9.267
343.76	9.144
344.12	9.090
344.47	8.988
344.83	8.876
345.19	8.708
345.54	8.548
345.90	8.440
346.26	8.438
346.61	8.269
346.97	8.187
347.32	8.189
347.68	8.110
348.04	8.035
348.39	8.042
348.75	7.955
349.11	7.966
349.46	7.954
349.82	7.884
350.18	7.817
350.53	7.864
350.89	7.851
351.24	7.749
351.60	7.744
351.96	7.760
352.31	7.756
352.67	7.703
353.02	7.681
353.38	7.660
353.74	7.759
354.09	7.812
354.45	7.763
354.80	7.749
355.16	7.815
355.52	7.768
355.87	7.742
356.23	7.797
356.58	7.858
356.94	7.807
357.29	7.803
357.65	7.768
358.00	7.706
358.36	7.722
358.72	7.726
359.07	7.714
359.43	7.669
359.78	7.633
360.14	7.560
360.49	7.494
360.85	7.465
361.20	7.431
361.56	7.397
361.91	7.418
362.27	7.293
362.62	7.279
362.98	7.174
363.33	7.043
363.69	6.917
364.04	6.856
364.40	6.842
364.75	6.787
365.11	6.766
365.46	6.684
365.82	6.595
366.17	6.678
366.53	6.647
366.88	6.644
367.24	6.743
367.59	6.837
367.95	6.871
368.30	6.862
368.66	6.928
369.01	6.917
369.37	6.896
369.72	6.894
370.08	6.875
370.43	6.873
370.78	6.924
371.14	6.925
371.49	6.925
371.85	6.932
372.20	6.940
372.56	6.891
372.91	6.835
373.26	6.824
373.62	6.763
373.97	6.681
374.33	6.656
374.68	6.558
375.03	6.494
375.39	6.453
375.74	6.381
376.10	6.324
376.45	6.276
376.80	6.281
377.16	6.335
377.51	6.393
377.87	6.422
378.22	6.412
378.57	6.476
378.93	6.541
379.28	6.558
379.63	6.600
379.99	6.625
380.34	6.706
380.70	6.798
381.05	6.770
381.40	6.753
381.76	6.775
382.11	6.808
382.46	6.745
382.82	6.718
383.17	6.667
383.52	6.606
383.88	6.591
384.23	6.490
384.58	6.410
384.94	6.396
385.29	6.372
385.64	6.302
385.99	6.263
386.35	6.253
386.70	6.206
387.05	6.212
387.41	6.165
387.76	6.081
388.11	6.104
388.47	6.061
388.82	6.046
389.17	6.056
389.52	6.056
389.88	6.052
390.23	6.081
390.58	6.115
390.93	6.140
391.29	6.235
391.64	6.304
391.99	6.313
392.34	6.291
392.70	6.249
393.05	6.189
393.40	6.187
393.75	6.124
394.11	6.037
394.46	5.949
394.81	5.871
395.16	5.708
395.52	5.575
395.87	5.448
396.22	5.356
396.57	5.269
396.92	5.155
397.28	5.037
397.63	4.938
397.98	4.829
398.33	4.731
398.68	4.598
399.04	4.512
399.39	4.475
399.74	4.450
400.09	4.471
400.44	4.414
400.80	4.435
401.15	4.448
401.50	4.437
401.85	4.481
402.20	4.490
402.55	4.493
402.90	4.531
403.26	4.542
403.61	4.494
403.96	4.422
404.31	4.375
404.66	4.313
405.01	4.262
405.36	4.240
405.72	4.190
406.07	4.135
406.42	4.095
406.77	4.042
407.12	3.970
407.47	3.958
407.82	3.940
408.17	3.966
408.53	3.940
408.88	3.894
409.23	3.828
409.58	3.796
409.93	3.754
410.28	3.764
410.63	3.739
410.98	3.710
411.33	3.675
411.68	3.679
412.03	3.679
412.38	3.735
412.73	3.765
413.09	3.862
413.44	3.958
413.79	4.072
414.14	4.121
414.49	4.253
414.84	4.387
415.19	4.517
415.54	4.650
415.89	4.772
416.24	4.865
416.59	4.985
416.94	5.060
417.29	5.130
417.64	5.197
417.99	5.278
418.34	5.314
418.69	5.347
419.04	5.396
419.39	5.405
419.74	5.442
420.09	5.461
420.44	5.466
420.79	5.480
421.14	5.467
421.49	5.460
421.84	5.458
422.19	5.431
422.54	5.412
422.89	5.384
423.24	5.333
423.59	5.255
423.94	5.181
424.29	5.094
424.64	4.995
424.99	4.914
425.34	4.830
425.68	4.744
426.03	4.678
426.38	4.600
426.73	4.521
427.08	4.475
427.43	4.444
427.78	4.453
428.13	4.487
428.48	4.529
428.83	4.559
429.18	4.596
429.53	4.599
429.87	4.584
430.22	4.608
430.57	4.608
430.92	4.621
431.27	4.623
431.62	4.600
431.97	4.565
432.32	4.536
432.67	4.495
433.01	4.436
433.36	4.388
433.71	4.350
434.06	4.294
434.41	4.280
434.76	4.278
435.11	4.271
435.45	4.279
435.80	4.317
436.15	4.345
436.50	4.401
436.85	4.435
437.20	4.478
437.54	4.529
437.89	4.547
438.24	4.556
438.59	4.555
438.94	4.529
439.29	4.510
439.63	4.459
439.98	4.427
440.33	4.371
440.68	4.358
441.03	4.362
441.37	4.360
441.72	4.396
442.07	4.438
442.42	4.462
442.76	4.524
443.11	4.585
443.46	4.657
443.81	4.713
444.16	4.748
444.50	4.768
444.85	4.756
445.20	4.736
445.55	4.683
445.89	4.615
446.24	4.520
446.59	4.419
446.94	4.285
447.28	4.143
447.63	3.995
447.98	3.872
448.32	3.772
448.67	3.676
449.02	3.587
449.37	3.515
449.71	3.464
450.06	3.490
450.41	3.492
450.75	3.539
451.10	3.557
451.45	3.552
451.79	3.556
452.14	3.510
452.49	3.480
452.84	3.451
453.18	3.455
453.53	3.461
453.88	3.442
454.22	3.459
454.57	3.496
454.92	3.548
455.26	3.639
455.61	3.729
455.95	3.832
456.30	3.921
456.65	4.030
456.99	4.100
457.34	4.163
457.69	4.210
458.03	4.235
458.38	4.223
458.73	4.184
459.07	4.140
459.42	4.066
459.76	3.974
460.11	3.872
460.46	3.749
460.80	3.611
461.15	3.473
461.49	3.369
461.84	3.276
462.19	3.169
462.53	3.120
462.88	3.072
463.22	3.078
463.57	3.090
463.91	3.123
464.26	3.143
464.61	3.175
464.95	3.197
465.30	3.207
465.64	3.201
465.99	3.209
466.33	3.190
466.68	3.150
467.02	3.094
467.37	3.053
467.71	2.999
468.06	2.952
468.41	2.903
468.75	2.856
469.10	2.798
469.44	2.750
469.79	2.689
470.13	2.650
470.48	2.591
470.82	2.525
471.17	2.478
471.51	2.428
471.86	2.401
472.20	2.372
472.55	2.330
472.89	2.308
473.23	2.278
473.58	2.275
473.92	2.266
474.27	2.293
474.61	2.327
474.96	2.323
475.30	2.337
475.65	2.322
475.99	2.320
476.34	2.340
476.68	2.334
477.02	2.361
477.37	2.408
477.71	2.467
478.06	2.576
478.40	2.767
478.75	3.088
479.09	3.425
479.43	3.767
479.78	4.114
480.12	4.432
480.47	4.748
480.81	5.041
481.15	5.297
481.50	5.557
481.84	5.822
482.19	6.072
482.53	6.262
482.87	6.361
483.22	6.374
483.56	6.293
483.90	6.166
484.25	5.995
484.59	5.799
484.94	5.587
485.28	5.355
485.62	5.104
485.97	4.851
486.31	4.619
486.65	4.449
487.00	4.326
487.34	4.256
487.68	4.197
488.03	4.153
488.37	4.113
488.71	4.094
489.06	4.076
489.40	4.030
489.74	3.967
490.09	3.888
490.43	3.793
490.77	3.679
491.11	3.537
491.46	3.397
491.80	3.251
492.14	3.099
492.49	2.932
492.83	2.756
493.17	2.597
493.51	2.447
493.86	2.280
494.20	2.155
494.54	2.094
494.88	2.097
495.23	2.107
495.57	2.127
495.91	2.154
496.25	2.159
496.60	2.144
496.94	2.116
497.28	2.072
497.62	2.045
497.97	2.004
498.31	1.952
498.65	1.907
498.99	1.882
499.33	1.837
499.68	1.797
500.02	1.756
500.36	1.764
500.70	1.752
501.04	1.743
501.39	1.736
501.73	1.737
502.07	1.746
502.41	1.751
502.75	1.730
503.09	1.745
503.44	1.760
503.78	1.808
504.12	1.818
504.46	1.874
504.80	1.908
505.14	1.962
505.49	1.989
505.83	2.028
506.17	2.053
506.51	2.091
506.85	2.130
507.19	2.161
507.53	2.176
507.87	2.187
508.22	2.177
508.56	2.159
508.90	2.141
509.24	2.156
509.58	2.143
509.92	2.141
510.26	2.122
510.60	2.094
510.94	2.059
511.28	2.027
511.63	2.015
511.97	1.999
512.31	2.007
512.65	2.009
512.99	2.026
513.33	2.081
513.67	2.127
514.01	2.216
514.35	2.313
514.69	2.438
515.03	2.555
515.37	2.643
515.71	2.727
516.05	2.813
516.39	2.873
516.73	2.913
517.07	2.916
517.41	2.920
517.75	2.883
518.09	2.832
518.43	2.735
518.77	2.632
519.11	2.529
519.45	2.418
519.79	2.317
520.13	2.245
520.47	2.178
520.81	2.149
521.15	2.151
521.49	2.197
521.83	2.246
522.17	2.333
522.51	2.453
522.85	2.601
523.19	2.816
523.53	3.052
523.87	3.301
524.21	3.546
524.55	3.763
524.89	3.947
525.23	4.100
525.57	4.260
525.91	4.397
526.25	4.513
526.58	4.624
526.92	4.685
527.26	4.707
527.60	4.661
527.94	4.604
528.28	4.539
528.62	4.460
528.96	4.391
529.30	4.302
529.64	4.203
529.97	4.103
530.31	3.979
530.65	3.866
530.99	3.784
531.33	3.755
531.67	3.723
532.01	3.692
532.35	3.654
532.68	3.584
533.02	3.514
533.36	3.447
533.70	3.370
534.04	3.291
534.38	3.215
534.71	3.124
535.05	3.034
535.39	2.951
535.73	2.868
536.07	2.844
536.41	2.871
536.74	2.930
537.08	3.001
537.42	3.099
537.76	3.219
538.10	3.346
538.43	3.460
538.77	3.564
539.11	3.669
539.45	3.768
539.79	3.831
540.12	3.860
540.46	3.851
540.80	3.823
541.14	3.771
541.47	3.714
541.81	3.635
542.15	3.539
542.49	3.438
542.82	3.317
543.16	3.179
543.50	3.045
543.84	2.924
544.17	2.825
544.51	2.743
544.85	2.668
545.18	2.589
545.52	2.496
545.86	2.409
546.20	2.299
546.53	2.187
546.87	2.070
547.21	1.974
547.54	1.883
547.88	1.783
548.22	1.708
548.55	1.654
548.89	1.592
549.23	1.566
549.56	1.549
549.90	1.549
550.24	1.534
550.57	1.558
550.91	1.551
551.25	1.541
551.58	1.542
551.92	1.529
552.26	1.500
552.59	1.449
552.93	1.400
553.27	1.354
553.60	1.318
553.94	1.296
554.27	1.276
554.61	1.257
554.95	1.225
555.28	1.182
555.62	1.165
555.95	1.150
556.29	1.146
556.63	1.164
556.96	1.160
557.30	1.158
557.63	1.173
557.97	1.134
558.31	1.100
558.64	1.084
558.98	1.076
559.31	1.053
559.65	1.026
559.98	1.044
560.32	1.009
560.65	1.000
560.99	1.006
561.33	1.006
561.66	1.052
562.00	1.096
562.33	1.154
562.67	1.228
563.00	1.290
563.34	1.350
563.67	1.382
564.01	1.447
564.34	1.496
564.68	1.515
565.01	1.523
565.35	1.519
565.68	1.499
566.02	1.478
566.35	1.441
566.69	1.429
567.02	1.416
567.36	1.407
567.69	1.377
568.03	1.367
568.36	1.366
568.69	1.343
569.03	1.327
569.36	1.322
569.70	1.333
570.03	1.333
570.37	1.319
570.70	1.286
571.04	1.246
571.37	1.198
571.70	1.138
572.04	1.059
572.37	1.001
572.71	0.937
573.04	0.865
573.37	0.760
573.71	0.653
574.04	0.501
574.38	0.381
574.71	0.235
575.04	0.079
575.38	-0.106
575.71	-0.287
576.05	-0.460
576.38	-0.658
576.71	-0.876
577.05	-1.103
577.38	-1.340
577.71	-1.552
578.05	-1.776
578.38	-1.974
578.71	-2.165
579.05	-2.340
579.38	-2.543
579.71	-2.749
580.05	-2.906
580.38	-3.092
580.71	-3.273
581.05	-3.423
581.38	-3.614
581.71	-3.798
582.05	-3.944
582.38	-4.115
582.71	-4.257
583.04	-4.320
583.38	-4.390
583.71	-4.479
584.04	-4.484
584.38	-4.493
584.71	-4.477
585.04	-4.371
585.37	-4.291
585.71	-4.217
586.04	-4.111
586.37	-3.994
586.70	-3.914
587.04	-3.848
587.37	-3.820
587.70	-3.849
588.03	-3.872
588.37	-3.934
588.70	-4.048
589.03	-4.120
589.36	-4.271
589.69	-4.417
590.03	-4.594
590.36	-4.830
590.69	-5.008
591.02	-5.137
591.35	-5.252
591.69	-5.285
592.02	-5.330
592.35	-5.331
592.68	-5.351
593.01	-5.315
593.35	-5.285
593.68	-5.247
594.01	-5.210
594.34	-5.226
594.67	-5.247
595.00	-5.260
595.34	-5.375
595.67	-5.522
596.00	-5.723
596.33	-6.020
596.66	-6.365
596.99	-6.754
597.32	-7.158
597.65	-7.539
597.99	-7.916
598.32	-8.281
598.65	-8.658
598.98	-8.949
599.31	-9.099
599.64	-9.140
599.97	-9.060
600.30	-8.903
600.63	-8.693
600.96	-8.475
601.30	-8.248
601.63	-8.064
601.96	-7.938
602.29	-7.851
602.62	-7.806
602.95	-7.826
603.28	-7.924
603.61	-8.061
603.94	-8.269
604.27	-8.517
604.60	-8.760
604.93	-9.023
605.26	-9.254
605.59	-9.435
605.92	-9.610
606.25	-9.753
606.58	-9.891
606.91	-9.997
607.24	-10.040
607.57	-10.048
607.90	-10.072
608.23	-10.154
608.56	-10.310
608.89	-10.533
609.22	-10.829
609.55	-11.168
609.88	-11.597
610.21	-12.037
610.54	-12.508
610.87	-13.049
611.20	-13.594
611.53	-14.074
611.86	-14.600
612.19	-14.998
612.52	-15.325
612.85	-15.609
613.18	-15.799
613.51	-15.864
613.84	-15.955
614.17	-16.083
614.49	-16.097
614.82	-16.165
615.15	-16.230
615.48	-16.249
615.81	-16.338
616.14	-16.397
616.47	-16.472
616.80	-16.470
617.13	-16.659
617.46	-16.784
617.78	-16.843
618.11	-17.026
618.44	-17.164
618.77	-17.303
619.10	-17.434
619.43	-17.528
619.76	-17.605
620.09	-17.623
620.41	-17.701
620.74	-17.654
621.07	-17.556
621.40	-17.450
621.73	-17.202
622.06	-16.919
622.38	-16.619
622.71	-16.224
623.04	-15.841
623.37	-15.423
623.70	-15.006
624.02	-14.634
624.35	-14.244
624.68	-13.949
625.01	-13.663
625.34	-13.463
625.66	-13.259
625.99	-13.246
626.32	-13.260
626.65	-13.355
626.98	-13.519
627.30	-13.799
627.63	-14.063
627.96	-14.380
628.29	-14.730
628.61	-15.100
628.94	-15.455
629.27	-15.915
629.60	-16.145
629.92	-16.481
630.25	-16.624
630.58	-16.802
630.91	-16.856
631.23	-16.946
631.56	-17.010
631.89	-17.070
632.21	-17.166
632.54	-17.251
632.87	-17.317
633.19	-17.560
633.52	-17.716
633.85	-18.043
634.18	-18.422
634.50	-18.839
634.83	-19.261
635.16	-19.661
635.48	-20.058
635.81	-20.435
636.14	-20.901
636.46	-21.356
636.79	-21.743
637.11	-22.153
637.44	-22.509
637.77	-22.775
638.09	-23.052
638.42	-23.204
638.75	-23.461
639.07	-23.818
639.40	-24.103
639.73	-24.368
640.05	-24.620
640.38	-24.788
640.70	-24.924
641.03	-25.056
641.36	-25.019
641.68	-24.968
642.01	-25.002
642.33	-24.867
642.66	-24.613
642.98	-24.364
643.31	-24.061
643.64	-23.698
643.96	-23.311
644.29	-22.936
644.61	-22.569
644.94	-22.337
645.26	-22.110
645.59	-21.871
645.91	-21.679
646.24	-21.519
646.56	-21.464
646.89	-21.420
647.22	-21.429
647.54	-21.453
647.87	-21.547
648.19	-21.586
648.52	-21.699
648.84	-21.827
649.17	-21.977
649.49	-22.168
649.82	-22.333
650.14	-22.450
650.47	-22.560
650.79	-22.724
651.11	-22.909
651.44	-23.081
651.76	-23.196
652.09	-23.364
652.41	-23.477
652.74	-23.509
653.06	-23.547
653.39	-23.539
653.71	-23.445
654.04	-23.228
654.36	-22.881
654.68	-22.531
655.01	-22.251
655.33	-22.058
655.66	-21.697
655.98	-21.490
656.30	-21.303
656.63	-21.194
656.95	-21.176
657.28	-21.190
657.60	-21.363
657.92	-21.741
658.25	-22.190
658.57	-22.709
658.90	-23.290
659.22	-24.105
659.54	-24.919
659.87	-25.827
660.19	-26.747
660.51	-27.695
660.84	-28.739
661.16	-29.810
661.48	-30.771
661.81	-31.707
662.13	-32.441
662.45	-33.120
662.78	-33.623
663.10	-34.041
663.42	-34.336
663.75	-34.594
664.07	-34.684
664.39	-34.780
664.72	-34.740
665.04	-34.689
665.36	-34.613
665.69	-34.504
666.01	-34.438
666.33	-34.446
666.65	-34.386
666.98	-34.387
667.30	-34.351
667.62	-34.549
667.94	-34.758
668.27	-35.086
668.59	-35.372
668.91	-35.775
669.23	-36.285
669.56	-36.701
669.88	-36.978
670.20	-37.382
670.52	-37.872
670.85	-38.343
671.17	-38.707
671.49	-39.113
671.81	-39.530
672.13	-40.020
672.46	-40.332
672.78	-40.446
673.10	-40.609
673.42	-40.667
673.74	-40.789
674.07	-40.712
674.39	-40.627
674.71	-40.175
675.03	-39.641
675.35	-39.064
675.67	-38.275
676.00	-37.487
676.32	-36.780
676.64	-35.996
676.96	-35.317
677.28	-34.496
677.60	-33.908
677.92	-33.206
678.25	-32.829
678.57	-32.403
678.89	-32.073
679.21	-31.986
679.53	-31.925
679.85	-31.995
680.17	-32.218
680.49	-32.513
680.81	-32.781
681.13	-33.092
681.46	-33.347
681.78	-33.487
682.10	-33.549
682.42	-33.314
682.74	-32.929
683.06	-32.566
683.38	-31.993
683.70	-31.110
684.02	-30.032
684.34	-29.029
684.66	-27.830
684.98	-26.854
685.30	-25.933
685.62	-25.233
685.94	-24.825
686.26	-24.428
686.58	-24.091
686.90	-24.026
687.22	-24.169
687.54	-24.611
687.86	-25.133
688.18	-25.707
688.50	-26.476
688.82	-27.286
689.14	-28.097
689.46	-28.865
689.78	-29.542
690.10	-30.383
690.42	-31.030
690.74	-31.663
691.06	-32.211
691.38	-32.779
691.70	-33.388
692.02	-33.966
692.34	-34.544
692.66	-34.913
692.98	-35.156
693.30	-35.293
693.62	-34.858
693.94	-34.188
694.26	-33.491
694.57	-32.718
694.89	-31.671
695.21	-30.589
695.53	-29.334
695.85	-28.037
696.17	-26.967
696.49	-26.015
696.81	-25.196
697.13	-24.653
697.44	-24.323
697.76	-24.248
698.08	-24.398
698.40	-24.912
698.72	-25.734
699.04	-26.771
699.36	-28.347
699.67	-29.988
699.99	-31.848
700.31	-34.017
700.63	-36.243
700.95	-38.879
701.27	-41.265
701.58	-43.487
701.90	-45.441
702.22	-47.060
702.54	-48.540
702.86	-49.248
703.17	-50.208
703.49	-50.939
703.81	-51.329
704.13	-51.769
704.45	-51.808
704.76	-51.808
705.08	-51.766
705.40	-51.500
705.72	-51.228
706.03	-50.785
706.35	-50.671
706.67	-50.253
706.99	-49.658
707.30	-49.306
707.62	-49.052
707.94	-48.879
708.26	-48.510
708.57	-48.078
708.89	-47.502
709.21	-46.993
709.53	-46.684
709.84	-46.176
710.16	-45.744
710.48	-45.343
710.79	-44.782
711.11	-44.007
711.43	-42.949
711.74	-42.124
712.06	-40.974
712.38	-39.883
712.69	-38.612
713.01	-37.283
713.33	-35.844
713.64	-34.308
713.96	-32.640
714.28	-31.007
714.59	-29.575
714.91	-28.124
715.23	-26.707
715.54	-25.555
715.86	-24.560
716.17	-23.978
716.49	-23.620
716.81	-23.421
717.12	-23.500
717.44	-24.057
717.76	-24.591
718.07	-25.428
718.39	-26.451
718.70	-27.668
719.02	-29.028
719.33	-30.539
719.65	-31.625
719.97	-32.485
720.28	-33.078
720.60	-33.722
720.91	-33.660
721.23	-33.835
721.54	-33.448
721.86	-33.012
722.17	-32.315
722.49	-31.758
722.81	-31.039
723.12	-30.285
723.44	-29.658
723.75	-29.099
724.07	-28.342
724.38	-27.986
724.70	-27.542
725.01	-27.340
725.33	-27.052
725.64	-26.859
725.96	-26.525
726.27	-26.198
726.59	-26.121
726.90	-25.878
727.22	-25.913
727.53	-26.126
727.84	-26.099
728.16	-26.353
728.47	-26.844
728.79	-27.518
729.10	-28.231
729.42	-28.818
729.73	-29.696
730.05	-30.903
730.36	-31.990
730.67	-33.256
730.99	-34.407
731.30	-36.017
731.62	-37.454
731.93	-38.801
732.24	-40.256
732.56	-41.670
732.87	-43.212
733.19	-44.681
733.50	-46.047
733.81	-47.473
734.13	-48.572
734.44	-49.825
734.76	-51.157
735.07	-52.528
735.38	-53.387
735.70	-54.209
736.01	-55.011
736.32	-55.752
736.64	-56.670
736.95	-56.998
737.26	-57.692
737.58	-58.830
737.89	-59.810
738.20	-60.796
738.52	-61.377
738.83	-62.691
739.14	-64.101
739.45	-65.808
739.77	-68.106
740.08	-70.182
740.39	-72.438
740.71	-74.465
741.02	-76.452
741.33	-78.446
741.64	-79.821
741.96	-82.201
742.27	-84.510
742.58	-86.242
742.90	-87.877
743.21	-89.292
743.52	-90.522
743.83	-91.532
744.14	-92.872
744.46	-93.911
744.77	-93.837
745.08	-93.957
745.39	-94.032
745.71	-93.424
746.02	-92.962
746.33	-92.583
746.64	-91.731
746.95	-90.612
747.27	-89.857
747.58	-89.305
747.89	-88.465
748.20	-88.438
748.51	-88.638
748.82	-88.608
749.14	-88.172
749.45	-88.217
749.76	-88.517
750.07	-88.067
750.38	-88.217
750.69	-88.478
751.01	-88.591
751.32	-88.720
751.63	-88.834
751.94	-89.624
752.25	-89.821
752.56	-90.948
752.87	-91.070
753.18	-90.601
753.49	-90.497
753.81	-90.115
754.12	-88.204
754.43	-85.772
754.74	-82.072
755.05	-77.526
755.36	-71.643
755.67	-65.798
755.98	-59.387
756.29	-52.948
756.60	-46.530
756.91	-40.364
757.22	-34.211
757.53	-28.903
757.84	-23.731
758.15	-19.230
758.46	-15.340
758.77	-12.171
759.09	-9.448
759.40	-7.145
759.71	-5.733
760.02	-4.667
760.33	-3.925
760.64	-3.532
760.95	-3.261
761.26	-3.458
761.57	-3.966
761.88	-4.616
762.18	-5.449
762.49	-6.392
762.80	-7.736
763.11	-9.046
763.42	-10.737
763.73	-12.682
764.04	-15.212
764.35	-18.197
764.66	-21.635
764.97	-25.780
765.28	-30.450
765.59	-35.809
765.90	-41.784
766.21	-47.856
766.52	-55.070
766.83	-62.165
767.14	-69.050
767.44	-76.256
767.75	-83.119
768.06	-89.089
768.37	-94.684
768.68	-100.399
768.99	-104.889
769.30	-109.725
769.61	-116.133
769.91	-119.194
770.22	-122.316
770.53	-126.046
770.84	-127.756
771.15	-131.262
771.46	-134.583
771.77	-137.025
772.07	-138.812
772.38	-142.476
772.69	-145.964
773.00	-146.214
773.31	-148.608
773.61	-151.520
773.92	-153.534
774.23	-155.222
774.54	-155.102
774.85	-155.661
775.15	-156.163
775.46	-155.679
775.77	-153.364
776.08	-152.768
776.39	-151.998
776.69	-152.484
777.00	-150.447
777.31	-149.856
777.62	-150.286
777.92	-148.472
778.23	-147.533
778.54	-146.592
778.85	-147.279
779.15	-148.918
779.46	-148.418
779.77	-150.088
780.07	-149.091
780.38	-150.318
780.69	-151.026
781.00	-149.858
781.30	-151.518
781.61	-152.213
781.92	-151.205
782.22	-149.320
782.53	-146.961
782.84	-144.989
783.14	-141.067
783.45	-136.653
783.76	-131.944
784.06	-125.041
784.37	-119.221
784.68	-112.075
784.98	-105.544
785.29	-100.052
785.60	-95.226
785.90	-90.149
786.21	-85.056
786.51	-80.779
786.82	-77.724
787.13	-74.895
787.43	-73.121
787.74	-72.263
788.04	-71.192
788.35	-71.299
788.66	-70.796
788.96	-70.896
789.27	-72.699
789.57	-75.332
789.88	-77.143
790.19	-78.816
790.49	-79.982
790.80	-82.118
791.10	-82.717
791.41	-83.763
791.71	-83.866
792.02	-84.531
792.32	-84.466
792.63	-82.836
792.93	-79.932
793.24	-77.529
793.54	-75.720
793.85	-74.433
794.15	-71.459
794.46	-69.910
794.76	-68.313
795.07	-66.971
795.37	-66.119
795.68	-64.607
795.98	-63.161
796.29	-62.584
796.59	-62.323
796.90	-61.556
797.20	-60.759
797.51	-61.123
797.81	-60.913
798.12	-61.461
798.42	-61.445
798.72	-61.698
799.03	-62.896
799.33	-63.946
799.64	-64.014
799.94	-64.866
800.25	-65.604
800.55	-66.635
800.85	-67.570
801.16	-68.713
801.46	-69.568
801.77	-69.877
802.07	-68.810
802.37	-68.716
802.68	-68.300
802.98	-69.326
803.28	-68.984
803.59	-69.988
803.89	-70.032
804.20	-69.692
804.50	-68.125
804.80	-67.329
805.11	-66.807
805.41	-67.252
805.71	-66.129
806.02	-66.450
806.32	-66.872
806.62	-66.314
806.93	-64.356
807.23	-63.820
807.53	-63.022
807.83	-63.260
808.14	-62.456
808.44	-62.046
808.74	-60.352
809.05	-59.118
809.35	-56.667
809.65	-52.884
809.95	-50.878
810.26	-49.750
810.56	-47.043
810.86	-45.074
811.16	-41.914
811.47	-39.369
811.77	-37.329
812.07	-35.918
812.37	-34.011
812.68	-32.489
812.98	-30.446
813.28	-29.024
813.58	-26.926
813.88	-25.133
814.19	-24.055
814.49	-23.214
814.79	-21.906
815.09	-20.809
815.39	-19.679
815.70	-18.719
816.00	-17.757
816.30	-17.672
816.60	-16.580
816.90	-15.483
817.20	-14.283
817.50	-11.601
817.81	-8.665
818.11	-6.215
818.41	-3.951
818.71	-2.147
819.01	-0.643
819.31	0.613
819.61	1.749
819.92	2.508
820.22	3.098
820.52	3.589
820.82	3.972
821.12	4.196
821.42	4.392
821.72	4.478
822.02	4.525
822.32	4.429
822.62	4.286
822.92	4.065
823.22	3.831
823.52	3.610
823.83	3.370
824.13	3.023
824.43	2.654
824.73	2.163
825.03	1.710
825.33	1.254
825.63	0.950
825.93	0.718
826.23	0.454
826.53	0.143
826.83	-0.243
827.13	-0.668
827.43	-0.975
827.73	-1.604
828.03	-2.049
828.33	-2.655
828.63	-3.440
828.93	-4.538
829.23	-5.834
829.53	-6.858
829.83	-7.757
830.13	-8.567
830.42	-8.986
830.72	-9.393
831.02	-9.157
831.32	-8.789
831.62	-8.444
831.92	-7.782
832.22	-7.222
832.52	-6.763
832.82	-6.301
833.12	-6.272
833.42	-5.969
833.72	-5.992
834.01	-6.219
834.31	-6.819
834.61	-8.023
834.91	-8.957
835.21	-9.943
835.51	-11.024
835.81	-12.527
836.11	-15.254
836.40	-17.603
836.70	-20.397
837.00	-23.291
837.30	-26.097
837.60	-28.051
837.90	-28.270
838.19	-29.988
838.49	-31.924
838.79	-33.879
839.09	-33.817
839.39	-33.939
839.68	-33.816
839.98	-35.059
840.28	-35.924
840.58	-38.116
840.88	-40.283
841.17	-44.020
841.47	-47.971
841.77	-50.961
842.07	-53.868
842.36	-62.579
842.66	-68.647
842.96	-79.623
843.26	-93.418
843.55	-105.479
843.85	-114.810
844.15	-120.186
844.45	-132.880
844.74	-135.196
845.04	-153.065
845.34	-162.381
845.63	-166.663
845.93	-182.178
846.23	-185.087
846.53	-170.112
846.82	-168.815
847.12	-164.894
847.42	-174.616
847.71	-170.582
848.01	-186.905
848.31	-176.155
848.60	-179.813
848.90	-178.700
849.19	-170.051
849.49	-164.893
849.79	-160.577
850.08	-160.696
850.38	-171.922
850.68	-166.257
850.97	-163.380
851.27	-155.057
851.56	-152.588
851.86	-154.268
852.16	-149.393
852.45	-150.619
852.75	-152.153
853.04	-163.552
853.34	-164.823
853.64	-159.937
853.93	-163.934
854.23	-166.950
854.52	-167.613
854.82	-161.756
855.11	-160.019
855.41	-168.586
855.70	-166.604
856.00	-165.388
856.30	-170.777
856.59	-170.909
856.89	-162.402
857.18	-156.702
857.48	-155.704
857.77	-144.722
858.07	-150.649
858.36	-141.302
858.66	-147.021
858.95	-135.340
859.25	-128.897
859.54	-113.523
859.84	-115.947
860.13	-120.904
860.42	-122.968
860.72	-121.494
861.01	-128.096
861.31	-124.519
861.60	-125.210
861.90	-112.362
862.19	-115.631
862.49	-113.952
862.78	-116.208
863.07	-110.301
863.37	-104.389
863.66	-105.229
863.96	-98.218
864.25	-93.094
864.54	-88.994
864.84	-83.684
865.13	-85.816
865.43	-86.733
865.72	-75.322
866.01	-79.173
866.31	-48.596
866.60	-118.712
866.89	-90.317
>>>>>End Spectral Data<<<<<
