OOIBase32 Version 2.0.0.6 Data File
++++++++++++++++++++++++++++++++++++
Date: 01-19-2012, 15:19:18
User: Valued Ocean Optics Customer
Spectrometer Serial Number: USB2E2917
Spectrometer Channel: Master
Integration Time (msec): 5
Spectra Averaged: 10
Boxcar Smoothing: 5
Correct for Electrical Dark: Enabled
Time Normalized: Disabled
Dual-beam Reference: Disabled
Reference Channel: Master
Temperature: Not acquired
Spectrometer Type: S2000
ADC Type: USB2000
Number of Pixels in File: 2048
Graph Title: 
>>>>>Begin Spectral Data<<<<<
180.30	0.000
180.67	0.000
181.03	6924.602
181.40	95.560
181.77	79.420
182.14	-84.849
182.51	526.277
182.88	120.162
183.25	88.995
183.62	-222.031
183.99	-160.535
184.36	52.716
184.73	-2012.722
185.10	228.041
185.46	179.086
185.83	16.248
186.20	-61.186
186.57	-29.606
186.94	861.869
187.31	37.877
187.68	-184.394
188.05	22.400
188.42	19.473
188.78	8.003
189.15	-6.329
189.52	-51.044
189.89	-53.313
190.26	-18.356
190.63	2.363
191.00	-7.502
191.37	-15.215
191.73	-9.426
192.10	-20.644
192.47	-29.168
192.84	-18.264
193.21	-9.005
193.58	-0.629
193.94	-15.165
194.31	-30.976
194.68	-45.070
195.05	-32.906
195.42	-15.776
195.79	-3.446
196.15	18.624
196.52	25.326
196.89	7.683
197.26	-3.207
197.63	-5.626
198.00	8.851
198.36	15.212
198.73	32.215
199.10	21.178
199.47	18.200
199.84	9.535
200.20	-1.699
200.57	3.991
200.94	9.530
201.31	6.523
201.68	1.325
202.04	12.597
202.41	-1.605
202.78	-19.868
203.15	-14.689
203.51	-15.627
203.88	-18.061
204.25	4.264
204.62	-9.271
204.98	0.718
205.35	13.233
205.72	45.557
206.09	45.111
206.46	47.288
206.82	49.199
207.19	43.382
207.56	38.347
207.92	33.952
208.29	9.622
208.66	6.813
209.03	-6.691
209.39	-6.711
209.76	-40.657
210.13	-50.047
210.50	-28.319
210.86	-40.309
211.23	-51.725
211.60	-65.493
211.96	-46.360
212.33	-32.354
212.70	-55.144
213.07	-30.332
213.43	-31.916
213.80	-13.545
214.17	-18.365
214.53	-24.602
214.90	-1.756
215.27	-8.893
215.63	-4.389
216.00	-22.674
216.37	-31.822
216.74	10.216
217.10	8.970
217.47	13.150
217.84	4.376
218.20	12.857
218.57	13.653
218.94	12.722
219.30	21.512
219.67	23.393
220.04	28.563
220.40	30.795
220.77	29.820
221.13	28.297
221.50	30.094
221.87	31.911
222.23	27.594
222.60	27.107
222.97	23.343
223.33	20.922
223.70	21.911
224.07	18.466
224.43	13.974
224.80	13.683
225.16	10.440
225.53	9.797
225.90	8.109
226.26	8.150
226.63	7.150
226.99	6.850
227.36	6.405
227.73	6.175
228.09	7.179
228.46	8.471
228.82	9.331
229.19	11.336
229.56	10.996
229.92	11.574
230.29	13.265
230.65	13.473
231.02	14.144
231.38	15.059
231.75	13.566
232.12	11.047
232.48	10.234
232.85	7.878
233.21	6.275
233.58	7.450
233.94	7.470
234.31	5.415
234.68	5.503
235.04	4.976
235.41	5.482
235.77	6.757
236.14	8.897
236.50	8.272
236.87	8.724
237.23	7.807
237.60	6.625
237.96	6.174
238.33	7.135
238.69	7.804
239.06	7.614
239.42	6.984
239.79	6.200
240.15	6.023
240.52	6.832
240.88	6.357
241.25	6.653
241.61	6.691
241.98	6.591
242.34	6.289
242.71	5.890
243.07	5.871
243.44	5.987
243.80	6.561
244.17	6.387
244.53	6.304
244.90	6.505
245.26	6.396
245.63	6.538
245.99	6.560
246.36	6.482
246.72	6.559
247.09	6.604
247.45	6.515
247.81	6.520
248.18	6.897
248.54	6.839
248.91	6.710
249.27	6.642
249.64	6.552
250.00	6.876
250.36	7.117
250.73	7.595
251.09	7.814
251.46	7.622
251.82	7.067
252.19	6.532
252.55	6.096
252.91	6.584
253.28	6.839
253.64	6.534
254.01	6.248
254.37	6.393
254.73	5.724
255.10	5.418
255.46	5.589
255.83	5.593
256.19	5.337
256.55	5.739
256.92	5.442
257.28	5.484
257.65	5.544
258.01	5.457
258.37	5.188
258.74	5.337
259.10	5.506
259.46	5.430
259.83	5.484
260.19	5.643
260.55	5.326
260.92	5.316
261.28	5.295
261.64	5.280
262.01	5.362
262.37	5.514
262.73	5.132
263.10	4.610
263.46	4.505
263.82	4.335
264.19	4.088
264.55	4.372
264.91	4.485
265.28	4.703
265.64	4.436
266.00	4.784
266.37	5.010
266.73	5.137
267.09	5.468
267.46	5.637
267.82	5.887
268.18	5.878
268.54	5.919
268.91	5.960
269.27	5.677
269.63	5.899
270.00	5.519
270.36	5.358
270.72	5.547
271.08	5.583
271.45	5.563
271.81	5.413
272.17	5.658
272.53	5.623
272.90	5.742
273.26	5.982
273.62	5.958
273.98	6.134
274.35	6.375
274.71	6.112
275.07	5.989
275.43	6.212
275.80	6.504
276.16	6.245
276.52	6.294
276.88	6.355
277.25	6.134
277.61	6.124
277.97	6.218
278.33	6.136
278.69	6.234
279.06	6.299
279.42	5.771
279.78	5.246
280.14	5.264
280.50	5.249
280.87	5.166
281.23	5.209
281.59	5.071
281.95	4.773
282.31	4.551
282.68	4.592
283.04	4.519
283.40	4.768
283.76	5.017
284.12	5.179
284.48	5.013
284.85	5.101
285.21	5.220
285.57	5.175
285.93	5.292
286.29	5.387
286.65	5.162
287.02	5.193
287.38	5.054
287.74	5.042
288.10	5.048
288.46	5.345
288.82	5.068
289.18	4.687
289.54	4.757
289.91	4.729
290.27	4.880
290.63	5.097
290.99	5.301
291.35	5.498
291.71	5.541
292.07	5.435
292.43	5.236
292.79	5.218
293.16	5.405
293.52	5.437
293.88	5.353
294.24	5.103
294.60	5.069
294.96	4.941
295.32	4.928
295.68	4.926
296.04	4.846
296.40	4.918
296.76	5.078
297.12	5.186
297.49	5.235
297.85	5.340
298.21	5.593
298.57	5.529
298.93	5.446
299.29	5.356
299.65	5.297
300.01	5.480
300.37	5.398
300.73	5.402
301.09	5.242
301.45	5.159
301.81	5.092
302.17	4.862
302.53	5.037
302.89	5.316
303.25	5.490
303.61	5.556
303.97	5.624
304.33	5.673
304.69	5.468
305.05	5.738
305.41	5.710
305.77	5.678
306.13	5.768
306.49	5.487
306.85	5.073
307.21	4.905
307.57	4.817
307.93	4.670
308.29	4.607
308.65	4.674
309.01	4.459
309.37	4.491
309.73	4.384
310.09	4.321
310.45	4.363
310.81	4.379
311.17	4.392
311.53	4.308
311.89	4.254
312.25	4.069
312.61	3.927
312.96	3.864
313.32	3.807
313.68	3.875
314.04	3.656
314.40	3.512
314.76	3.656
315.12	3.524
315.48	3.414
315.84	3.328
316.20	3.384
316.56	3.406
316.92	3.300
317.27	3.150
317.63	3.107
317.99	3.133
318.35	3.097
318.71	2.941
319.07	2.824
319.43	2.827
319.79	2.689
320.15	2.593
320.50	2.539
320.86	2.411
321.22	2.364
321.58	2.186
321.94	2.075
322.30	2.158
322.66	2.043
323.01	2.203
323.37	2.025
323.73	1.968
324.09	1.870
324.45	1.762
324.81	1.773
325.17	1.787
325.52	1.822
325.88	1.838
326.24	1.671
326.60	1.707
326.96	1.584
327.31	1.596
327.67	1.718
328.03	1.739
328.39	1.761
328.75	1.760
329.11	1.639
329.46	1.675
329.82	1.681
330.18	1.792
330.54	1.711
330.90	1.722
331.25	1.861
331.61	1.917
331.97	2.139
332.33	2.156
332.68	2.213
333.04	2.487
333.40	2.665
333.76	2.870
334.11	2.905
334.47	2.980
334.83	3.130
335.19	3.124
335.54	3.015
335.90	2.957
336.26	3.013
336.62	2.993
336.97	2.817
337.33	2.687
337.69	2.329
338.05	2.316
338.40	2.238
338.76	2.128
339.12	2.181
339.48	2.202
339.83	2.233
340.19	2.180
340.55	2.231
340.90	2.312
341.26	2.254
341.62	2.476
341.97	2.547
342.33	2.641
342.69	2.627
343.04	2.553
343.40	2.526
343.76	2.525
344.12	2.563
344.47	2.591
344.83	2.606
345.19	2.696
345.54	2.695
345.90	2.632
346.26	2.572
346.61	2.575
346.97	2.590
347.32	2.627
347.68	2.521
348.04	2.560
348.39	2.465
348.75	2.373
349.11	2.323
349.46	2.279
349.82	2.160
350.18	2.202
350.53	2.109
350.89	2.074
351.24	1.990
351.60	2.080
351.96	2.048
352.31	2.134
352.67	2.233
353.02	2.196
353.38	2.364
353.74	2.497
354.09	2.531
354.45	2.868
354.80	3.009
355.16	3.121
355.52	3.181
355.87	3.298
356.23	3.368
356.58	3.475
356.94	3.559
357.29	3.514
357.65	3.589
358.00	3.630
358.36	3.497
358.72	3.475
359.07	3.593
359.43	3.577
359.78	3.553
360.14	3.558
360.49	3.529
360.85	3.430
361.20	3.439
361.56	3.365
361.91	3.331
362.27	3.280
362.62	3.212
362.98	3.050
363.33	2.979
363.69	2.859
364.04	2.744
364.40	2.629
364.75	2.697
365.11	2.625
365.46	2.605
365.82	2.574
366.17	2.604
366.53	2.620
366.88	2.700
367.24	2.734
367.59	2.888
367.95	3.000
368.30	3.069
368.66	3.169
369.01	3.341
369.37	3.499
369.72	3.687
370.08	3.775
370.43	3.896
370.78	3.958
371.14	4.064
371.49	4.103
371.85	4.211
372.20	4.331
372.56	4.348
372.91	4.325
373.26	4.295
373.62	4.247
373.97	4.174
374.33	4.179
374.68	4.188
375.03	4.213
375.39	4.184
375.74	4.143
376.10	4.125
376.45	4.117
376.80	4.124
377.16	4.235
377.51	4.351
377.87	4.573
378.22	4.775
378.57	4.898
378.93	5.090
379.28	5.243
379.63	5.470
379.99	5.694
380.34	5.968
380.70	6.244
381.05	6.410
381.40	6.512
381.76	6.553
382.11	6.576
382.46	6.709
382.82	6.743
383.17	6.881
383.52	6.936
383.88	6.932
384.23	6.915
384.58	6.936
384.94	6.964
385.29	7.063
385.64	7.195
385.99	7.309
386.35	7.368
386.70	7.362
387.05	7.327
387.41	7.293
387.76	7.356
388.11	7.408
388.47	7.413
388.82	7.500
389.17	7.586
389.52	7.635
389.88	7.712
390.23	7.850
390.58	8.018
390.93	8.238
391.29	8.383
391.64	8.484
391.99	8.629
392.34	8.735
392.70	8.778
393.05	8.825
393.40	8.856
393.75	8.834
394.11	8.783
394.46	8.769
394.81	8.669
395.16	8.560
395.52	8.462
395.87	8.313
396.22	8.153
396.57	7.980
396.92	7.776
397.28	7.618
397.63	7.419
397.98	7.236
398.33	7.091
398.68	6.995
399.04	6.963
399.39	6.912
399.74	6.907
400.09	6.959
400.44	7.021
400.80	7.122
401.15	7.216
401.50	7.401
401.85	7.546
402.20	7.663
402.55	7.752
402.90	7.846
403.26	7.958
403.61	7.994
403.96	8.053
404.31	8.073
404.66	8.103
405.01	8.110
405.36	8.076
405.72	8.054
406.07	8.052
406.42	8.032
406.77	7.993
407.12	7.948
407.47	7.977
407.82	7.952
408.17	7.966
408.53	7.948
408.88	7.943
409.23	7.942
409.58	7.927
409.93	7.901
410.28	7.901
410.63	7.953
410.98	7.934
411.33	7.959
411.68	8.017
412.03	8.078
412.38	8.165
412.73	8.256
413.09	8.454
413.44	8.643
413.79	8.860
414.14	9.093
414.49	9.285
414.84	9.528
415.19	9.724
415.54	9.930
415.89	10.164
416.24	10.381
416.59	10.592
416.94	10.740
417.29	10.899
417.64	11.024
417.99	11.131
418.34	11.238
418.69	11.359
419.04	11.466
419.39	11.530
419.74	11.600
420.09	11.656
420.44	11.718
420.79	11.751
421.14	11.769
421.49	11.802
421.84	11.813
422.19	11.836
422.54	11.814
422.89	11.794
423.24	11.786
423.59	11.732
423.94	11.672
424.29	11.589
424.64	11.526
424.99	11.462
425.34	11.384
425.68	11.299
426.03	11.207
426.38	11.151
426.73	11.103
427.08	11.088
427.43	11.111
427.78	11.144
428.13	11.186
428.48	11.241
428.83	11.288
429.18	11.334
429.53	11.414
429.87	11.498
430.22	11.545
430.57	11.580
430.92	11.587
431.27	11.589
431.62	11.582
431.97	11.564
432.32	11.516
432.67	11.500
433.01	11.471
433.36	11.440
433.71	11.390
434.06	11.361
434.41	11.336
434.76	11.337
435.11	11.372
435.45	11.411
435.80	11.470
436.15	11.584
436.50	11.640
436.85	11.723
437.20	11.806
437.54	11.891
437.89	11.952
438.24	12.010
438.59	12.038
438.94	12.014
439.29	11.987
439.63	11.946
439.98	11.917
440.33	11.898
440.68	11.909
441.03	11.893
441.37	11.909
441.72	11.953
442.07	11.999
442.42	12.074
442.76	12.179
443.11	12.302
443.46	12.439
443.81	12.514
444.16	12.603
444.50	12.633
444.85	12.675
445.20	12.671
445.55	12.630
445.89	12.578
446.24	12.497
446.59	12.389
446.94	12.259
447.28	12.129
447.63	11.972
447.98	11.826
448.32	11.693
448.67	11.569
449.02	11.463
449.37	11.384
449.71	11.384
450.06	11.393
450.41	11.469
450.75	11.501
451.10	11.514
451.45	11.559
451.79	11.584
452.14	11.607
452.49	11.581
452.84	11.577
453.18	11.598
453.53	11.587
453.88	11.594
454.22	11.601
454.57	11.678
454.92	11.780
455.26	11.928
455.61	12.075
455.95	12.227
456.30	12.392
456.65	12.548
456.99	12.703
457.34	12.836
457.69	12.953
458.03	13.004
458.38	13.056
458.73	13.070
459.07	13.012
459.42	12.946
459.76	12.845
460.11	12.750
460.46	12.636
460.80	12.488
461.15	12.340
461.49	12.199
461.84	12.106
462.19	11.995
462.53	11.895
462.88	11.878
463.22	11.891
463.57	11.930
463.91	11.972
464.26	12.016
464.61	12.071
464.95	12.138
465.30	12.191
465.64	12.213
465.99	12.231
466.33	12.257
466.68	12.269
467.02	12.235
467.37	12.224
467.71	12.194
468.06	12.180
468.41	12.172
468.75	12.127
469.10	12.083
469.44	12.043
469.79	11.976
470.13	11.929
470.48	11.882
470.82	11.852
471.17	11.791
471.51	11.762
471.86	11.741
472.20	11.691
472.55	11.646
472.89	11.642
473.23	11.626
473.58	11.629
473.92	11.632
474.27	11.638
474.61	11.637
474.96	11.660
475.30	11.697
475.65	11.700
475.99	11.733
476.34	11.787
476.68	11.828
477.02	11.909
477.37	11.997
477.71	12.127
478.06	12.313
478.40	12.648
478.75	13.119
479.09	13.632
479.43	14.192
479.78	14.774
480.12	15.334
480.47	15.889
480.81	16.419
481.15	16.940
481.50	17.421
481.84	17.933
482.19	18.433
482.53	18.873
482.87	19.182
483.22	19.308
483.56	19.225
483.90	19.006
484.25	18.662
484.59	18.249
484.94	17.814
485.28	17.483
485.62	17.085
485.97	16.631
486.31	16.188
486.65	15.825
487.00	15.602
487.34	15.530
487.68	15.541
488.03	15.611
488.37	15.725
488.71	15.821
489.06	15.783
489.40	15.710
489.74	15.635
490.09	15.534
490.43	15.426
490.77	15.299
491.11	15.132
491.46	14.948
491.80	14.767
492.14	14.590
492.49	14.388
492.83	14.167
493.17	13.968
493.51	13.762
493.86	13.584
494.20	13.441
494.54	13.340
494.88	13.336
495.23	13.349
495.57	13.391
495.91	13.402
496.25	13.434
496.60	13.455
496.94	13.469
497.28	13.485
497.62	13.446
497.97	13.406
498.31	13.366
498.65	13.309
498.99	13.271
499.33	13.239
499.68	13.215
500.02	13.206
500.36	13.178
500.70	13.145
501.04	13.126
501.39	13.159
501.73	13.185
502.07	13.220
502.41	13.263
502.75	13.298
503.09	13.354
503.44	13.406
503.78	13.469
504.12	13.580
504.46	13.670
504.80	13.775
505.14	13.872
505.49	13.981
505.83	14.048
506.17	14.117
506.51	14.199
506.85	14.281
507.19	14.365
507.53	14.456
507.87	14.497
508.22	14.561
508.56	14.566
508.90	14.573
509.24	14.576
509.58	14.605
509.92	14.621
510.26	14.607
510.60	14.584
510.94	14.569
511.28	14.540
511.63	14.564
511.97	14.550
512.31	14.596
512.65	14.655
512.99	14.707
513.33	14.811
513.67	14.968
514.01	15.165
514.35	15.368
514.69	15.546
515.03	15.736
515.37	15.906
515.71	16.077
516.05	16.248
516.39	16.374
516.73	16.494
517.07	16.551
517.41	16.567
517.75	16.531
518.09	16.455
518.43	16.365
518.77	16.249
519.11	16.124
519.45	15.988
519.79	15.820
520.13	15.709
520.47	15.622
520.81	15.600
521.15	15.627
521.49	15.679
521.83	15.807
522.17	15.983
522.51	16.223
522.85	16.533
523.19	16.947
523.53	17.442
523.87	18.001
524.21	18.536
524.55	19.015
524.89	19.453
525.23	19.872
525.57	20.234
525.91	20.551
526.25	20.836
526.58	21.063
526.92	21.233
527.26	21.363
527.60	21.392
527.94	21.361
528.28	21.301
528.62	21.211
528.96	21.113
529.30	20.983
529.64	20.850
529.97	20.693
530.31	20.526
530.65	20.373
530.99	20.223
531.33	20.130
531.67	20.081
532.01	20.059
532.35	20.003
532.68	19.924
533.02	19.843
533.36	19.750
533.70	19.664
534.04	19.582
534.38	19.470
534.71	19.357
535.05	19.219
535.39	19.084
535.73	18.993
536.07	18.968
536.41	19.054
536.74	19.223
537.08	19.434
537.42	19.666
537.76	19.935
538.10	20.212
538.43	20.512
538.77	20.807
539.11	21.078
539.45	21.287
539.79	21.472
540.12	21.587
540.46	21.657
540.80	21.665
541.14	21.632
541.47	21.563
541.81	21.476
542.15	21.326
542.49	21.163
542.82	20.984
543.16	20.784
543.50	20.571
543.84	20.376
544.17	20.211
544.51	20.075
544.85	19.960
545.18	19.839
545.52	19.704
545.86	19.587
546.20	19.435
546.53	19.291
546.87	19.165
547.21	19.040
547.54	18.897
547.88	18.728
548.22	18.622
548.55	18.545
548.89	18.514
549.23	18.518
549.56	18.525
549.90	18.549
550.24	18.615
550.57	18.703
550.91	18.804
551.25	18.908
551.58	18.993
551.92	19.101
552.26	19.131
552.59	19.156
552.93	19.170
553.27	19.154
553.60	19.173
553.94	19.172
554.27	19.178
554.61	19.172
554.95	19.178
555.28	19.219
555.62	19.219
555.95	19.289
556.29	19.345
556.63	19.435
556.96	19.591
557.30	19.730
557.63	19.827
557.97	19.926
558.31	20.010
558.64	20.073
558.98	20.164
559.31	20.244
559.65	20.321
559.98	20.439
560.32	20.563
560.65	20.657
560.99	20.803
561.33	20.968
561.66	21.164
562.00	21.367
562.33	21.590
562.67	21.798
563.00	22.008
563.34	22.201
563.67	22.387
564.01	22.547
564.34	22.728
564.68	22.871
565.01	22.995
565.35	23.055
565.68	23.135
566.02	23.233
566.35	23.328
566.69	23.425
567.02	23.524
567.36	23.634
567.69	23.757
568.03	23.826
568.36	23.928
568.69	24.029
569.03	24.208
569.36	24.377
569.70	24.532
570.03	24.671
570.37	24.792
570.70	24.910
571.04	25.010
571.37	25.089
571.70	25.181
572.04	25.279
572.37	25.391
572.71	25.429
573.04	25.473
573.37	25.488
573.71	25.516
574.04	25.542
574.38	25.582
574.71	25.601
575.04	25.610
575.38	25.646
575.71	25.633
576.05	25.604
576.38	25.595
576.71	25.607
577.05	25.597
577.38	25.588
577.71	25.598
578.05	25.584
578.38	25.578
578.71	25.574
579.05	25.616
579.38	25.589
579.71	25.635
580.05	25.680
580.38	25.718
580.71	25.793
581.05	25.872
581.38	25.946
581.71	26.053
582.05	26.141
582.38	26.252
582.71	26.329
583.04	26.474
583.38	26.623
583.71	26.778
584.04	26.931
584.38	27.092
584.71	27.279
585.04	27.450
585.37	27.577
585.71	27.732
586.04	27.927
586.37	28.116
586.70	28.304
587.04	28.458
587.37	28.584
587.70	28.705
588.03	28.863
588.37	28.943
588.70	29.047
589.03	29.150
589.36	29.257
589.69	29.359
590.03	29.395
590.36	29.475
590.69	29.506
591.02	29.609
591.35	29.721
591.69	29.846
592.02	29.996
592.35	30.139
592.68	30.320
593.01	30.494
593.35	30.642
593.68	30.869
594.01	31.024
594.34	31.216
594.67	31.303
595.00	31.391
595.34	31.436
595.67	31.488
596.00	31.546
596.33	31.572
596.66	31.568
596.99	31.566
597.32	31.458
597.65	31.414
597.99	31.364
598.32	31.416
598.65	31.445
598.98	31.475
599.31	31.582
599.64	31.693
599.97	31.853
600.30	32.007
600.63	32.173
600.96	32.413
601.30	32.583
601.63	32.761
601.96	32.895
602.29	33.036
602.62	33.190
602.95	33.262
603.28	33.345
603.61	33.416
603.94	33.479
604.27	33.471
604.60	33.489
604.93	33.548
605.26	33.601
605.59	33.665
605.92	33.698
606.25	33.698
606.58	33.742
606.91	33.801
607.24	33.831
607.57	33.891
607.90	33.983
608.23	34.039
608.56	34.066
608.89	34.040
609.22	34.043
609.55	34.031
609.88	34.014
610.21	33.974
610.54	33.888
610.87	33.866
611.20	33.796
611.53	33.780
611.86	33.728
612.19	33.669
612.52	33.696
612.85	33.654
613.18	33.710
613.51	33.776
613.84	33.874
614.17	33.959
614.49	33.964
614.82	34.040
615.15	34.032
615.48	34.021
615.81	34.080
616.14	34.122
616.47	34.191
616.80	34.223
617.13	34.210
617.46	34.199
617.78	34.251
618.11	34.275
618.44	34.272
618.77	34.371
619.10	34.548
619.43	34.628
619.76	34.692
620.09	34.761
620.41	34.824
620.74	34.951
621.07	35.010
621.40	35.075
621.73	35.203
622.06	35.355
622.38	35.461
622.71	35.479
623.04	35.613
623.37	35.753
623.70	35.881
624.02	35.963
624.35	36.068
624.68	36.174
625.01	36.291
625.34	36.373
625.66	36.451
625.99	36.509
626.32	36.587
626.65	36.613
626.98	36.622
627.30	36.636
627.63	36.659
627.96	36.622
628.29	36.660
628.61	36.641
628.94	36.641
629.27	36.615
629.60	36.610
629.92	36.595
630.25	36.609
630.58	36.606
630.91	36.573
631.23	36.616
631.56	36.703
631.89	36.718
632.21	36.729
632.54	36.774
632.87	36.834
633.19	36.850
633.52	36.904
633.85	36.920
634.18	36.888
634.50	36.926
634.83	36.917
635.16	36.889
635.48	36.867
635.81	36.875
636.14	36.830
636.46	36.792
636.79	36.782
637.11	36.760
637.44	36.761
637.77	36.778
638.09	36.783
638.42	36.737
638.75	36.757
639.07	36.751
639.40	36.729
639.73	36.752
640.05	36.751
640.38	36.800
640.70	36.792
641.03	36.729
641.36	36.799
641.68	36.808
642.01	36.876
642.33	36.891
642.66	36.942
642.98	37.111
643.31	37.184
643.64	37.235
643.96	37.291
644.29	37.349
644.61	37.478
644.94	37.520
645.26	37.659
645.59	37.785
645.91	37.821
646.24	37.891
646.56	37.827
646.89	37.831
647.22	37.895
647.54	37.966
647.87	38.079
648.19	38.105
648.52	38.141
648.84	38.121
649.17	38.085
649.49	38.103
649.82	38.144
650.14	38.195
650.47	38.277
650.79	38.287
651.11	38.306
651.44	38.333
651.76	38.372
652.09	38.375
652.41	38.370
652.74	38.424
653.06	38.516
653.39	38.583
653.71	38.632
654.04	38.700
654.36	38.775
654.68	38.825
655.01	38.937
655.33	38.960
655.66	39.089
655.98	39.137
656.30	39.195
656.63	39.249
656.95	39.200
657.28	39.236
657.60	39.193
657.92	39.207
658.25	39.121
658.57	39.013
658.90	39.051
659.22	39.028
659.54	38.990
659.87	38.956
660.19	38.896
660.51	38.840
660.84	38.719
661.16	38.647
661.48	38.594
661.81	38.540
662.13	38.479
662.45	38.385
662.78	38.237
663.10	38.229
663.42	38.147
663.75	38.118
664.07	38.141
664.39	38.204
664.72	38.227
665.04	38.164
665.36	38.235
665.69	38.265
666.01	38.308
666.33	38.435
666.65	38.455
666.98	38.460
667.30	38.417
667.62	38.465
667.94	38.432
668.27	38.433
668.59	38.477
668.91	38.467
669.23	38.489
669.56	38.457
669.88	38.458
670.20	38.393
670.52	38.469
670.85	38.503
671.17	38.436
671.49	38.465
671.81	38.488
672.13	38.505
672.46	38.457
672.78	38.424
673.10	38.359
673.42	38.360
673.74	38.469
674.07	38.453
674.39	38.532
674.71	38.617
675.03	38.620
675.35	38.619
675.67	38.643
676.00	38.754
676.32	38.760
676.64	38.877
676.96	38.939
677.28	38.984
677.60	39.088
677.92	39.105
678.25	39.173
678.57	39.328
678.89	39.390
679.21	39.373
679.53	39.359
679.85	39.499
680.17	39.505
680.49	39.464
680.81	39.433
681.13	39.352
681.46	39.371
681.78	39.309
682.10	39.263
682.42	39.242
682.74	39.354
683.06	39.407
683.38	39.376
683.70	39.458
684.02	39.514
684.34	39.559
684.66	39.617
684.98	39.715
685.30	39.810
685.62	39.859
685.94	39.895
686.26	39.804
686.58	39.874
686.90	39.804
687.22	39.704
687.54	39.682
687.86	39.590
688.18	39.510
688.50	39.407
688.82	39.357
689.14	39.159
689.46	39.164
689.78	39.170
690.10	39.007
690.42	39.001
690.74	38.970
691.06	38.815
691.38	38.863
691.70	38.812
692.02	38.763
692.34	38.595
692.66	38.606
692.98	38.483
693.30	38.438
693.62	38.422
693.94	38.418
694.26	38.456
694.57	38.603
694.89	38.588
695.21	38.698
695.53	38.679
695.85	38.815
696.17	38.813
696.49	38.910
696.81	38.928
697.13	38.982
697.44	38.994
697.76	39.022
698.08	38.914
698.40	38.915
698.72	38.824
699.04	38.686
699.36	38.457
699.67	38.326
699.99	37.983
700.31	37.708
700.63	37.440
700.95	37.066
701.27	36.698
701.58	36.395
701.90	36.000
702.22	35.699
702.54	35.546
702.86	35.437
703.17	35.214
703.49	35.115
703.81	35.019
704.13	34.827
704.45	34.757
704.76	34.684
705.08	34.698
705.40	34.686
705.72	34.637
706.03	34.483
706.35	34.456
706.67	34.475
706.99	34.549
707.30	34.521
707.62	34.556
707.94	34.631
708.26	34.537
708.57	34.541
708.89	34.506
709.21	34.454
709.53	34.479
709.84	34.528
710.16	34.542
710.48	34.510
710.79	34.557
711.11	34.536
711.43	34.497
711.74	34.554
712.06	34.462
712.38	34.546
712.69	34.610
713.01	34.716
713.33	34.712
713.64	34.734
713.96	34.848
714.28	34.922
714.59	35.124
714.91	35.074
715.23	35.182
715.54	35.276
715.86	35.255
716.17	35.337
716.49	35.197
716.81	35.160
717.12	35.150
717.44	34.936
717.76	34.704
718.07	34.303
718.39	34.255
718.70	33.936
719.02	33.719
719.33	33.392
719.65	32.876
719.97	32.628
720.28	32.436
720.60	32.184
720.91	31.998
721.23	31.897
721.54	31.840
721.86	31.555
722.17	31.515
722.49	31.287
722.81	31.275
723.12	31.505
723.44	31.570
723.75	31.363
724.07	31.282
724.38	31.182
724.70	31.083
725.01	31.177
725.33	31.305
725.64	31.378
725.96	31.475
726.27	31.476
726.59	31.450
726.90	31.480
727.22	31.480
727.53	31.404
727.84	31.490
728.16	31.508
728.47	31.204
728.79	31.034
729.10	30.796
729.42	30.678
729.73	30.539
730.05	30.338
730.36	30.191
730.67	30.068
730.99	29.920
731.30	29.665
731.62	29.417
731.93	29.133
732.24	28.899
732.56	28.583
732.87	28.210
733.19	27.876
733.50	27.502
733.81	27.007
734.13	26.705
734.44	26.333
734.76	26.032
735.07	25.805
735.38	25.788
735.70	25.644
736.01	25.583
736.32	25.450
736.64	25.412
736.95	25.240
737.26	25.269
737.58	24.922
737.89	24.866
738.20	24.662
738.52	24.214
738.83	24.115
739.14	23.692
739.45	23.338
739.77	23.078
740.08	22.489
740.39	22.134
740.71	21.882
741.02	21.796
741.33	21.355
741.64	21.213
741.96	21.103
742.27	20.440
742.58	20.206
742.90	19.852
743.21	19.577
743.52	19.488
743.83	19.603
744.14	19.322
744.46	19.021
744.77	18.902
745.08	18.485
745.39	18.339
745.71	18.353
746.02	18.398
746.33	18.498
746.64	18.480
746.95	18.289
747.27	17.864
747.58	17.525
747.89	17.510
748.20	17.390
748.51	17.372
748.82	17.300
749.14	17.377
749.45	16.915
749.76	16.583
750.07	16.393
750.38	16.354
750.69	16.283
751.01	16.322
751.32	16.089
751.63	16.031
751.94	15.744
752.25	15.626
752.56	15.418
752.87	15.326
753.18	15.237
753.49	15.145
753.81	15.278
754.12	15.493
754.43	15.687
754.74	15.742
755.05	16.019
755.36	16.723
755.67	17.500
755.98	18.374
756.29	19.425
756.60	20.540
756.91	21.538
757.22	22.662
757.53	23.718
757.84	24.901
758.15	26.360
758.46	27.703
758.77	28.863
759.09	29.730
759.40	30.388
759.71	31.050
760.02	31.611
760.33	31.935
760.64	31.933
760.95	32.072
761.26	32.052
761.57	31.870
761.88	31.414
762.18	31.014
762.49	30.648
762.80	30.266
763.11	29.763
763.42	29.032
763.73	28.460
764.04	27.783
764.35	26.905
764.66	25.705
764.97	24.500
765.28	23.412
765.59	21.946
765.90	20.296
766.21	18.435
766.52	16.946
766.83	15.662
767.14	14.074
767.44	12.885
767.75	11.383
768.06	10.548
768.37	9.693
768.68	8.750
768.99	8.174
769.30	7.482
769.61	7.165
769.91	6.202
770.22	5.645
770.53	5.276
770.84	4.752
771.15	4.386
771.46	4.092
771.77	3.651
772.07	3.545
772.38	2.975
772.69	3.023
773.00	2.924
773.31	2.895
773.61	2.514
773.92	2.723
774.23	2.416
774.54	2.707
774.85	2.589
775.15	2.316
775.46	2.244
775.77	2.410
776.08	2.175
776.39	1.953
776.69	1.974
777.00	2.128
777.31	1.843
777.62	1.860
777.92	1.423
778.23	1.117
778.54	1.428
778.85	1.371
779.15	1.041
779.46	0.890
779.77	0.714
780.07	0.700
780.38	0.167
780.69	-0.124
781.00	0.169
781.30	0.577
781.61	0.350
781.92	0.496
782.22	-0.110
782.53	-0.130
782.84	0.086
783.14	0.769
783.45	1.097
783.76	1.763
784.06	2.334
784.37	2.930
784.68	3.488
784.98	4.347
785.29	4.863
785.60	5.831
785.90	7.126
786.21	7.592
786.51	7.780
786.82	8.327
787.13	8.664
787.43	9.004
787.74	8.895
788.04	8.740
788.35	8.534
788.66	8.264
788.96	8.037
789.27	7.237
789.57	7.066
789.88	6.684
790.19	6.127
790.49	5.781
790.80	5.593
791.10	5.447
791.41	5.019
791.71	5.112
792.02	5.542
792.32	5.979
792.63	6.085
792.93	5.989
793.24	6.240
793.54	6.791
793.85	7.395
794.15	7.511
794.46	7.668
794.76	8.369
795.07	8.961
795.37	8.971
795.68	8.582
795.98	8.395
796.29	8.600
796.59	8.814
796.90	8.679
797.20	8.334
797.51	7.982
797.81	7.739
798.12	7.360
798.42	6.861
798.72	6.420
799.03	6.230
799.33	6.226
799.64	5.845
799.94	5.291
800.25	4.479
800.55	3.908
800.85	3.922
801.16	4.043
801.46	3.569
801.77	3.880
802.07	3.963
802.37	3.898
802.68	4.036
802.98	4.037
803.28	3.666
803.59	4.220
803.89	4.428
804.20	4.158
804.50	4.085
804.80	4.263
805.11	3.571
805.41	2.795
805.71	2.722
806.02	2.707
806.32	2.465
806.62	2.838
806.93	1.981
807.23	1.742
807.53	1.553
807.83	1.225
808.14	1.333
808.44	1.133
808.74	1.822
809.05	1.955
809.35	1.306
809.65	1.903
809.95	2.609
810.26	3.511
810.56	4.742
810.86	5.327
811.16	6.050
811.47	6.179
811.77	7.006
812.07	7.269
812.37	8.226
812.68	9.343
812.98	10.104
813.28	10.504
813.58	11.524
813.88	11.777
814.19	12.832
814.49	13.187
814.79	14.311
815.09	15.208
815.39	16.393
815.70	16.403
816.00	17.248
816.30	17.806
816.60	18.012
816.90	18.520
817.20	19.517
817.50	21.216
817.81	23.367
818.11	25.033
818.41	26.573
818.71	27.938
819.01	29.243
819.31	30.234
819.61	30.981
819.92	31.748
820.22	32.235
820.52	32.670
820.82	32.881
821.12	33.027
821.42	33.255
821.72	33.478
822.02	33.554
822.32	33.665
822.62	33.552
822.92	33.476
823.22	33.343
823.52	33.214
823.83	33.084
824.13	32.990
824.43	32.792
824.73	32.458
825.03	32.113
825.33	31.774
825.63	31.393
825.93	31.226
826.23	31.095
826.53	30.821
826.83	30.612
827.13	30.167
827.43	29.673
827.73	29.190
828.03	28.517
828.33	27.715
828.63	27.020
828.93	26.232
829.23	25.585
829.53	24.555
829.83	23.577
830.13	23.027
830.42	22.633
830.72	22.584
831.02	23.051
831.32	23.658
831.62	24.064
831.92	24.006
832.22	24.219
832.52	24.379
832.82	24.318
833.12	24.596
833.42	24.660
833.72	24.627
834.01	24.306
834.31	23.562
834.61	22.966
834.91	22.110
835.21	21.661
835.51	20.198
835.81	18.741
836.11	17.772
836.40	16.183
836.70	14.506
837.00	12.443
837.30	10.873
837.60	10.188
837.90	8.866
838.19	8.660
838.49	7.779
838.79	7.584
839.09	6.635
839.39	5.277
839.68	4.235
839.98	2.224
840.28	1.522
840.58	0.173
840.88	-0.879
841.17	-2.066
841.47	-5.261
841.77	-6.697
842.07	-8.213
842.36	-10.630
842.66	-12.114
842.96	-16.609
843.26	-20.993
843.55	-24.142
843.85	-24.176
844.15	-29.843
844.45	-32.726
844.74	-32.004
845.04	-38.137
845.34	-42.360
845.63	-43.508
845.93	-48.663
846.23	-48.010
846.53	-47.195
846.82	-48.267
847.12	-51.980
847.42	-50.004
847.71	-51.289
848.01	-55.822
848.31	-58.540
848.60	-59.728
848.90	-57.790
849.19	-58.691
849.49	-57.938
849.79	-54.660
850.08	-50.502
850.38	-51.508
850.68	-52.391
850.97	-48.774
851.27	-46.681
851.56	-41.911
851.86	-40.531
852.16	-44.426
852.45	-39.982
852.75	-35.227
853.04	-36.289
853.34	-41.044
853.64	-39.906
853.93	-39.638
854.23	-38.635
854.52	-38.916
854.82	-39.743
855.11	-43.253
855.41	-39.834
855.70	-39.838
856.00	-43.385
856.30	-45.767
856.59	-42.481
856.89	-42.962
857.18	-41.245
857.48	-41.460
857.77	-41.841
858.07	-38.324
858.36	-35.555
858.66	-38.874
858.95	-40.321
859.25	-43.650
859.54	-43.507
859.84	-42.849
860.13	-39.079
860.42	-40.994
860.72	-40.568
861.01	-42.553
861.31	-44.028
861.60	-43.039
861.90	-38.612
862.19	-38.577
862.49	-32.873
862.78	-27.579
863.07	-26.844
863.37	-29.212
863.66	-28.596
863.96	-32.990
864.25	-28.793
864.54	-28.205
864.84	-25.487
865.13	-25.106
865.43	-24.848
865.72	-22.750
866.01	-31.442
866.31	-16.102
866.60	-26.238
866.89	-41.318
>>>>>End Spectral Data<<<<<
