OOIBase32 Version 2.0.0.6 Data File
++++++++++++++++++++++++++++++++++++
Date: 01-19-2012, 14:33:02
User: Valued Ocean Optics Customer
Spectrometer Serial Number: USB2E2917
Spectrometer Channel: Master
Integration Time (msec): 5
Spectra Averaged: 10
Boxcar Smoothing: 5
Correct for Electrical Dark: Enabled
Time Normalized: Disabled
Dual-beam Reference: Disabled
Reference Channel: Master
Temperature: Not acquired
Spectrometer Type: S2000
ADC Type: USB2000
Number of Pixels in File: 2048
Graph Title: 
>>>>>Begin Spectral Data<<<<<
180.30	0.000
180.67	0.000
181.03	-183.710
181.40	26.950
181.77	-5.446
182.14	-771.593
182.51	-419.847
182.88	117.863
183.25	43.671
183.62	104.785
183.99	102.119
184.36	448.152
184.73	234.920
185.10	125.357
185.46	97.487
185.83	54.859
186.20	24.649
186.57	179.531
186.94	6.148
187.31	88.053
187.68	92.930
188.05	-319.468
188.42	-751.245
188.78	207.286
189.15	98.937
189.52	95.523
189.89	73.901
190.26	53.757
190.63	25.089
191.00	37.813
191.37	46.278
191.73	35.580
192.10	38.259
192.47	40.088
192.84	55.839
193.21	47.343
193.58	31.004
193.94	52.776
194.31	49.951
194.68	33.213
195.05	14.977
195.42	22.593
195.79	12.072
196.15	-0.384
196.52	-0.700
196.89	16.908
197.26	21.232
197.63	30.422
198.00	26.918
198.36	25.570
198.73	32.225
199.10	41.318
199.47	45.659
199.84	57.294
200.20	56.020
200.57	48.185
200.94	46.410
201.31	56.213
201.68	49.970
202.04	51.637
202.41	47.975
202.78	48.389
203.15	45.224
203.51	43.052
203.88	41.705
204.25	31.944
204.62	40.473
204.98	43.466
205.35	31.330
205.72	35.259
206.09	29.045
206.46	44.041
206.82	46.040
207.19	36.784
207.56	47.886
207.92	38.621
208.29	45.674
208.66	39.572
209.03	37.668
209.39	40.937
209.76	38.275
210.13	35.388
210.50	13.182
210.86	16.039
211.23	12.829
211.60	-0.385
211.96	12.829
212.33	25.887
212.70	19.250
213.07	9.135
213.43	6.610
213.80	1.457
214.17	8.002
214.53	18.018
214.90	19.110
215.27	21.240
215.63	16.734
216.00	3.001
216.37	-2.364
216.74	-0.258
217.10	1.139
217.47	-0.264
217.84	0.100
218.20	-6.915
218.57	-19.232
218.94	-16.663
219.30	-23.337
219.67	-16.005
220.04	-15.172
220.40	-15.733
220.77	-3.004
221.13	2.547
221.50	4.023
221.87	9.384
222.23	12.186
222.60	13.618
222.97	13.425
223.33	19.933
223.70	19.060
224.07	22.136
224.43	21.398
224.80	15.304
225.16	16.993
225.53	14.329
225.90	14.500
226.26	14.989
226.63	16.158
226.99	13.061
227.36	11.870
227.73	10.868
228.09	10.386
228.46	9.608
228.82	9.875
229.19	7.184
229.56	7.343
229.92	7.119
230.29	5.149
230.65	2.821
231.02	4.730
231.38	6.404
231.75	5.769
232.12	4.157
232.48	4.463
232.85	4.157
233.21	3.980
233.58	5.296
233.94	5.042
234.31	5.665
234.68	7.588
235.04	9.673
235.41	8.694
235.77	8.971
236.14	9.348
236.50	10.403
236.87	10.900
237.23	11.917
237.60	11.188
237.96	10.205
238.33	9.687
238.69	7.725
239.06	6.300
239.42	5.951
239.79	5.954
240.15	6.751
240.52	5.899
240.88	6.334
241.25	6.145
241.61	6.505
241.98	7.146
242.34	7.220
242.71	8.078
243.07	8.041
243.44	8.095
243.80	8.229
244.17	7.986
244.53	7.922
244.90	7.613
245.26	7.622
245.63	7.762
245.99	7.621
246.36	7.801
246.72	7.505
247.09	7.638
247.45	7.524
247.81	7.546
248.18	7.502
248.54	7.631
248.91	7.410
249.27	7.172
249.64	6.860
250.00	6.315
250.36	6.083
250.73	6.221
251.09	5.870
251.46	6.567
251.82	6.410
252.19	5.985
252.55	6.087
252.91	6.476
253.28	6.449
253.64	5.989
254.01	6.327
254.37	6.341
254.73	6.381
255.10	6.911
255.46	6.358
255.83	6.590
256.19	6.723
256.55	6.544
256.92	6.621
257.28	6.689
257.65	6.821
258.01	6.593
258.37	6.670
258.74	6.641
259.10	6.543
259.46	6.462
259.83	6.232
260.19	6.318
260.55	6.313
260.92	6.060
261.28	6.046
261.64	5.937
262.01	6.241
262.37	6.391
262.73	5.974
263.10	5.811
263.46	5.981
263.82	6.196
264.19	6.059
264.55	5.747
264.91	5.829
265.28	5.537
265.64	5.830
266.00	5.708
266.37	5.137
266.73	5.542
267.09	5.656
267.46	5.954
267.82	5.939
268.18	5.698
268.54	5.883
268.91	6.010
269.27	6.248
269.63	5.926
270.00	6.176
270.36	6.654
270.72	6.498
271.08	6.477
271.45	6.518
271.81	6.448
272.17	6.524
272.53	6.529
272.90	6.331
273.26	6.205
273.62	6.410
273.98	6.450
274.35	6.359
274.71	6.458
275.07	6.453
275.43	6.105
275.80	6.023
276.16	6.166
276.52	6.228
276.88	6.310
277.25	6.248
277.61	6.182
277.97	5.866
278.33	5.800
278.69	5.966
279.06	5.699
279.42	5.533
279.78	5.671
280.14	5.801
280.50	5.807
280.87	5.995
281.23	6.074
281.59	5.837
281.95	5.682
282.31	5.567
282.68	5.259
283.04	5.574
283.40	5.751
283.76	5.573
284.12	5.228
284.48	5.128
284.85	5.325
285.21	5.380
285.57	5.526
285.93	5.635
286.29	5.899
286.65	6.251
287.02	6.427
287.38	6.238
287.74	6.375
288.10	6.667
288.46	6.813
288.82	6.395
289.18	6.361
289.54	6.618
289.91	6.657
290.27	6.627
290.63	6.253
290.99	5.998
291.35	6.137
291.71	6.147
292.07	6.162
292.43	6.191
292.79	6.387
293.16	6.384
293.52	6.280
293.88	6.463
294.24	6.394
294.60	6.660
294.96	6.609
295.32	6.444
295.68	6.461
296.04	6.429
296.40	6.407
296.76	6.437
297.12	6.444
297.49	6.357
297.85	6.123
298.21	6.208
298.57	6.194
298.93	6.108
299.29	6.449
299.65	6.400
300.01	6.606
300.37	6.780
300.73	6.833
301.09	6.971
301.45	6.876
301.81	6.882
302.17	6.822
302.53	6.906
302.89	6.914
303.25	6.892
303.61	6.891
303.97	6.630
304.33	6.606
304.69	6.526
305.05	6.440
305.41	6.394
305.77	6.603
306.13	6.738
306.49	6.571
306.85	6.577
307.21	6.464
307.57	6.318
307.93	6.519
308.29	6.467
308.65	6.361
309.01	6.345
309.37	6.584
309.73	6.525
310.09	6.187
310.45	6.212
310.81	6.311
311.17	6.224
311.53	6.329
311.89	6.206
312.25	6.152
312.61	6.206
312.96	6.165
313.32	5.842
313.68	5.731
314.04	5.896
314.40	5.858
314.76	5.882
315.12	6.042
315.48	5.984
315.84	5.927
316.20	5.871
316.56	5.882
316.92	5.883
317.27	6.025
317.63	6.125
317.99	6.109
318.35	6.032
318.71	5.893
319.07	5.819
319.43	5.818
319.79	5.940
320.15	5.936
320.50	5.832
320.86	5.758
321.22	5.728
321.58	5.460
321.94	5.450
322.30	5.367
322.66	5.479
323.01	5.412
323.37	5.440
323.73	5.212
324.09	5.203
324.45	5.277
324.81	5.342
325.17	5.498
325.52	5.699
325.88	5.757
326.24	5.874
326.60	5.887
326.96	5.924
327.31	5.829
327.67	5.985
328.03	6.074
328.39	6.092
328.75	6.004
329.11	5.899
329.46	6.010
329.82	5.989
330.18	6.104
330.54	6.107
330.90	6.122
331.25	6.324
331.61	6.320
331.97	6.383
332.33	6.400
332.68	6.457
333.04	6.500
333.40	6.437
333.76	6.528
334.11	6.685
334.47	6.679
334.83	6.758
335.19	6.774
335.54	6.956
335.90	6.913
336.26	6.861
336.62	7.026
336.97	7.057
337.33	7.068
337.69	6.931
338.05	6.755
338.40	6.780
338.76	6.818
339.12	6.939
339.48	6.892
339.83	6.918
340.19	7.103
340.55	7.056
340.90	7.159
341.26	7.275
341.62	7.431
341.97	7.450
342.33	7.350
342.69	7.351
343.04	7.250
343.40	7.223
343.76	7.275
344.12	7.156
344.47	7.114
344.83	7.048
345.19	6.956
345.54	6.928
345.90	6.994
346.26	7.060
346.61	6.955
346.97	6.955
347.32	6.885
347.68	6.831
348.04	6.857
348.39	6.921
348.75	6.866
349.11	6.915
349.46	6.866
349.82	6.786
350.18	6.768
350.53	6.870
350.89	6.902
351.24	6.965
351.60	6.940
351.96	7.038
352.31	7.002
352.67	7.022
353.02	7.065
353.38	7.092
353.74	7.228
354.09	7.207
354.45	7.199
354.80	7.178
355.16	7.191
355.52	7.247
355.87	7.246
356.23	7.250
356.58	7.321
356.94	7.249
357.29	7.291
357.65	7.248
358.00	7.341
358.36	7.403
358.72	7.451
359.07	7.406
359.43	7.432
359.78	7.459
360.14	7.530
360.49	7.521
360.85	7.540
361.20	7.454
361.56	7.380
361.91	7.346
362.27	7.257
362.62	7.158
362.98	7.095
363.33	7.085
363.69	6.979
364.04	6.853
364.40	6.747
364.75	6.672
365.11	6.691
365.46	6.691
365.82	6.593
366.17	6.480
366.53	6.432
366.88	6.421
367.24	6.278
367.59	6.173
367.95	6.284
368.30	6.384
368.66	6.387
369.01	6.410
369.37	6.484
369.72	6.575
370.08	6.621
370.43	6.618
370.78	6.754
371.14	6.809
371.49	6.992
371.85	6.996
372.20	6.918
372.56	6.943
372.91	6.944
373.26	6.862
373.62	6.785
373.97	6.793
374.33	6.795
374.68	6.677
375.03	6.657
375.39	6.508
375.74	6.456
376.10	6.466
376.45	6.429
376.80	6.378
377.16	6.352
377.51	6.399
377.87	6.446
378.22	6.529
378.57	6.626
378.93	6.771
379.28	6.897
379.63	6.949
379.99	7.053
380.34	7.115
380.70	7.271
381.05	7.347
381.40	7.446
381.76	7.466
382.11	7.477
382.46	7.457
382.82	7.406
383.17	7.380
383.52	7.386
383.88	7.287
384.23	7.319
384.58	7.250
384.94	7.288
385.29	7.216
385.64	7.192
385.99	7.154
386.35	7.116
386.70	7.023
387.05	6.946
387.41	6.897
387.76	6.935
388.11	6.915
388.47	6.882
388.82	6.877
389.17	6.867
389.52	6.893
389.88	6.954
390.23	7.009
390.58	7.081
390.93	7.118
391.29	7.123
391.64	7.100
391.99	7.039
392.34	7.018
392.70	6.882
393.05	6.881
393.40	6.812
393.75	6.677
394.11	6.511
394.46	6.397
394.81	6.314
395.16	6.181
395.52	6.007
395.87	5.908
396.22	5.734
396.57	5.614
396.92	5.398
397.28	5.231
397.63	5.038
397.98	4.879
398.33	4.711
398.68	4.561
399.04	4.495
399.39	4.397
399.74	4.316
400.09	4.276
400.44	4.285
400.80	4.332
401.15	4.315
401.50	4.393
401.85	4.482
402.20	4.516
402.55	4.542
402.90	4.529
403.26	4.557
403.61	4.502
403.96	4.491
404.31	4.435
404.66	4.360
405.01	4.318
405.36	4.247
405.72	4.155
406.07	4.069
406.42	3.979
406.77	3.893
407.12	3.879
407.47	3.864
407.82	3.814
408.17	3.753
408.53	3.712
408.88	3.672
409.23	3.594
409.58	3.551
409.93	3.520
410.28	3.476
410.63	3.457
410.98	3.375
411.33	3.376
411.68	3.338
412.03	3.361
412.38	3.349
412.73	3.419
413.09	3.492
413.44	3.593
413.79	3.710
414.14	3.825
414.49	3.968
414.84	4.133
415.19	4.244
415.54	4.403
415.89	4.541
416.24	4.692
416.59	4.798
416.94	4.898
417.29	4.987
417.64	5.048
417.99	5.120
418.34	5.173
418.69	5.186
419.04	5.243
419.39	5.273
419.74	5.308
420.09	5.329
420.44	5.330
420.79	5.320
421.14	5.287
421.49	5.275
421.84	5.244
422.19	5.199
422.54	5.149
422.89	5.077
423.24	5.010
423.59	4.920
423.94	4.804
424.29	4.718
424.64	4.639
424.99	4.536
425.34	4.451
425.68	4.361
426.03	4.237
426.38	4.157
426.73	4.071
427.08	4.012
427.43	3.963
427.78	3.988
428.13	4.011
428.48	4.024
428.83	4.080
429.18	4.077
429.53	4.098
429.87	4.133
430.22	4.143
430.57	4.143
430.92	4.133
431.27	4.126
431.62	4.101
431.97	4.059
432.32	3.994
432.67	3.925
433.01	3.888
433.36	3.802
433.71	3.738
434.06	3.704
434.41	3.704
434.76	3.702
435.11	3.705
435.45	3.698
435.80	3.733
436.15	3.819
436.50	3.870
436.85	3.943
437.20	4.016
437.54	4.080
437.89	4.111
438.24	4.118
438.59	4.101
438.94	4.054
439.29	4.044
439.63	3.962
439.98	3.901
440.33	3.850
440.68	3.772
441.03	3.742
441.37	3.731
441.72	3.740
442.07	3.778
442.42	3.849
442.76	3.921
443.11	3.978
443.46	4.078
443.81	4.122
444.16	4.168
444.50	4.188
444.85	4.193
445.20	4.162
445.55	4.089
445.89	3.997
446.24	3.864
446.59	3.749
446.94	3.589
447.28	3.419
447.63	3.261
447.98	3.096
448.32	2.956
448.67	2.824
449.02	2.683
449.37	2.617
449.71	2.559
450.06	2.544
450.41	2.529
450.75	2.569
451.10	2.573
451.45	2.564
451.79	2.561
452.14	2.536
452.49	2.496
452.84	2.525
453.18	2.510
453.53	2.497
453.88	2.511
454.22	2.532
454.57	2.549
454.92	2.628
455.26	2.722
455.61	2.831
455.95	2.981
456.30	3.114
456.65	3.229
456.99	3.345
457.34	3.447
457.69	3.512
458.03	3.579
458.38	3.614
458.73	3.618
459.07	3.582
459.42	3.549
459.76	3.462
460.11	3.352
460.46	3.231
460.80	3.102
461.15	2.985
461.49	2.863
461.84	2.737
462.19	2.634
462.53	2.544
462.88	2.535
463.22	2.526
463.57	2.539
463.91	2.567
464.26	2.598
464.61	2.634
464.95	2.684
465.30	2.739
465.64	2.780
465.99	2.793
466.33	2.813
466.68	2.819
467.02	2.794
467.37	2.783
467.71	2.765
468.06	2.757
468.41	2.730
468.75	2.655
469.10	2.584
469.44	2.537
469.79	2.492
470.13	2.426
470.48	2.350
470.82	2.294
471.17	2.228
471.51	2.188
471.86	2.098
472.20	2.047
472.55	2.030
472.89	1.972
473.23	1.896
473.58	1.852
473.92	1.825
474.27	1.800
474.61	1.798
474.96	1.785
475.30	1.779
475.65	1.780
475.99	1.780
476.34	1.768
476.68	1.828
477.02	1.872
477.37	1.921
477.71	1.994
478.06	2.140
478.40	2.362
478.75	2.695
479.09	3.092
479.43	3.484
479.78	3.835
480.12	4.162
480.47	4.453
480.81	4.723
481.15	4.976
481.50	5.205
481.84	5.420
482.19	5.609
482.53	5.755
482.87	5.838
483.22	5.851
483.56	5.819
483.90	5.760
484.25	5.698
484.59	5.625
484.94	5.534
485.28	5.423
485.62	5.273
485.97	5.110
486.31	4.952
486.65	4.817
487.00	4.737
487.34	4.692
487.68	4.658
488.03	4.611
488.37	4.552
488.71	4.501
489.06	4.452
489.40	4.401
489.74	4.348
490.09	4.286
490.43	4.189
490.77	4.092
491.11	3.964
491.46	3.838
491.80	3.711
492.14	3.587
492.49	3.438
492.83	3.287
493.17	3.160
493.51	3.027
493.86	2.913
494.20	2.848
494.54	2.824
494.88	2.881
495.23	2.954
495.57	3.005
495.91	3.108
496.25	3.214
496.60	3.306
496.94	3.398
497.28	3.499
497.62	3.561
497.97	3.645
498.31	3.717
498.65	3.791
498.99	3.880
499.33	4.002
499.68	4.115
500.02	4.246
500.36	4.434
500.70	4.601
501.04	4.775
501.39	4.987
501.73	5.212
502.07	5.469
502.41	5.726
502.75	5.997
503.09	6.293
503.44	6.593
503.78	6.919
504.12	7.243
504.46	7.607
504.80	7.980
505.14	8.367
505.49	8.742
505.83	9.117
506.17	9.524
506.51	9.925
506.85	10.349
507.19	10.782
507.53	11.172
507.87	11.581
508.22	11.984
508.56	12.409
508.90	12.844
509.24	13.274
509.58	13.691
509.92	14.108
510.26	14.550
510.60	14.979
510.94	15.403
511.28	15.869
511.63	16.346
511.97	16.848
512.31	17.359
512.65	17.907
512.99	18.477
513.33	19.138
513.67	19.849
514.01	20.579
514.35	21.316
514.69	22.054
515.03	22.780
515.37	23.459
515.71	24.093
516.05	24.695
516.39	25.269
516.73	25.804
517.07	26.294
517.41	26.732
517.75	27.124
518.09	27.475
518.43	27.814
518.77	28.162
519.11	28.524
519.45	28.902
519.79	29.292
520.13	29.733
520.47	30.222
520.81	30.772
521.15	31.362
521.49	31.991
521.83	32.596
522.17	33.263
522.51	33.942
522.85	34.636
523.19	35.424
523.53	36.329
523.87	37.299
524.21	38.236
524.55	39.063
524.89	39.826
525.23	40.497
525.57	41.117
525.91	41.667
526.25	42.154
526.58	42.602
526.92	42.995
527.26	43.311
527.60	43.519
527.94	43.690
528.28	43.850
528.62	43.959
528.96	44.102
529.30	44.244
529.64	44.351
529.97	44.467
530.31	44.594
530.65	44.723
530.99	44.866
531.33	45.060
531.67	45.258
532.01	45.454
532.35	45.669
532.68	45.831
533.02	45.953
533.36	46.069
533.70	46.167
534.04	46.260
534.38	46.344
534.71	46.406
535.05	46.472
535.39	46.527
535.73	46.635
536.07	46.773
536.41	46.962
536.74	47.258
537.08	47.605
537.42	47.994
537.76	48.347
538.10	48.699
538.43	49.041
538.77	49.344
539.11	49.639
539.45	49.921
539.79	50.147
540.12	50.353
540.46	50.448
540.80	50.481
541.14	50.496
541.47	50.486
541.81	50.495
542.15	50.466
542.49	50.420
542.82	50.354
543.16	50.258
543.50	50.158
543.84	50.021
544.17	49.941
544.51	49.926
544.85	49.884
545.18	49.924
545.52	49.841
545.86	49.795
546.20	49.722
546.53	49.706
546.87	49.638
547.21	49.575
547.54	49.557
547.88	49.578
548.22	49.579
548.55	49.564
548.89	49.464
549.23	49.487
549.56	49.535
549.90	49.585
550.24	49.602
550.57	49.633
550.91	49.664
551.25	49.673
551.58	49.738
551.92	49.736
552.26	49.764
552.59	49.790
552.93	49.753
553.27	49.707
553.60	49.726
553.94	49.728
554.27	49.735
554.61	49.775
554.95	49.810
555.28	49.760
555.62	49.790
555.95	49.815
556.29	49.866
556.63	49.936
556.96	49.994
557.30	49.998
557.63	49.966
557.97	49.952
558.31	49.947
558.64	49.948
558.98	50.020
559.31	50.001
559.65	49.943
559.98	49.909
560.32	49.901
560.65	49.904
560.99	49.922
561.33	49.980
561.66	50.067
562.00	50.100
562.33	50.113
562.67	50.079
563.00	50.114
563.34	50.172
563.67	50.238
564.01	50.252
564.34	50.275
564.68	50.267
565.01	50.246
565.35	50.193
565.68	50.157
566.02	50.127
566.35	50.102
566.69	50.066
567.02	50.047
567.36	49.973
567.69	49.922
568.03	49.905
568.36	49.871
568.69	49.818
569.03	49.749
569.36	49.728
569.70	49.705
570.03	49.662
570.37	49.649
570.70	49.627
571.04	49.580
571.37	49.543
571.70	49.456
572.04	49.401
572.37	49.385
572.71	49.351
573.04	49.266
573.37	49.213
573.71	49.137
574.04	48.990
574.38	48.803
574.71	48.693
575.04	48.621
575.38	48.504
575.71	48.381
576.05	48.197
576.38	48.053
576.71	47.858
577.05	47.662
577.38	47.443
577.71	47.275
578.05	47.133
578.38	46.952
578.71	46.712
579.05	46.502
579.38	46.322
579.71	46.165
580.05	45.988
580.38	45.867
580.71	45.712
581.05	45.624
581.38	45.527
581.71	45.479
582.05	45.368
582.38	45.277
582.71	45.194
583.04	45.133
583.38	45.057
583.71	44.960
584.04	44.896
584.38	44.815
584.71	44.756
585.04	44.703
585.37	44.611
585.71	44.585
586.04	44.513
586.37	44.455
586.70	44.344
587.04	44.246
587.37	44.240
587.70	44.121
588.03	44.020
588.37	43.896
588.70	43.767
589.03	43.620
589.36	43.439
589.69	43.311
590.03	43.156
590.36	43.030
590.69	42.850
591.02	42.662
591.35	42.548
591.69	42.463
592.02	42.371
592.35	42.270
592.68	42.175
593.01	42.125
593.35	42.051
593.68	41.965
594.01	41.862
594.34	41.795
594.67	41.695
595.00	41.647
595.34	41.521
595.67	41.367
596.00	41.207
596.33	41.072
596.66	40.870
596.99	40.667
597.32	40.480
597.65	40.276
597.99	40.116
598.32	39.909
598.65	39.682
598.98	39.496
599.31	39.317
599.64	39.185
599.97	39.083
600.30	38.993
600.63	38.942
600.96	38.898
601.30	38.894
601.63	38.825
601.96	38.766
602.29	38.661
602.62	38.611
602.95	38.550
603.28	38.453
603.61	38.332
603.94	38.267
604.27	38.140
604.60	38.000
604.93	37.818
605.26	37.698
605.59	37.565
605.92	37.450
606.25	37.307
606.58	37.211
606.91	37.114
607.24	37.014
607.57	36.877
607.90	36.767
608.23	36.672
608.56	36.601
608.89	36.481
609.22	36.336
609.55	36.193
609.88	36.014
610.21	35.866
610.54	35.705
610.87	35.503
611.20	35.297
611.53	35.074
611.86	34.916
612.19	34.696
612.52	34.494
612.85	34.370
613.18	34.246
613.51	34.134
613.84	33.950
614.17	33.859
614.49	33.759
614.82	33.683
615.15	33.553
615.48	33.446
615.81	33.394
616.14	33.308
616.47	33.187
616.80	33.120
617.13	33.051
617.46	32.988
617.78	32.839
618.11	32.762
618.44	32.672
618.77	32.642
619.10	32.552
619.43	32.439
619.76	32.359
620.09	32.300
620.41	32.181
620.74	32.076
621.07	31.968
621.40	31.873
621.73	31.784
622.06	31.769
622.38	31.744
622.71	31.657
623.04	31.614
623.37	31.579
623.70	31.566
624.02	31.564
624.35	31.522
624.68	31.513
625.01	31.517
625.34	31.505
625.66	31.442
625.99	31.330
626.32	31.307
626.65	31.258
626.98	31.183
627.30	31.064
627.63	30.990
627.96	30.880
628.29	30.787
628.61	30.661
628.94	30.499
629.27	30.378
629.60	30.354
629.92	30.239
630.25	30.113
630.58	30.027
630.91	29.891
631.23	29.766
631.56	29.761
631.89	29.675
632.21	29.598
632.54	29.568
632.87	29.502
633.19	29.389
633.52	29.319
633.85	29.264
634.18	29.190
634.50	29.139
634.83	29.016
635.16	28.834
635.48	28.691
635.81	28.591
636.14	28.479
636.46	28.311
636.79	28.190
637.11	28.077
637.44	27.966
637.77	27.827
638.09	27.738
638.42	27.645
638.75	27.594
639.07	27.499
639.40	27.453
639.73	27.286
640.05	27.211
640.38	27.124
640.70	27.069
641.03	26.948
641.36	26.897
641.68	26.853
642.01	26.819
642.33	26.790
642.66	26.764
642.98	26.718
643.31	26.738
643.64	26.745
643.96	26.668
644.29	26.611
644.61	26.633
644.94	26.597
645.26	26.586
645.59	26.538
645.91	26.455
646.24	26.452
646.56	26.293
646.89	26.283
647.22	26.117
647.54	26.152
647.87	26.054
648.19	25.973
648.52	25.969
648.84	25.903
649.17	25.844
649.49	25.829
649.82	25.730
650.14	25.730
650.47	25.655
650.79	25.740
651.11	25.681
651.44	25.624
651.76	25.628
652.09	25.576
652.41	25.512
652.74	25.475
653.06	25.340
653.39	25.363
653.71	25.366
654.04	25.297
654.36	25.198
654.68	25.201
655.01	25.296
655.33	25.277
655.66	25.264
655.98	25.257
656.30	25.299
656.63	25.356
656.95	25.319
657.28	25.237
657.60	25.178
657.92	25.125
658.25	24.991
658.57	24.903
658.90	24.778
659.22	24.609
659.54	24.529
659.87	24.399
660.19	24.248
660.51	24.022
660.84	23.885
661.16	23.790
661.48	23.658
661.81	23.498
662.13	23.318
662.45	23.170
662.78	23.092
663.10	22.993
663.42	22.815
663.75	22.673
664.07	22.643
664.39	22.630
664.72	22.548
665.04	22.479
665.36	22.482
665.69	22.454
666.01	22.422
666.33	22.368
666.65	22.321
666.98	22.314
667.30	22.303
667.62	22.329
667.94	22.239
668.27	22.194
668.59	22.158
668.91	22.045
669.23	21.942
669.56	21.917
669.88	21.781
670.20	21.613
670.52	21.521
670.85	21.399
671.17	21.241
671.49	21.189
671.81	21.128
672.13	21.039
672.46	20.967
672.78	20.878
673.10	20.793
673.42	20.750
673.74	20.698
674.07	20.705
674.39	20.738
674.71	20.721
675.03	20.612
675.35	20.530
675.67	20.549
676.00	20.648
676.32	20.741
676.64	20.703
676.96	20.836
677.28	20.926
677.60	20.910
677.92	20.951
678.25	20.958
678.57	21.024
678.89	21.065
679.21	21.072
679.53	21.023
679.85	20.949
680.17	20.923
680.49	20.749
680.81	20.663
681.13	20.561
681.46	20.502
681.78	20.460
682.10	20.411
682.42	20.377
682.74	20.307
683.06	20.404
683.38	20.345
683.70	20.447
684.02	20.587
684.34	20.596
684.66	20.741
684.98	20.819
685.30	20.877
685.62	20.855
685.94	20.805
686.26	20.843
686.58	20.686
686.90	20.722
687.22	20.510
687.54	20.367
687.86	20.302
688.18	20.090
688.50	19.816
688.82	19.628
689.14	19.484
689.46	19.397
689.78	19.175
690.10	18.982
690.42	18.768
690.74	18.694
691.06	18.540
691.38	18.425
691.70	18.332
692.02	18.220
692.34	18.082
692.66	18.026
692.98	17.965
693.30	17.946
693.62	18.108
693.94	18.189
694.26	18.222
694.57	18.369
694.89	18.459
695.21	18.616
695.53	18.732
695.85	18.897
696.17	18.988
696.49	19.067
696.81	19.146
697.13	19.170
697.44	19.120
697.76	19.155
698.08	19.005
698.40	18.845
698.72	18.593
699.04	18.389
699.36	18.038
699.67	17.663
699.99	17.226
700.31	16.836
700.63	16.335
700.95	15.887
701.27	15.336
701.58	14.893
701.90	14.580
702.22	14.342
702.54	14.054
702.86	13.896
703.17	13.866
703.49	13.837
703.81	13.749
704.13	13.611
704.45	13.584
704.76	13.558
705.08	13.514
705.40	13.481
705.72	13.407
706.03	13.376
706.35	13.449
706.67	13.414
706.99	13.317
707.30	13.274
707.62	13.221
707.94	13.202
708.26	13.295
708.57	13.490
708.89	13.450
709.21	13.474
709.53	13.581
709.84	13.486
710.16	13.449
710.48	13.465
710.79	13.479
711.11	13.512
711.43	13.650
711.74	13.566
712.06	13.537
712.38	13.629
712.69	13.656
713.01	13.766
713.33	13.947
713.64	14.117
713.96	14.343
714.28	14.585
714.59	14.741
714.91	14.766
715.23	14.974
715.54	14.961
715.86	14.934
716.17	14.931
716.49	14.754
716.81	14.599
717.12	14.384
717.44	14.122
717.76	13.742
718.07	13.353
718.39	13.020
718.70	12.526
719.02	12.238
719.33	12.078
719.65	11.803
719.97	11.540
720.28	11.293
720.60	11.067
720.91	10.793
721.23	10.746
721.54	10.757
721.86	10.851
722.17	11.049
722.49	11.159
722.81	11.086
723.12	11.277
723.44	11.502
723.75	11.478
724.07	11.590
724.38	11.831
724.70	11.853
725.01	11.960
725.33	11.908
725.64	11.849
725.96	11.739
726.27	11.771
726.59	11.699
726.90	11.610
727.22	11.722
727.53	11.913
727.84	11.878
728.16	11.847
728.47	11.876
728.79	11.918
729.10	11.865
729.42	11.677
729.73	11.513
730.05	11.407
730.36	11.381
730.67	11.243
730.99	10.795
731.30	10.670
731.62	10.392
731.93	10.080
732.24	9.573
732.56	9.328
732.87	9.183
733.19	8.926
733.50	8.582
733.81	8.009
734.13	7.500
734.44	7.332
734.76	6.897
735.07	6.572
735.38	6.326
735.70	6.205
736.01	6.007
736.32	5.759
736.64	5.550
736.95	5.205
737.26	5.157
737.58	5.143
737.89	5.005
738.20	4.728
738.52	4.665
738.83	4.150
739.14	3.927
739.45	3.595
739.77	3.306
740.08	3.058
740.39	2.940
740.71	2.579
741.02	2.009
741.33	1.540
741.64	1.263
741.96	0.631
742.27	0.526
742.58	0.074
742.90	-0.246
743.21	-0.328
743.52	-0.736
743.83	-0.908
744.14	-1.052
744.46	-0.962
744.77	-0.998
745.08	-0.903
745.39	-0.757
745.71	-0.701
746.02	-0.945
746.33	-1.075
746.64	-0.987
746.95	-0.837
747.27	-0.961
747.58	-0.872
747.89	-1.138
748.20	-1.075
748.51	-1.362
748.82	-1.376
749.14	-1.372
749.45	-0.908
749.76	-0.845
750.07	-1.096
750.38	-1.057
750.69	-1.149
751.01	-1.270
751.32	-1.195
751.63	-1.485
751.94	-1.685
752.25	-1.629
752.56	-2.071
752.87	-2.351
753.18	-2.354
753.49	-2.515
753.81	-2.588
754.12	-2.003
754.43	-1.705
754.74	-1.013
755.05	-0.248
755.36	0.651
755.67	1.453
755.98	2.814
756.29	4.251
756.60	5.262
756.91	6.778
757.22	8.215
757.53	9.365
757.84	10.580
758.15	11.867
758.46	13.093
758.77	14.024
759.09	14.957
759.40	15.683
759.71	16.118
760.02	16.582
760.33	16.832
760.64	16.988
760.95	16.973
761.26	16.928
761.57	16.715
761.88	16.547
762.18	16.381
762.49	16.116
762.80	15.778
763.11	15.331
763.42	14.916
763.73	14.242
764.04	13.451
764.35	12.616
764.66	11.708
764.97	10.615
765.28	9.049
765.59	7.626
765.90	5.962
766.21	4.502
766.52	2.923
766.83	1.342
767.14	-0.018
767.44	-1.370
767.75	-2.595
768.06	-3.530
768.37	-4.309
768.68	-4.980
768.99	-5.757
769.30	-6.307
769.61	-7.498
769.91	-7.691
770.22	-8.165
770.53	-8.716
770.84	-9.359
771.15	-9.696
771.46	-10.672
771.77	-11.498
772.07	-11.758
772.38	-12.074
772.69	-12.481
773.00	-12.551
773.31	-13.188
773.61	-13.354
773.92	-12.914
774.23	-12.893
774.54	-12.943
774.85	-12.711
775.15	-12.446
775.46	-12.552
775.77	-12.338
776.08	-12.318
776.39	-12.279
776.69	-11.762
777.00	-11.668
777.31	-11.865
777.62	-11.328
777.92	-11.263
778.23	-11.112
778.54	-10.603
778.85	-10.224
779.15	-10.162
779.46	-10.065
779.77	-10.024
780.07	-10.977
780.38	-11.418
780.69	-11.083
781.00	-11.340
781.30	-11.053
781.61	-11.112
781.92	-11.312
782.22	-11.047
782.53	-10.964
782.84	-10.757
783.14	-10.348
783.45	-9.664
783.76	-9.052
784.06	-8.544
784.37	-7.770
784.68	-6.971
784.98	-6.305
785.29	-5.643
785.60	-4.993
785.90	-4.194
786.21	-3.526
786.51	-2.606
786.82	-1.648
787.13	-0.689
787.43	-1.037
787.74	-0.803
788.04	-1.082
788.35	-0.677
788.66	-1.024
788.96	-1.437
789.27	-1.750
789.57	-1.839
789.88	-2.319
790.19	-2.686
790.49	-3.369
790.80	-3.262
791.10	-3.454
791.41	-3.185
791.71	-3.727
792.02	-4.045
792.32	-4.207
792.63	-4.042
792.93	-4.476
793.24	-4.319
793.54	-3.951
793.85	-3.526
794.15	-2.927
794.46	-2.469
794.76	-2.249
795.07	-1.675
795.37	-0.538
795.68	0.009
795.98	0.179
796.29	0.731
796.59	0.833
796.90	0.454
797.20	-0.087
797.51	0.046
797.81	0.298
798.12	0.233
798.42	0.305
798.72	-0.930
799.03	-0.969
799.33	-1.039
799.64	-1.300
799.94	-1.532
800.25	-1.269
800.55	-1.087
800.85	-1.716
801.16	-2.577
801.46	-3.316
801.77	-3.518
802.07	-2.757
802.37	-2.813
802.68	-3.213
802.98	-2.870
803.28	-3.402
803.59	-3.322
803.89	-3.351
804.20	-2.914
804.50	-2.759
804.80	-2.160
805.11	-1.887
805.41	-1.634
805.71	-1.614
806.02	-1.269
806.32	-2.126
806.62	-1.869
806.93	-2.102
807.23	-2.274
807.53	-3.261
807.83	-2.945
808.14	-3.080
808.44	-3.048
808.74	-2.976
809.05	-2.831
809.35	-2.503
809.65	-1.379
809.95	-0.818
810.26	-0.657
810.56	0.549
810.86	1.201
811.16	1.896
811.47	2.108
811.77	2.128
812.07	1.948
812.37	2.657
812.68	3.123
812.98	3.458
813.28	4.190
813.58	5.620
813.88	5.950
814.19	7.253
814.49	8.064
814.79	8.705
815.09	9.403
815.39	10.689
815.70	10.510
816.00	10.744
816.30	11.577
816.60	11.973
816.90	12.049
817.20	12.765
817.50	13.467
817.81	14.267
818.11	15.387
818.41	16.306
818.71	16.989
819.01	17.750
819.31	18.444
819.61	18.909
819.92	19.423
820.22	19.748
820.52	20.092
820.82	20.392
821.12	20.552
821.42	20.675
821.72	20.795
822.02	20.878
822.32	20.986
822.62	21.025
822.92	21.048
823.22	20.980
823.52	20.910
823.83	20.717
824.13	20.485
824.43	20.283
824.73	20.242
825.03	20.108
825.33	19.919
825.63	19.807
825.93	19.566
826.23	19.350
826.53	19.243
826.83	19.124
827.13	18.916
827.43	18.838
827.73	18.670
828.03	18.367
828.33	18.107
828.63	17.715
828.93	17.156
829.23	16.874
829.53	16.400
829.83	15.859
830.13	15.436
830.42	15.497
830.72	15.548
831.02	15.746
831.32	15.951
831.62	15.816
831.92	16.062
832.22	16.235
832.52	16.579
832.82	16.521
833.12	16.529
833.42	16.818
833.72	16.788
834.01	16.482
834.31	16.064
834.61	15.874
834.91	15.687
835.21	15.242
835.51	14.704
835.81	13.650
836.11	13.019
836.40	11.747
836.70	10.361
837.00	9.337
837.30	8.821
837.60	8.441
837.90	8.064
838.19	7.228
838.49	7.330
838.79	7.383
839.09	7.146
839.39	7.343
839.68	7.445
839.98	8.348
840.28	7.902
840.58	7.581
840.88	6.852
841.17	4.962
841.47	5.277
841.77	4.344
842.07	2.844
842.36	1.039
842.66	-0.756
842.96	-2.820
843.26	-6.870
843.55	-8.781
843.85	-11.478
844.15	-13.093
844.45	-13.396
844.74	-15.829
845.04	-16.756
845.34	-17.197
845.63	-16.408
845.93	-15.394
846.23	-13.586
846.53	-12.397
846.82	-12.512
847.12	-13.252
847.42	-10.220
847.71	-8.441
848.01	-7.854
848.31	-9.038
848.60	-9.085
848.90	-7.691
849.19	-10.122
849.49	-11.258
849.79	-12.725
850.08	-12.407
850.38	-10.234
850.68	-11.360
850.97	-17.211
851.27	-17.181
851.56	-19.535
851.86	-20.507
852.16	-20.814
852.45	-18.322
852.75	-14.877
853.04	-13.626
853.34	-13.239
853.64	-14.587
853.93	-14.783
854.23	-12.660
854.52	-15.531
854.82	-10.601
855.11	-9.045
855.41	-12.070
855.70	-11.727
856.00	-14.142
856.30	-14.056
856.59	-12.023
856.89	-11.516
857.18	-12.168
857.48	-10.796
857.77	-8.683
858.07	-10.564
858.36	-11.548
858.66	-9.218
858.95	-9.822
859.25	-7.581
859.54	-7.376
859.84	-10.608
860.13	-10.663
860.42	-9.223
860.72	-9.072
861.01	-10.010
861.31	-11.266
861.60	-9.813
861.90	-8.514
862.19	-6.781
862.49	-6.677
862.78	-6.040
863.07	-3.683
863.37	-2.263
863.66	-1.293
863.96	-1.364
864.25	-1.250
864.54	0.161
864.84	-0.399
865.13	1.009
865.43	1.184
865.72	-18.272
866.01	-5.863
866.31	-7.393
866.60	13.114
866.89	12.021
>>>>>End Spectral Data<<<<<
