OOIBase32 Version 2.0.0.6 Data File
++++++++++++++++++++++++++++++++++++
Date: 01-22-2012, 22:06:57
User: Valued Ocean Optics Customer
Spectrometer Serial Number: USB2E2917
Spectrometer Channel: Master
Integration Time (msec): 4
Spectra Averaged: 10
Boxcar Smoothing: 5
Correct for Electrical Dark: Enabled
Time Normalized: Disabled
Dual-beam Reference: Disabled
Reference Channel: Master
Temperature: Not acquired
Spectrometer Type: S2000
ADC Type: USB2000
Number of Pixels in File: 2048
Graph Title: 
>>>>>Begin Spectral Data<<<<<
180.30	0.000
180.67	0.000
181.03	53.877
181.40	42.605
181.77	638.045
182.14	85.301
182.51	-52.436
182.88	103.154
183.25	87.278
183.62	92.404
183.99	111.020
184.36	-103.751
184.73	39.763
185.10	802.721
185.46	110.699
185.83	6119.660
186.20	-70.618
186.57	1346.564
186.94	-199.652
187.31	42.303
187.68	296.705
188.05	-573.641
188.42	-352.328
188.78	918.016
189.15	57.350
189.52	26.391
189.89	74.062
190.26	55.196
190.63	10.897
191.00	6.464
191.37	-6.333
191.73	-74.453
192.10	-54.164
192.47	-25.539
192.84	-16.542
193.21	-4.716
193.58	11.744
193.94	14.385
194.31	11.793
194.68	11.519
195.05	15.953
195.42	16.683
195.79	12.688
196.15	24.889
196.52	24.380
196.89	20.665
197.26	23.063
197.63	27.943
198.00	18.630
198.36	2.363
198.73	28.071
199.10	19.350
199.47	-5.564
199.84	28.216
200.20	40.661
200.57	12.406
200.94	21.699
201.31	-0.354
201.68	-49.299
202.04	-22.731
202.41	-23.335
202.78	-22.936
203.15	-32.103
203.51	12.096
203.88	21.943
204.25	23.357
204.62	31.451
204.98	24.930
205.35	33.747
205.72	59.739
206.09	56.553
206.46	52.622
206.82	64.709
207.19	66.118
207.56	40.514
207.92	28.815
208.29	31.675
208.66	41.858
209.03	49.456
209.39	49.155
209.76	41.705
210.13	22.569
210.50	21.450
210.86	15.597
211.23	22.643
211.60	34.854
211.96	16.358
212.33	-4.402
212.70	-27.933
213.07	-12.268
213.43	-24.758
213.80	-36.884
214.17	-14.441
214.53	-13.624
214.90	-0.599
215.27	5.399
215.63	-21.203
216.00	-30.253
216.37	-22.334
216.74	-9.407
217.10	-20.938
217.47	-6.498
217.84	5.186
218.20	15.087
218.57	6.189
218.94	-14.958
219.30	-27.737
219.67	-0.219
220.04	18.118
220.40	9.490
220.77	6.748
221.13	10.401
221.50	5.656
221.87	2.439
222.23	-0.875
222.60	2.063
222.97	5.348
223.33	1.667
223.70	2.318
224.07	-1.433
224.43	0.745
224.80	-2.467
225.16	-1.741
225.53	0.953
225.90	3.574
226.26	0.750
226.63	1.319
226.99	0.366
227.36	1.935
227.73	2.152
228.09	4.395
228.46	5.332
228.82	6.533
229.19	3.661
229.56	2.679
229.92	1.143
230.29	2.337
230.65	3.453
231.02	6.251
231.38	3.311
231.75	3.292
232.12	1.819
232.48	1.712
232.85	1.047
233.21	2.607
233.58	1.378
233.94	-1.336
234.31	-1.310
234.68	-1.076
235.04	-2.567
235.41	2.613
235.77	3.677
236.14	2.846
236.50	-1.323
236.87	-1.188
237.23	0.635
237.60	1.556
237.96	3.401
238.33	3.923
238.69	2.516
239.06	3.420
239.42	2.238
239.79	1.628
240.15	2.478
240.52	4.185
240.88	3.942
241.25	3.938
241.61	4.109
241.98	3.806
242.34	2.888
242.71	2.888
243.07	2.652
243.44	2.538
243.80	2.348
244.17	2.567
244.53	2.433
244.90	2.775
245.26	2.869
245.63	3.387
245.99	3.774
246.36	4.128
246.72	4.340
247.09	4.621
247.45	4.994
247.81	5.134
248.18	5.153
248.54	5.639
248.91	6.080
249.27	5.786
249.64	5.366
250.00	4.915
250.36	5.176
250.73	5.414
251.09	4.895
251.46	4.497
251.82	4.807
252.19	3.414
252.55	3.153
252.91	1.991
253.28	2.395
253.64	2.458
254.01	3.145
254.37	3.927
254.73	3.908
255.10	3.342
255.46	3.449
255.83	3.194
256.19	3.908
256.55	3.928
256.92	3.784
257.28	3.941
257.65	3.861
258.01	3.569
258.37	3.247
258.74	3.249
259.10	3.468
259.46	3.469
259.83	3.384
260.19	3.214
260.55	2.990
260.92	3.072
261.28	2.773
261.64	2.580
262.01	2.834
262.37	2.576
262.73	2.787
263.10	3.032
263.46	2.797
263.82	2.767
264.19	2.900
264.55	3.005
264.91	3.160
265.28	2.930
265.64	3.343
266.00	3.184
266.37	3.253
266.73	2.905
267.09	2.772
267.46	2.859
267.82	3.072
268.18	3.264
268.54	3.111
268.91	2.984
269.27	3.420
269.63	3.128
270.00	3.143
270.36	2.890
270.72	2.952
271.08	3.065
271.45	3.101
271.81	3.065
272.17	2.801
272.53	2.904
272.90	2.932
273.26	2.785
273.62	2.809
273.98	3.114
274.35	3.129
274.71	3.169
275.07	3.322
275.43	3.489
275.80	3.718
276.16	4.070
276.52	3.964
276.88	4.059
277.25	3.624
277.61	3.655
277.97	3.075
278.33	3.518
278.69	3.734
279.06	3.355
279.42	3.348
279.78	3.350
280.14	3.278
280.50	3.553
280.87	3.587
281.23	4.134
281.59	4.202
281.95	4.472
282.31	4.499
282.68	4.181
283.04	4.336
283.40	4.256
283.76	4.235
284.12	4.225
284.48	4.044
284.85	4.138
285.21	3.933
285.57	3.761
285.93	3.770
286.29	3.487
286.65	3.611
287.02	3.573
287.38	3.527
287.74	3.269
288.10	3.175
288.46	3.103
288.82	2.891
289.18	2.956
289.54	3.022
289.91	2.927
290.27	3.159
290.63	3.006
290.99	3.047
291.35	3.140
291.71	3.242
292.07	3.375
292.43	3.467
292.79	3.324
293.16	3.276
293.52	3.262
293.88	3.333
294.24	3.235
294.60	3.533
294.96	3.501
295.32	3.489
295.68	3.636
296.04	3.506
296.40	3.634
296.76	3.875
297.12	3.786
297.49	3.921
297.85	3.906
298.21	4.002
298.57	4.017
298.93	3.955
299.29	3.969
299.65	3.960
300.01	4.197
300.37	4.129
300.73	4.191
301.09	4.404
301.45	4.418
301.81	4.445
302.17	4.354
302.53	4.149
302.89	4.242
303.25	4.203
303.61	4.414
303.97	4.307
304.33	4.301
304.69	4.113
305.05	3.969
305.41	3.786
305.77	3.792
306.13	3.899
306.49	3.770
306.85	3.643
307.21	3.849
307.57	3.514
307.93	3.409
308.29	3.547
308.65	3.381
309.01	3.343
309.37	3.618
309.73	3.493
310.09	3.445
310.45	3.499
310.81	3.541
311.17	3.272
311.53	3.394
311.89	3.476
312.25	3.310
312.61	3.565
312.96	3.798
313.32	3.526
313.68	3.397
314.04	3.395
314.40	3.515
314.76	3.485
315.12	3.609
315.48	3.407
315.84	3.181
316.20	3.295
316.56	3.187
316.92	3.009
317.27	3.098
317.63	3.176
317.99	3.075
318.35	2.982
318.71	2.979
319.07	2.930
319.43	3.092
319.79	3.247
320.15	3.148
320.50	3.158
320.86	3.144
321.22	3.052
321.58	3.118
321.94	3.075
322.30	3.158
322.66	3.139
323.01	3.098
323.37	3.136
323.73	3.124
324.09	2.940
324.45	2.889
324.81	2.827
325.17	2.730
325.52	2.707
325.88	2.773
326.24	2.581
326.60	2.584
326.96	2.562
327.31	2.582
327.67	2.489
328.03	2.546
328.39	2.625
328.75	2.532
329.11	2.746
329.46	2.724
329.82	2.758
330.18	2.784
330.54	2.707
330.90	2.709
331.25	2.645
331.61	2.800
331.97	2.914
332.33	2.949
332.68	3.136
333.04	3.126
333.40	3.148
333.76	3.144
334.11	3.229
334.47	3.281
334.83	3.374
335.19	3.268
335.54	3.202
335.90	3.369
336.26	3.325
336.62	3.298
336.97	3.141
337.33	3.142
337.69	3.131
338.05	3.107
338.40	3.213
338.76	3.230
339.12	3.291
339.48	3.357
339.83	3.167
340.19	3.219
340.55	3.251
340.90	3.371
341.26	3.480
341.62	3.540
341.97	3.466
342.33	3.487
342.69	3.522
343.04	3.536
343.40	3.505
343.76	3.469
344.12	3.485
344.47	3.534
344.83	3.524
345.19	3.478
345.54	3.414
345.90	3.472
346.26	3.393
346.61	3.424
346.97	3.282
347.32	3.223
347.68	3.331
348.04	3.335
348.39	3.218
348.75	3.110
349.11	3.093
349.46	3.098
349.82	3.092
350.18	3.130
350.53	3.009
350.89	3.164
351.24	3.225
351.60	3.233
351.96	3.183
352.31	3.195
352.67	3.352
353.02	3.416
353.38	3.458
353.74	3.534
354.09	3.534
354.45	3.550
354.80	3.489
355.16	3.482
355.52	3.392
355.87	3.329
356.23	3.369
356.58	3.355
356.94	3.317
357.29	3.272
357.65	3.259
358.00	3.277
358.36	3.381
358.72	3.424
359.07	3.496
359.43	3.581
359.78	3.637
360.14	3.629
360.49	3.602
360.85	3.590
361.20	3.631
361.56	3.596
361.91	3.546
362.27	3.500
362.62	3.466
362.98	3.537
363.33	3.573
363.69	3.623
364.04	3.592
364.40	3.565
364.75	3.550
365.11	3.553
365.46	3.563
365.82	3.589
366.17	3.652
366.53	3.721
366.88	3.647
367.24	3.580
367.59	3.580
367.95	3.678
368.30	3.710
368.66	3.827
369.01	3.786
369.37	3.861
369.72	3.970
370.08	3.917
370.43	3.939
370.78	3.916
371.14	3.963
371.49	4.017
371.85	4.022
372.20	4.082
372.56	4.062
372.91	4.142
373.26	4.122
373.62	4.040
373.97	4.000
374.33	3.956
374.68	3.941
375.03	3.966
375.39	3.871
375.74	3.825
376.10	3.815
376.45	3.812
376.80	3.848
377.16	3.878
377.51	3.928
377.87	4.031
378.22	4.120
378.57	4.203
378.93	4.236
379.28	4.335
379.63	4.415
379.99	4.536
380.34	4.641
380.70	4.659
381.05	4.733
381.40	4.834
381.76	4.824
382.11	4.874
382.46	4.919
382.82	4.926
383.17	4.960
383.52	4.939
383.88	4.861
384.23	4.808
384.58	4.830
384.94	4.827
385.29	4.825
385.64	4.888
385.99	4.839
386.35	4.808
386.70	4.779
387.05	4.790
387.41	4.775
387.76	4.786
388.11	4.840
388.47	4.864
388.82	4.849
389.17	4.789
389.52	4.768
389.88	4.826
390.23	4.849
390.58	4.929
390.93	4.943
391.29	5.018
391.64	5.059
391.99	5.045
392.34	5.026
392.70	4.989
393.05	5.035
393.40	5.047
393.75	4.987
394.11	4.968
394.46	4.895
394.81	4.848
395.16	4.768
395.52	4.659
395.87	4.597
396.22	4.506
396.57	4.443
396.92	4.327
397.28	4.230
397.63	4.179
397.98	4.082
398.33	4.046
398.68	3.935
399.04	3.936
399.39	3.912
399.74	3.906
400.09	3.894
400.44	3.887
400.80	3.903
401.15	3.948
401.50	3.977
401.85	4.018
402.20	4.012
402.55	4.052
402.90	4.017
403.26	4.037
403.61	3.996
403.96	3.999
404.31	4.047
404.66	4.052
405.01	4.042
405.36	4.036
405.72	4.028
406.07	4.009
406.42	3.977
406.77	3.969
407.12	3.964
407.47	3.957
407.82	3.920
408.17	3.910
408.53	3.882
408.88	3.860
409.23	3.821
409.58	3.796
409.93	3.814
410.28	3.847
410.63	3.846
410.98	3.854
411.33	3.862
411.68	3.896
412.03	3.893
412.38	3.900
412.73	3.913
413.09	3.952
413.44	3.981
413.79	4.033
414.14	4.106
414.49	4.172
414.84	4.218
415.19	4.283
415.54	4.312
415.89	4.344
416.24	4.426
416.59	4.478
416.94	4.514
417.29	4.542
417.64	4.561
417.99	4.542
418.34	4.538
418.69	4.560
419.04	4.548
419.39	4.584
419.74	4.589
420.09	4.553
420.44	4.535
420.79	4.506
421.14	4.511
421.49	4.484
421.84	4.468
422.19	4.444
422.54	4.422
422.89	4.419
423.24	4.375
423.59	4.346
423.94	4.316
424.29	4.272
424.64	4.225
424.99	4.176
425.34	4.120
425.68	4.087
426.03	4.057
426.38	4.026
426.73	3.979
427.08	3.951
427.43	3.964
427.78	3.970
428.13	3.972
428.48	3.990
428.83	3.972
429.18	4.000
429.53	3.986
429.87	4.021
430.22	3.997
430.57	3.999
430.92	4.000
431.27	3.966
431.62	3.977
431.97	3.975
432.32	3.986
432.67	3.974
433.01	3.952
433.36	3.954
433.71	3.927
434.06	3.901
434.41	3.876
434.76	3.889
435.11	3.912
435.45	3.899
435.80	3.901
436.15	3.889
436.50	3.928
436.85	3.953
437.20	3.964
437.54	3.975
437.89	3.983
438.24	4.018
438.59	4.007
438.94	3.982
439.29	3.964
439.63	3.936
439.98	3.912
440.33	3.878
440.68	3.853
441.03	3.856
441.37	3.837
441.72	3.862
442.07	3.845
442.42	3.852
442.76	3.868
443.11	3.865
443.46	3.864
443.81	3.877
444.16	3.881
444.50	3.880
444.85	3.846
445.20	3.829
445.55	3.779
445.89	3.749
446.24	3.701
446.59	3.629
446.94	3.572
447.28	3.510
447.63	3.431
447.98	3.344
448.32	3.259
448.67	3.187
449.02	3.104
449.37	3.073
449.71	3.022
450.06	2.977
450.41	2.970
450.75	2.983
451.10	2.976
451.45	2.973
451.79	2.979
452.14	2.977
452.49	2.969
452.84	2.965
453.18	2.941
453.53	2.950
453.88	2.940
454.22	2.973
454.57	2.988
454.92	3.086
455.26	3.144
455.61	3.214
455.95	3.285
456.30	3.350
456.65	3.391
456.99	3.464
457.34	3.508
457.69	3.590
458.03	3.583
458.38	3.601
458.73	3.570
459.07	3.558
459.42	3.525
459.76	3.484
460.11	3.457
460.46	3.451
460.80	3.406
461.15	3.361
461.49	3.300
461.84	3.304
462.19	3.299
462.53	3.314
462.88	3.318
463.22	3.367
463.57	3.417
463.91	3.480
464.26	3.530
464.61	3.557
464.95	3.608
465.30	3.649
465.64	3.676
465.99	3.704
466.33	3.728
466.68	3.778
467.02	3.771
467.37	3.787
467.71	3.791
468.06	3.789
468.41	3.785
468.75	3.790
469.10	3.774
469.44	3.773
469.79	3.775
470.13	3.769
470.48	3.749
470.82	3.739
471.17	3.718
471.51	3.695
471.86	3.688
472.20	3.690
472.55	3.663
472.89	3.654
473.23	3.607
473.58	3.580
473.92	3.562
474.27	3.540
474.61	3.528
474.96	3.503
475.30	3.479
475.65	3.447
475.99	3.421
476.34	3.417
476.68	3.411
477.02	3.449
477.37	3.457
477.71	3.476
478.06	3.548
478.40	3.666
478.75	3.847
479.09	4.030
479.43	4.216
479.78	4.378
480.12	4.528
480.47	4.657
480.81	4.778
481.15	4.895
481.50	4.998
481.84	5.083
482.19	5.163
482.53	5.208
482.87	5.226
483.22	5.236
483.56	5.237
483.90	5.224
484.25	5.208
484.59	5.170
484.94	5.135
485.28	5.089
485.62	5.037
485.97	4.968
486.31	4.928
486.65	4.908
487.00	4.880
487.34	4.867
487.68	4.858
488.03	4.859
488.37	4.866
488.71	4.865
489.06	4.882
489.40	4.897
489.74	4.914
490.09	4.915
490.43	4.900
490.77	4.880
491.11	4.857
491.46	4.837
491.80	4.820
492.14	4.809
492.49	4.794
492.83	4.777
493.17	4.777
493.51	4.781
493.86	4.795
494.20	4.856
494.54	4.955
494.88	5.060
495.23	5.178
495.57	5.292
495.91	5.411
496.25	5.529
496.60	5.661
496.94	5.769
497.28	5.892
497.62	6.002
497.97	6.120
498.31	6.248
498.65	6.404
498.99	6.565
499.33	6.719
499.68	6.894
500.02	7.090
500.36	7.275
500.70	7.484
501.04	7.702
501.39	7.926
501.73	8.160
502.07	8.397
502.41	8.628
502.75	8.843
503.09	9.094
503.44	9.338
503.78	9.590
504.12	9.856
504.46	10.128
504.80	10.408
505.14	10.710
505.49	10.990
505.83	11.248
506.17	11.526
506.51	11.805
506.85	12.075
507.19	12.351
507.53	12.615
507.87	12.874
508.22	13.132
508.56	13.387
508.90	13.637
509.24	13.868
509.58	14.136
509.92	14.401
510.26	14.676
510.60	14.939
510.94	15.215
511.28	15.505
511.63	15.815
511.97	16.105
512.31	16.429
512.65	16.765
512.99	17.089
513.33	17.421
513.67	17.768
514.01	18.144
514.35	18.490
514.69	18.812
515.03	19.134
515.37	19.418
515.71	19.702
516.05	19.960
516.39	20.156
516.73	20.407
517.07	20.613
517.41	20.776
517.75	20.942
518.09	21.104
518.43	21.259
518.77	21.405
519.11	21.539
519.45	21.697
519.79	21.871
520.13	22.083
520.47	22.294
520.81	22.524
521.15	22.774
521.49	23.016
521.83	23.262
522.17	23.491
522.51	23.731
522.85	24.053
523.19	24.408
523.53	24.751
523.87	25.135
524.21	25.526
524.55	25.871
524.89	26.191
525.23	26.450
525.57	26.715
525.91	26.948
526.25	27.157
526.58	27.333
526.92	27.454
527.26	27.546
527.60	27.612
527.94	27.630
528.28	27.647
528.62	27.661
528.96	27.676
529.30	27.662
529.64	27.662
529.97	27.667
530.31	27.663
530.65	27.674
530.99	27.708
531.33	27.760
531.67	27.806
532.01	27.871
532.35	27.896
532.68	27.934
533.02	27.974
533.36	27.992
533.70	28.005
534.04	28.006
534.38	28.026
534.71	28.033
535.05	28.025
535.39	28.044
535.73	28.087
536.07	28.153
536.41	28.249
536.74	28.411
537.08	28.549
537.42	28.679
537.76	28.853
538.10	29.010
538.43	29.153
538.77	29.297
539.11	29.427
539.45	29.511
539.79	29.621
540.12	29.672
540.46	29.650
540.80	29.657
541.14	29.665
541.47	29.626
541.81	29.589
542.15	29.545
542.49	29.474
542.82	29.405
543.16	29.335
543.50	29.223
543.84	29.179
544.17	29.154
544.51	29.130
544.85	29.088
545.18	29.054
545.52	29.002
545.86	28.988
546.20	29.003
546.53	28.969
546.87	28.943
547.21	28.913
547.54	28.871
547.88	28.843
548.22	28.835
548.55	28.793
548.89	28.802
549.23	28.838
549.56	28.856
549.90	28.834
550.24	28.869
550.57	28.898
550.91	28.898
551.25	28.873
551.58	28.920
551.92	28.908
552.26	28.946
552.59	28.959
552.93	28.932
553.27	28.888
553.60	28.870
553.94	28.859
554.27	28.834
554.61	28.859
554.95	28.887
555.28	28.853
555.62	28.870
555.95	28.870
556.29	28.846
556.63	28.839
556.96	28.846
557.30	28.831
557.63	28.830
557.97	28.860
558.31	28.862
558.64	28.842
558.98	28.800
559.31	28.782
559.65	28.807
559.98	28.783
560.32	28.794
560.65	28.831
560.99	28.874
561.33	28.887
561.66	28.876
562.00	28.924
562.33	28.909
562.67	28.963
563.00	28.986
563.34	28.956
563.67	29.028
564.01	29.019
564.34	29.005
564.68	29.010
565.01	29.023
565.35	29.035
565.68	29.000
566.02	29.031
566.35	29.019
566.69	29.003
567.02	29.025
567.36	28.970
567.69	28.951
568.03	28.949
568.36	28.923
568.69	28.892
569.03	28.850
569.36	28.808
569.70	28.740
570.03	28.731
570.37	28.719
570.70	28.681
571.04	28.667
571.37	28.662
571.70	28.627
572.04	28.593
572.37	28.576
572.71	28.569
573.04	28.601
573.37	28.624
573.71	28.598
574.04	28.548
574.38	28.502
574.71	28.480
575.04	28.453
575.38	28.402
575.71	28.359
576.05	28.324
576.38	28.278
576.71	28.209
577.05	28.178
577.38	28.128
577.71	28.101
578.05	28.074
578.38	28.023
578.71	27.995
579.05	27.989
579.38	27.978
579.71	27.899
580.05	27.864
580.38	27.831
580.71	27.818
581.05	27.778
581.38	27.762
581.71	27.732
582.05	27.741
582.38	27.727
582.71	27.748
583.04	27.720
583.38	27.752
583.71	27.755
584.04	27.766
584.38	27.730
584.71	27.792
585.04	27.778
585.37	27.804
585.71	27.795
586.04	27.854
586.37	27.875
586.70	27.884
587.04	27.895
587.37	27.884
587.70	27.894
588.03	27.856
588.37	27.817
588.70	27.795
589.03	27.745
589.36	27.691
589.69	27.552
590.03	27.472
590.36	27.427
590.69	27.333
591.02	27.330
591.35	27.241
591.69	27.204
592.02	27.111
592.35	27.075
592.68	27.072
593.01	27.037
593.35	27.028
593.68	26.944
594.01	26.907
594.34	26.860
594.67	26.737
595.00	26.729
595.34	26.733
595.67	26.708
596.00	26.692
596.33	26.621
596.66	26.528
596.99	26.505
597.32	26.452
597.65	26.399
597.99	26.343
598.32	26.336
598.65	26.257
598.98	26.177
599.31	26.082
599.64	25.979
599.97	25.909
600.30	25.868
600.63	25.791
600.96	25.798
601.30	25.722
601.63	25.717
601.96	25.662
602.29	25.624
602.62	25.582
602.95	25.555
603.28	25.573
603.61	25.525
603.94	25.513
604.27	25.467
604.60	25.422
604.93	25.407
605.26	25.385
605.59	25.322
605.92	25.234
606.25	25.199
606.58	25.151
606.91	25.054
607.24	25.048
607.57	25.032
607.90	25.021
608.23	24.985
608.56	24.945
608.89	24.882
609.22	24.868
609.55	24.879
609.88	24.845
610.21	24.832
610.54	24.802
610.87	24.769
611.20	24.711
611.53	24.641
611.86	24.601
612.19	24.569
612.52	24.540
612.85	24.503
613.18	24.430
613.51	24.369
613.84	24.351
614.17	24.325
614.49	24.314
614.82	24.292
615.15	24.271
615.48	24.218
615.81	24.198
616.14	24.163
616.47	24.168
616.80	24.171
617.13	24.121
617.46	24.077
617.78	23.998
618.11	23.904
618.44	23.818
618.77	23.783
619.10	23.761
619.43	23.756
619.76	23.755
620.09	23.707
620.41	23.657
620.74	23.601
621.07	23.548
621.40	23.537
621.73	23.528
622.06	23.582
622.38	23.572
622.71	23.538
623.04	23.487
623.37	23.427
623.70	23.379
624.02	23.372
624.35	23.416
624.68	23.413
625.01	23.430
625.34	23.400
625.66	23.344
625.99	23.291
626.32	23.264
626.65	23.194
626.98	23.167
627.30	23.176
627.63	23.099
627.96	23.057
628.29	23.007
628.61	22.945
628.94	22.956
629.27	22.922
629.60	22.905
629.92	22.884
630.25	22.900
630.58	22.870
630.91	22.855
631.23	22.799
631.56	22.769
631.89	22.720
632.21	22.680
632.54	22.577
632.87	22.505
633.19	22.452
633.52	22.372
633.85	22.343
634.18	22.280
634.50	22.141
634.83	22.155
635.16	22.070
635.48	21.954
635.81	21.917
636.14	21.900
636.46	21.846
636.79	21.810
637.11	21.804
637.44	21.739
637.77	21.688
638.09	21.714
638.42	21.681
638.75	21.625
639.07	21.714
639.40	21.697
639.73	21.669
640.05	21.657
640.38	21.641
640.70	21.604
641.03	21.621
641.36	21.640
641.68	21.598
642.01	21.591
642.33	21.602
642.66	21.597
642.98	21.589
643.31	21.663
643.64	21.704
643.96	21.684
644.29	21.686
644.61	21.663
644.94	21.652
645.26	21.668
645.59	21.624
645.91	21.684
646.24	21.664
646.56	21.655
646.89	21.517
647.22	21.459
647.54	21.404
647.87	21.375
648.19	21.343
648.52	21.247
648.84	21.219
649.17	21.175
649.49	21.132
649.82	21.095
650.14	21.047
650.47	21.098
650.79	21.042
651.11	21.078
651.44	21.093
651.76	21.065
652.09	21.100
652.41	21.113
652.74	21.180
653.06	21.135
653.39	21.068
653.71	21.053
654.04	21.027
654.36	20.998
654.68	20.945
655.01	20.861
655.33	20.709
655.66	20.667
655.98	20.606
656.30	20.532
656.63	20.448
656.95	20.446
657.28	20.417
657.60	20.296
657.92	20.289
658.25	20.204
658.57	20.195
658.90	20.218
659.22	20.142
659.54	20.045
659.87	19.986
660.19	19.963
660.51	19.879
660.84	19.801
661.16	19.759
661.48	19.759
661.81	19.804
662.13	19.713
662.45	19.730
662.78	19.739
663.10	19.781
663.42	19.722
663.75	19.667
664.07	19.688
664.39	19.726
664.72	19.749
665.04	19.699
665.36	19.618
665.69	19.607
666.01	19.555
666.33	19.574
666.65	19.544
666.98	19.586
667.30	19.559
667.62	19.495
667.94	19.396
668.27	19.404
668.59	19.374
668.91	19.417
669.23	19.379
669.56	19.345
669.88	19.319
670.20	19.240
670.52	19.205
670.85	19.224
671.17	19.240
671.49	19.184
671.81	19.172
672.13	19.111
672.46	19.043
672.78	19.032
673.10	18.988
673.42	18.939
673.74	18.944
674.07	18.886
674.39	18.841
674.71	18.897
675.03	19.002
675.35	18.973
675.67	19.029
676.00	19.030
676.32	19.054
676.64	19.087
676.96	19.049
677.28	19.018
677.60	19.030
677.92	19.100
678.25	19.033
678.57	18.971
678.89	18.966
679.21	18.895
679.53	18.827
679.85	18.813
680.17	18.833
680.49	18.849
680.81	18.913
681.13	18.896
681.46	18.862
681.78	18.874
682.10	18.893
682.42	18.884
682.74	18.954
683.06	18.995
683.38	19.075
683.70	19.060
684.02	19.060
684.34	19.105
684.66	19.213
684.98	19.186
685.30	19.187
685.62	19.151
685.94	19.161
686.26	19.090
686.58	19.116
686.90	19.029
687.22	19.081
687.54	19.045
687.86	18.944
688.18	18.849
688.50	18.808
688.82	18.711
689.14	18.715
689.46	18.683
689.78	18.706
690.10	18.678
690.42	18.653
690.74	18.481
691.06	18.391
691.38	18.298
691.70	18.243
692.02	18.210
692.34	18.159
692.66	18.122
692.98	17.968
693.30	17.867
693.62	17.701
693.94	17.635
694.26	17.630
694.57	17.587
694.89	17.591
695.21	17.533
695.53	17.505
695.85	17.492
696.17	17.471
696.49	17.564
696.81	17.529
697.13	17.551
697.44	17.461
697.76	17.362
698.08	17.349
698.40	17.228
698.72	17.108
699.04	16.968
699.36	16.846
699.67	16.607
699.99	16.273
700.31	16.059
700.63	15.758
700.95	15.539
701.27	15.411
701.58	15.142
701.90	14.990
702.22	14.836
702.54	14.707
702.86	14.494
703.17	14.281
703.49	14.199
703.81	13.983
704.13	13.926
704.45	13.791
704.76	13.529
705.08	13.456
705.40	13.344
705.72	13.170
706.03	12.979
706.35	12.942
706.67	12.892
706.99	12.810
707.30	12.834
707.62	12.783
707.94	12.650
708.26	12.575
708.57	12.606
708.89	12.528
709.21	12.543
709.53	12.521
709.84	12.422
710.16	12.353
710.48	12.199
710.79	12.137
711.11	12.064
711.43	12.201
711.74	12.226
712.06	12.058
712.38	12.127
712.69	12.186
713.01	12.326
713.33	12.434
713.64	12.529
713.96	12.777
714.28	12.856
714.59	12.950
714.91	13.092
715.23	13.291
715.54	13.491
715.86	13.470
716.17	13.494
716.49	13.550
716.81	13.515
717.12	13.572
717.44	13.416
717.76	13.327
718.07	13.150
718.39	12.795
718.70	12.514
719.02	12.105
719.33	11.685
719.65	11.347
719.97	10.936
720.28	10.762
720.60	10.449
720.91	10.202
721.23	10.040
721.54	9.882
721.86	9.940
722.17	9.946
722.49	10.103
722.81	10.266
723.12	10.287
723.44	10.456
723.75	10.351
724.07	10.322
724.38	10.361
724.70	10.417
725.01	10.516
725.33	10.352
725.64	10.263
725.96	10.076
726.27	10.026
726.59	10.011
726.90	9.821
727.22	9.826
727.53	9.762
727.84	9.559
728.16	9.342
728.47	9.023
728.79	8.785
729.10	8.364
729.42	8.004
729.73	7.615
730.05	6.989
730.36	6.499
730.67	5.879
730.99	5.424
731.30	4.778
731.62	4.087
731.93	3.440
732.24	2.706
732.56	2.282
732.87	1.752
733.19	1.092
733.50	0.583
733.81	-0.112
734.13	-0.571
734.44	-1.166
734.76	-1.563
735.07	-2.137
735.38	-2.627
735.70	-2.983
736.01	-3.356
736.32	-4.004
736.64	-4.341
736.95	-4.830
737.26	-5.213
737.58	-5.855
737.89	-6.377
738.20	-6.816
738.52	-7.239
738.83	-7.702
739.14	-8.200
739.45	-9.368
739.77	-9.884
740.08	-10.899
740.39	-11.742
740.71	-12.417
741.02	-13.263
741.33	-14.455
741.64	-15.187
741.96	-15.932
742.27	-16.522
742.58	-17.281
742.90	-17.600
743.21	-18.264
743.52	-18.602
743.83	-18.981
744.14	-19.569
744.46	-19.916
744.77	-19.985
745.08	-20.294
745.39	-20.835
745.71	-21.395
746.02	-21.598
746.33	-21.677
746.64	-21.352
746.95	-21.347
747.27	-21.410
747.58	-21.548
747.89	-21.400
748.20	-21.614
748.51	-21.875
748.82	-21.698
749.14	-21.522
749.45	-21.793
749.76	-22.071
750.07	-22.188
750.38	-22.430
750.69	-22.670
751.01	-22.979
751.32	-23.331
751.63	-23.333
751.94	-23.480
752.25	-23.500
752.56	-23.560
752.87	-23.418
753.18	-23.111
753.49	-23.638
753.81	-23.144
754.12	-22.434
754.43	-21.535
754.74	-20.256
755.05	-18.377
755.36	-16.153
755.67	-14.400
755.98	-12.043
756.29	-9.688
756.60	-7.524
756.91	-4.809
757.22	-2.479
757.53	-0.120
757.84	2.191
758.15	4.182
758.46	5.960
758.77	7.365
759.09	8.676
759.40	9.763
759.71	10.465
760.02	11.252
760.33	11.676
760.64	11.889
760.95	11.975
761.26	11.792
761.57	11.555
761.88	11.036
762.18	10.610
762.49	10.149
762.80	9.348
763.11	8.628
763.42	7.527
763.73	6.366
764.04	5.104
764.35	3.420
764.66	1.724
764.97	-0.199
765.28	-2.380
765.59	-5.045
765.90	-7.943
766.21	-10.765
766.52	-13.437
766.83	-16.197
767.14	-18.818
767.44	-21.660
767.75	-23.835
768.06	-26.457
768.37	-28.715
768.68	-30.433
768.99	-31.959
769.30	-33.659
769.61	-35.232
769.91	-37.457
770.22	-38.565
770.53	-40.148
770.84	-40.872
771.15	-41.884
771.46	-42.461
771.77	-43.117
772.07	-44.287
772.38	-45.070
772.69	-45.318
773.00	-45.718
773.31	-45.193
773.61	-45.873
773.92	-45.574
774.23	-45.756
774.54	-45.587
774.85	-45.561
775.15	-45.398
775.46	-45.179
775.77	-45.099
776.08	-45.153
776.39	-44.587
776.69	-44.738
777.00	-44.293
777.31	-44.617
777.62	-44.086
777.92	-43.809
778.23	-43.326
778.54	-43.410
778.85	-43.302
779.15	-43.568
779.46	-42.990
779.77	-43.478
780.07	-43.738
780.38	-44.376
780.69	-43.663
781.00	-44.861
781.30	-45.259
781.61	-45.583
781.92	-44.617
782.22	-44.427
782.53	-43.124
782.84	-42.664
783.14	-42.289
783.45	-41.005
783.76	-38.535
784.06	-37.079
784.37	-34.547
784.68	-32.439
784.98	-30.774
785.29	-28.968
785.60	-27.084
785.90	-25.851
786.21	-24.668
786.51	-22.880
786.82	-21.493
787.13	-20.670
787.43	-19.940
787.74	-19.384
788.04	-19.009
788.35	-18.412
788.66	-18.865
788.96	-19.087
789.27	-19.510
789.57	-19.473
789.88	-20.109
790.19	-20.713
790.49	-21.584
790.80	-22.637
791.10	-23.094
791.41	-23.323
791.71	-23.977
792.02	-24.082
792.32	-23.892
792.63	-23.539
792.93	-23.358
793.24	-22.509
793.54	-22.460
793.85	-21.790
794.15	-20.744
794.46	-19.823
794.76	-19.434
795.07	-18.624
795.37	-17.663
795.68	-17.264
795.98	-16.560
796.29	-16.021
796.59	-15.946
796.90	-15.517
797.20	-15.663
797.51	-15.328
797.81	-15.759
798.12	-15.693
798.42	-15.194
798.72	-15.369
799.03	-14.745
799.33	-14.927
799.64	-15.267
799.94	-15.368
800.25	-15.423
800.55	-14.847
800.85	-15.054
801.16	-15.474
801.46	-15.903
801.77	-16.612
802.07	-16.996
802.37	-18.101
802.68	-18.288
802.98	-18.274
803.28	-18.748
803.59	-19.135
803.89	-19.432
804.20	-19.470
804.50	-18.799
804.80	-19.093
805.11	-19.229
805.41	-19.215
805.71	-18.866
806.02	-19.586
806.32	-19.207
806.62	-18.655
806.93	-17.936
807.23	-17.805
807.53	-16.954
807.83	-17.441
808.14	-16.013
808.44	-14.990
808.74	-14.652
809.05	-14.406
809.35	-12.708
809.65	-12.823
809.95	-12.078
810.26	-11.646
810.56	-11.080
810.86	-10.355
811.16	-8.248
811.47	-7.297
811.77	-6.722
812.07	-5.277
812.37	-3.428
812.68	-2.773
812.98	-1.407
813.28	-0.181
813.58	0.510
813.88	1.500
814.19	1.971
814.49	2.210
814.79	2.543
815.09	3.274
815.39	3.501
815.70	3.777
816.00	3.950
816.30	4.237
816.60	4.953
816.90	5.863
817.20	6.733
817.50	8.062
817.81	9.508
818.11	10.976
818.41	12.005
818.71	13.045
819.01	13.791
819.31	14.530
819.61	15.122
819.92	15.415
820.22	15.666
820.52	16.010
820.82	16.083
821.12	16.164
821.42	16.272
821.72	16.348
822.02	16.304
822.32	16.237
822.62	16.217
822.92	16.110
823.22	15.926
823.52	15.800
823.83	15.569
824.13	15.423
824.43	15.227
824.73	14.918
825.03	14.642
825.33	14.530
825.63	14.382
825.93	14.185
826.23	13.989
826.53	13.968
826.83	13.929
827.13	13.652
827.43	13.468
827.73	13.317
828.03	12.964
828.33	12.633
828.63	12.043
828.93	11.460
829.23	10.835
829.53	10.246
829.83	9.496
830.13	8.597
830.42	8.250
830.72	8.245
831.02	8.173
831.32	8.316
831.62	8.593
831.92	9.051
832.22	9.355
832.52	9.456
832.82	9.702
833.12	10.080
833.42	10.193
833.72	10.050
834.01	9.585
834.31	9.380
834.61	9.043
834.91	8.533
835.21	7.610
835.51	6.979
835.81	6.031
836.11	4.855
836.40	3.654
836.70	2.487
837.00	1.669
837.30	0.289
837.60	-1.694
837.90	-3.161
838.19	-4.211
838.49	-4.232
838.79	-4.659
839.09	-4.853
839.39	-4.699
839.68	-5.629
839.98	-5.856
840.28	-6.572
840.58	-6.069
840.88	-6.268
841.17	-7.403
841.47	-8.124
841.77	-9.898
842.07	-12.825
842.36	-14.802
842.66	-17.868
842.96	-19.328
843.26	-23.269
843.55	-27.765
843.85	-33.096
844.15	-36.437
844.45	-37.974
844.74	-41.047
845.04	-43.484
845.34	-43.461
845.63	-47.869
845.93	-47.874
846.23	-49.283
846.53	-49.049
846.82	-48.690
847.12	-49.728
847.42	-50.288
847.71	-50.816
848.01	-53.719
848.31	-52.678
848.60	-54.336
848.90	-49.084
849.19	-52.261
849.49	-52.162
849.79	-52.837
850.08	-50.359
850.38	-46.394
850.68	-42.471
850.97	-40.675
851.27	-38.802
851.56	-38.099
851.86	-36.108
852.16	-38.686
852.45	-37.281
852.75	-40.695
853.04	-38.859
853.34	-41.670
853.64	-41.388
853.93	-44.761
854.23	-46.664
854.52	-46.568
854.82	-48.410
855.11	-49.280
855.41	-48.619
855.70	-48.983
856.00	-44.874
856.30	-46.041
856.59	-44.111
856.89	-47.977
857.18	-46.322
857.48	-43.572
857.77	-41.187
858.07	-42.000
858.36	-40.462
858.66	-40.425
858.95	-38.863
859.25	-38.931
859.54	-39.747
859.84	-40.851
860.13	-39.708
860.42	-37.867
860.72	-39.860
861.01	-42.595
861.31	-39.479
861.60	-41.671
861.90	-40.235
862.19	-42.869
862.49	-44.557
862.78	-40.619
863.07	-38.415
863.37	-36.460
863.66	-36.299
863.96	-35.000
864.25	-31.485
864.54	-31.925
864.84	-28.732
865.13	-28.487
865.43	-27.567
865.72	-17.761
866.01	-23.835
866.31	-15.156
866.60	-33.635
866.89	-38.773
>>>>>End Spectral Data<<<<<
