OOIBase32 Version 2.0.0.6 Data File
++++++++++++++++++++++++++++++++++++
Date: 01-22-2012, 21:31:45
User: Valued Ocean Optics Customer
Spectrometer Serial Number: USB2E2917
Spectrometer Channel: Master
Integration Time (msec): 4
Spectra Averaged: 10
Boxcar Smoothing: 5
Correct for Electrical Dark: Enabled
Time Normalized: Disabled
Dual-beam Reference: Disabled
Reference Channel: Master
Temperature: Not acquired
Spectrometer Type: S2000
ADC Type: USB2000
Number of Pixels in File: 2048
Graph Title: 
>>>>>Begin Spectral Data<<<<<
180.30	0.000
180.67	0.000
181.03	-75.102
181.40	-41.497
181.77	-88.369
182.14	-108.901
182.51	180.459
182.88	73.502
183.25	68.164
183.62	85.914
183.99	10.159
184.36	153.100
184.73	95.417
185.10	2760.493
185.46	429.027
185.83	129.217
186.20	64.857
186.57	315.153
186.94	89.052
187.31	41.647
187.68	-1474.606
188.05	261.563
188.42	250.454
188.78	-22.837
189.15	53.252
189.52	48.453
189.89	32.740
190.26	43.152
190.63	40.177
191.00	38.290
191.37	43.717
191.73	98.875
192.10	112.312
192.47	88.256
192.84	67.948
193.21	2.900
193.58	46.767
193.94	37.761
194.31	4.721
194.68	-17.173
195.05	-17.345
195.42	-54.986
195.79	-83.926
196.15	-54.040
196.52	-24.822
196.89	2.865
197.26	-5.557
197.63	-0.871
198.00	-9.924
198.36	-22.944
198.73	55.608
199.10	-2.027
199.47	3.620
199.84	19.594
200.20	-2.349
200.57	-3.329
200.94	4.419
201.31	27.526
201.68	28.329
202.04	23.219
202.41	15.980
202.78	16.872
203.15	24.319
203.51	37.236
203.88	34.844
204.25	25.103
204.62	18.206
204.98	16.811
205.35	-11.499
205.72	-49.618
206.09	-129.483
206.46	-81.372
206.82	-134.122
207.19	-144.670
207.56	-189.643
207.92	-219.331
208.29	-131.347
208.66	-106.892
209.03	-127.246
209.39	-76.614
209.76	-50.129
210.13	-0.423
210.50	-7.269
210.86	-25.191
211.23	-51.767
211.60	-72.293
211.96	-69.340
212.33	-207.995
212.70	7630.167
213.07	705.929
213.43	654.918
213.80	1828.226
214.17	363.093
214.53	1888.940
214.90	-224.988
215.27	-86.444
215.63	-129.099
216.00	-76.589
216.37	-13.993
216.74	1.127
217.10	2.507
217.47	14.670
217.84	3.186
218.20	4.063
218.57	15.956
218.94	9.655
219.30	0.818
219.67	5.981
220.04	13.649
220.40	9.741
220.77	2.410
221.13	5.898
221.50	4.756
221.87	8.674
222.23	14.308
222.60	5.247
222.97	1.204
223.33	-0.980
223.70	-5.575
224.07	-10.433
224.43	-9.415
224.80	-4.986
225.16	-6.755
225.53	-7.583
225.90	-9.067
226.26	-8.879
226.63	-8.174
226.99	-4.737
227.36	-4.110
227.73	-0.892
228.09	-0.669
228.46	-0.139
228.82	-1.782
229.19	-0.224
229.56	-0.929
229.92	-0.507
230.29	-1.142
230.65	-0.151
231.02	-2.817
231.38	-2.882
231.75	-5.282
232.12	-3.938
232.48	-5.515
232.85	-2.262
233.21	-3.328
233.58	0.140
233.94	1.982
234.31	4.175
234.68	1.742
235.04	3.312
235.41	2.718
235.77	2.695
236.14	2.818
236.50	5.443
236.87	6.323
237.23	7.247
237.60	4.164
237.96	2.160
238.33	0.147
238.69	2.059
239.06	1.853
239.42	2.186
239.79	2.270
240.15	1.920
240.52	2.056
240.88	1.595
241.25	0.884
241.61	1.303
241.98	2.023
242.34	2.892
242.71	2.190
243.07	2.283
243.44	2.604
243.80	3.063
244.17	2.717
244.53	2.093
244.90	1.951
245.26	2.279
245.63	2.368
245.99	2.421
246.36	2.318
246.72	2.030
247.09	1.777
247.45	2.237
247.81	2.118
248.18	2.406
248.54	2.612
248.91	2.661
249.27	2.361
249.64	2.797
250.00	2.746
250.36	2.942
250.73	2.829
251.09	2.838
251.46	1.599
251.82	1.550
252.19	1.564
252.55	1.869
252.91	1.904
253.28	2.454
253.64	1.760
254.01	1.957
254.37	1.926
254.73	3.331
255.10	3.365
255.46	3.911
255.83	3.933
256.19	4.004
256.55	4.007
256.92	4.175
257.28	4.013
257.65	4.188
258.01	3.890
258.37	3.645
258.74	3.420
259.10	3.770
259.46	3.587
259.83	3.546
260.19	3.352
260.55	3.109
260.92	2.718
261.28	2.816
261.64	2.505
262.01	2.445
262.37	2.207
262.73	2.275
263.10	1.628
263.46	1.979
263.82	1.703
264.19	1.472
264.55	1.888
264.91	2.191
265.28	2.059
265.64	2.026
266.00	2.043
266.37	2.652
266.73	2.826
267.09	2.836
267.46	2.033
267.82	2.203
268.18	2.650
268.54	2.449
268.91	2.528
269.27	2.491
269.63	2.473
270.00	2.486
270.36	2.353
270.72	2.215
271.08	2.027
271.45	2.379
271.81	2.484
272.17	2.428
272.53	2.486
272.90	2.342
273.26	2.179
273.62	2.445
273.98	2.750
274.35	2.929
274.71	2.749
275.07	3.129
275.43	3.115
275.80	3.181
276.16	3.188
276.52	3.146
276.88	3.196
277.25	3.107
277.61	3.188
277.97	2.907
278.33	2.611
278.69	2.726
279.06	2.549
279.42	2.780
279.78	2.714
280.14	2.670
280.50	2.764
280.87	2.958
281.23	3.069
281.59	2.971
281.95	3.197
282.31	3.437
282.68	3.472
283.04	3.578
283.40	3.160
283.76	3.219
284.12	3.049
284.48	2.919
284.85	2.832
285.21	2.995
285.57	3.054
285.93	3.165
286.29	3.010
286.65	3.026
287.02	3.213
287.38	3.579
287.74	3.433
288.10	3.686
288.46	3.706
288.82	3.657
289.18	3.182
289.54	2.911
289.91	2.519
290.27	2.527
290.63	2.345
290.99	2.128
291.35	2.097
291.71	2.055
292.07	1.936
292.43	1.871
292.79	1.843
293.16	2.291
293.52	2.501
293.88	2.733
294.24	2.708
294.60	2.777
294.96	2.800
295.32	2.826
295.68	2.840
296.04	2.955
296.40	2.953
296.76	2.987
297.12	2.957
297.49	2.996
297.85	3.086
298.21	3.139
298.57	3.200
298.93	3.226
299.29	3.185
299.65	3.400
300.01	3.246
300.37	3.429
300.73	3.530
301.09	3.554
301.45	3.367
301.81	3.196
302.17	3.111
302.53	3.166
302.89	3.183
303.25	3.242
303.61	3.113
303.97	3.204
304.33	3.128
304.69	3.097
305.05	3.080
305.41	3.370
305.77	3.408
306.13	3.585
306.49	3.668
306.85	3.753
307.21	3.533
307.57	3.391
307.93	3.477
308.29	3.492
308.65	3.307
309.01	3.251
309.37	3.082
309.73	3.170
310.09	3.021
310.45	2.910
310.81	2.828
311.17	2.999
311.53	3.117
311.89	3.195
312.25	3.236
312.61	3.473
312.96	3.590
313.32	3.658
313.68	3.396
314.04	3.504
314.40	3.395
314.76	3.477
315.12	3.521
315.48	3.586
315.84	3.287
316.20	3.096
316.56	2.999
316.92	2.927
317.27	2.966
317.63	3.085
317.99	2.982
318.35	3.104
318.71	3.145
319.07	3.210
319.43	3.133
319.79	3.220
320.15	3.321
320.50	3.510
320.86	3.495
321.22	3.506
321.58	3.428
321.94	3.501
322.30	3.694
322.66	3.651
323.01	3.450
323.37	3.566
323.73	3.503
324.09	3.720
324.45	3.591
324.81	3.671
325.17	3.667
325.52	3.883
325.88	3.907
326.24	3.741
326.60	3.663
326.96	3.920
327.31	3.774
327.67	3.875
328.03	3.720
328.39	3.623
328.75	3.620
329.11	3.708
329.46	3.757
329.82	3.731
330.18	3.766
330.54	3.823
330.90	3.687
331.25	3.806
331.61	3.842
331.97	3.886
332.33	3.957
332.68	4.020
333.04	3.941
333.40	3.859
333.76	3.890
334.11	3.842
334.47	3.865
334.83	3.752
335.19	3.700
335.54	3.588
335.90	3.436
336.26	3.423
336.62	3.318
336.97	3.245
337.33	3.258
337.69	3.350
338.05	3.474
338.40	3.485
338.76	3.637
339.12	3.707
339.48	3.640
339.83	3.709
340.19	3.801
340.55	3.918
340.90	4.004
341.26	3.971
341.62	3.855
341.97	3.810
342.33	3.813
342.69	3.856
343.04	3.741
343.40	3.931
343.76	3.932
344.12	3.896
344.47	3.795
344.83	3.799
345.19	3.800
345.54	3.815
345.90	3.712
346.26	3.680
346.61	3.515
346.97	3.620
347.32	3.493
347.68	3.586
348.04	3.589
348.39	3.607
348.75	3.567
349.11	3.560
349.46	3.650
349.82	3.720
350.18	3.726
350.53	3.894
350.89	3.878
351.24	4.004
351.60	3.952
351.96	3.972
352.31	4.002
352.67	3.984
353.02	3.984
353.38	3.943
353.74	4.010
354.09	4.051
354.45	3.911
354.80	3.857
355.16	3.851
355.52	3.803
355.87	3.751
356.23	3.727
356.58	3.741
356.94	3.731
357.29	3.689
357.65	3.663
358.00	3.687
358.36	3.762
358.72	3.769
359.07	3.716
359.43	3.743
359.78	3.796
360.14	3.778
360.49	3.771
360.85	3.803
361.20	3.850
361.56	3.801
361.91	3.741
362.27	3.732
362.62	3.829
362.98	3.836
363.33	3.883
363.69	3.965
364.04	4.019
364.40	4.075
364.75	4.054
365.11	3.994
365.46	4.014
365.82	3.944
366.17	3.881
366.53	3.764
366.88	3.831
367.24	3.830
367.59	3.751
367.95	3.745
368.30	3.713
368.66	3.715
369.01	3.772
369.37	3.807
369.72	3.883
370.08	3.981
370.43	3.998
370.78	3.981
371.14	3.987
371.49	3.961
371.85	3.945
372.20	3.966
372.56	3.996
372.91	3.934
373.26	3.928
373.62	3.894
373.97	3.873
374.33	3.895
374.68	3.876
375.03	3.836
375.39	3.792
375.74	3.794
376.10	3.805
376.45	3.827
376.80	3.889
377.16	3.888
377.51	3.930
377.87	3.966
378.22	3.975
378.57	3.985
378.93	4.016
379.28	4.060
379.63	4.098
379.99	4.093
380.34	4.066
380.70	4.079
381.05	4.088
381.40	4.092
381.76	4.065
382.11	4.088
382.46	4.090
382.82	4.095
383.17	4.062
383.52	4.052
383.88	4.063
384.23	4.052
384.58	4.035
384.94	4.022
385.29	4.028
385.64	4.026
385.99	4.009
386.35	3.999
386.70	3.983
387.05	4.028
387.41	4.016
387.76	4.005
388.11	4.004
388.47	3.956
388.82	3.973
389.17	3.948
389.52	3.948
389.88	3.957
390.23	3.962
390.58	3.938
390.93	3.934
391.29	3.965
391.64	3.974
391.99	3.993
392.34	4.039
392.70	4.009
393.05	4.019
393.40	4.035
393.75	4.046
394.11	4.037
394.46	4.038
394.81	4.057
395.16	4.014
395.52	4.017
395.87	3.996
396.22	3.976
396.57	3.970
396.92	3.967
397.28	3.940
397.63	3.905
397.98	3.950
398.33	3.985
398.68	3.961
399.04	3.947
399.39	3.936
399.74	3.965
400.09	3.972
400.44	3.984
400.80	3.996
401.15	3.982
401.50	4.014
401.85	3.979
402.20	3.980
402.55	3.972
402.90	4.001
403.26	3.973
403.61	3.952
403.96	3.958
404.31	3.964
404.66	3.945
405.01	3.963
405.36	3.936
405.72	3.946
406.07	3.918
406.42	3.955
406.77	3.961
407.12	3.971
407.47	3.980
407.82	3.973
408.17	3.948
408.53	3.963
408.88	3.970
409.23	3.965
409.58	3.974
409.93	3.987
410.28	3.958
410.63	3.963
410.98	3.965
411.33	3.944
411.68	3.971
412.03	3.963
412.38	3.950
412.73	3.946
413.09	3.936
413.44	3.901
413.79	3.918
414.14	3.938
414.49	3.907
414.84	3.905
415.19	3.912
415.54	3.887
415.89	3.889
416.24	3.884
416.59	3.881
416.94	3.890
417.29	3.877
417.64	3.863
417.99	3.846
418.34	3.842
418.69	3.828
419.04	3.810
419.39	3.820
419.74	3.827
420.09	3.825
420.44	3.804
420.79	3.803
421.14	3.804
421.49	3.804
421.84	3.803
422.19	3.816
422.54	3.831
422.89	3.851
423.24	3.835
423.59	3.838
423.94	3.855
424.29	3.874
424.64	3.888
424.99	3.935
425.34	3.973
425.68	3.979
426.03	3.989
426.38	3.992
426.73	4.003
427.08	4.007
427.43	4.020
427.78	4.036
428.13	4.057
428.48	4.064
428.83	4.029
429.18	3.991
429.53	3.996
429.87	3.989
430.22	3.980
430.57	3.980
430.92	3.965
431.27	3.953
431.62	3.922
431.97	3.908
432.32	3.881
432.67	3.899
433.01	3.892
433.36	3.901
433.71	3.890
434.06	3.923
434.41	3.927
434.76	3.970
435.11	3.986
435.45	3.996
435.80	3.975
436.15	3.998
436.50	3.972
436.85	3.977
437.20	3.967
437.54	3.977
437.89	3.963
438.24	3.947
438.59	3.940
438.94	3.916
439.29	3.906
439.63	3.913
439.98	3.908
440.33	3.918
440.68	3.929
441.03	3.921
441.37	3.912
441.72	3.902
442.07	3.907
442.42	3.908
442.76	3.932
443.11	3.937
443.46	3.942
443.81	3.932
444.16	3.939
444.50	3.930
444.85	3.939
445.20	3.963
445.55	3.982
445.89	3.976
446.24	3.971
446.59	3.965
446.94	3.968
447.28	3.989
447.63	4.010
447.98	4.014
448.32	4.029
448.67	4.043
449.02	4.034
449.37	4.030
449.71	4.057
450.06	4.085
450.41	4.105
450.75	4.122
451.10	4.117
451.45	4.110
451.79	4.122
452.14	4.143
452.49	4.152
452.84	4.144
453.18	4.155
453.53	4.155
453.88	4.159
454.22	4.160
454.57	4.152
454.92	4.146
455.26	4.135
455.61	4.124
455.95	4.102
456.30	4.097
456.65	4.085
456.99	4.074
457.34	4.070
457.69	4.070
458.03	4.061
458.38	4.073
458.73	4.098
459.07	4.115
459.42	4.113
459.76	4.119
460.11	4.120
460.46	4.130
460.80	4.132
461.15	4.138
461.49	4.124
461.84	4.138
462.19	4.136
462.53	4.101
462.88	4.094
463.22	4.108
463.57	4.111
463.91	4.128
464.26	4.150
464.61	4.152
464.95	4.171
465.30	4.178
465.64	4.185
465.99	4.192
466.33	4.207
466.68	4.195
467.02	4.194
467.37	4.212
467.71	4.192
468.06	4.186
468.41	4.181
468.75	4.166
469.10	4.169
469.44	4.164
469.79	4.165
470.13	4.168
470.48	4.186
470.82	4.200
471.17	4.198
471.51	4.192
471.86	4.202
472.20	4.211
472.55	4.202
472.89	4.198
473.23	4.184
473.58	4.159
473.92	4.143
474.27	4.134
474.61	4.122
474.96	4.107
475.30	4.134
475.65	4.127
475.99	4.128
476.34	4.123
476.68	4.124
477.02	4.140
477.37	4.157
477.71	4.166
478.06	4.176
478.40	4.184
478.75	4.210
479.09	4.227
479.43	4.256
479.78	4.298
480.12	4.353
480.47	4.401
480.81	4.434
481.15	4.477
481.50	4.526
481.84	4.592
482.19	4.652
482.53	4.697
482.87	4.708
483.22	4.685
483.56	4.627
483.90	4.560
484.25	4.513
484.59	4.490
484.94	4.451
485.28	4.407
485.62	4.347
485.97	4.280
486.31	4.219
486.65	4.196
487.00	4.211
487.34	4.265
487.68	4.314
488.03	4.343
488.37	4.349
488.71	4.356
489.06	4.362
489.40	4.358
489.74	4.358
490.09	4.374
490.43	4.378
490.77	4.376
491.11	4.382
491.46	4.394
491.80	4.392
492.14	4.382
492.49	4.375
492.83	4.361
493.17	4.355
493.51	4.359
493.86	4.355
494.20	4.351
494.54	4.359
494.88	4.350
495.23	4.335
495.57	4.341
495.91	4.355
496.25	4.365
496.60	4.381
496.94	4.392
497.28	4.394
497.62	4.383
497.97	4.384
498.31	4.400
498.65	4.408
498.99	4.430
499.33	4.456
499.68	4.457
500.02	4.473
500.36	4.491
500.70	4.503
501.04	4.516
501.39	4.534
501.73	4.550
502.07	4.542
502.41	4.548
502.75	4.564
503.09	4.559
503.44	4.581
503.78	4.587
504.12	4.592
504.46	4.606
504.80	4.639
505.14	4.660
505.49	4.681
505.83	4.707
506.17	4.737
506.51	4.761
506.85	4.775
507.19	4.793
507.53	4.818
507.87	4.836
508.22	4.856
508.56	4.878
508.90	4.899
509.24	4.916
509.58	4.936
509.92	4.938
510.26	4.934
510.60	4.944
510.94	4.960
511.28	4.969
511.63	4.990
511.97	5.005
512.31	5.000
512.65	5.003
512.99	5.027
513.33	5.053
513.67	5.068
514.01	5.108
514.35	5.147
514.69	5.171
515.03	5.201
515.37	5.229
515.71	5.262
516.05	5.274
516.39	5.302
516.73	5.306
517.07	5.321
517.41	5.353
517.75	5.369
518.09	5.384
518.43	5.402
518.77	5.409
519.11	5.404
519.45	5.399
519.79	5.430
520.13	5.440
520.47	5.476
520.81	5.487
521.15	5.506
521.49	5.509
521.83	5.514
522.17	5.522
522.51	5.550
522.85	5.594
523.19	5.644
523.53	5.685
523.87	5.733
524.21	5.765
524.55	5.823
524.89	5.867
525.23	5.912
525.57	5.960
525.91	5.998
526.25	6.026
526.58	6.050
526.92	6.080
527.26	6.107
527.60	6.120
527.94	6.136
528.28	6.133
528.62	6.140
528.96	6.147
529.30	6.146
529.64	6.149
529.97	6.163
530.31	6.173
530.65	6.165
530.99	6.152
531.33	6.155
531.67	6.164
532.01	6.185
532.35	6.185
532.68	6.193
533.02	6.206
533.36	6.217
533.70	6.222
534.04	6.230
534.38	6.236
534.71	6.243
535.05	6.244
535.39	6.245
535.73	6.244
536.07	6.255
536.41	6.266
536.74	6.273
537.08	6.286
537.42	6.303
537.76	6.324
538.10	6.343
538.43	6.366
538.77	6.402
539.11	6.433
539.45	6.457
539.79	6.478
540.12	6.501
540.46	6.509
540.80	6.520
541.14	6.532
541.47	6.532
541.81	6.539
542.15	6.548
542.49	6.549
542.82	6.553
543.16	6.538
543.50	6.551
543.84	6.537
544.17	6.546
544.51	6.546
544.85	6.547
545.18	6.539
545.52	6.551
545.86	6.564
546.20	6.577
546.53	6.578
546.87	6.608
547.21	6.613
547.54	6.647
547.88	6.658
548.22	6.678
548.55	6.670
548.89	6.697
549.23	6.720
549.56	6.719
549.90	6.719
550.24	6.727
550.57	6.730
550.91	6.731
551.25	6.721
551.58	6.738
551.92	6.761
552.26	6.806
552.59	6.813
552.93	6.825
553.27	6.840
553.60	6.844
553.94	6.845
554.27	6.854
554.61	6.871
554.95	6.896
555.28	6.899
555.62	6.895
555.95	6.881
556.29	6.903
556.63	6.918
556.96	6.929
557.30	6.958
557.63	6.984
557.97	6.994
558.31	6.987
558.64	6.981
558.98	7.015
559.31	7.020
559.65	7.016
559.98	7.015
560.32	7.008
560.65	6.996
560.99	6.978
561.33	6.970
561.66	6.978
562.00	6.992
562.33	7.008
562.67	6.983
563.00	6.980
563.34	6.984
563.67	7.007
564.01	6.992
564.34	7.026
564.68	7.046
565.01	7.049
565.35	7.062
565.68	7.067
566.02	7.065
566.35	7.080
566.69	7.060
567.02	7.059
567.36	7.072
567.69	7.067
568.03	7.044
568.36	7.049
568.69	7.055
569.03	7.035
569.36	7.036
569.70	7.023
570.03	7.036
570.37	7.063
570.70	7.104
571.04	7.103
571.37	7.125
571.70	7.140
572.04	7.141
572.37	7.146
572.71	7.169
573.04	7.174
573.37	7.195
573.71	7.180
574.04	7.194
574.38	7.175
574.71	7.169
575.04	7.187
575.38	7.203
575.71	7.216
576.05	7.239
576.38	7.255
576.71	7.266
577.05	7.300
577.38	7.327
577.71	7.354
578.05	7.346
578.38	7.367
578.71	7.355
579.05	7.341
579.38	7.329
579.71	7.339
580.05	7.329
580.38	7.355
580.71	7.326
581.05	7.327
581.38	7.300
581.71	7.323
582.05	7.315
582.38	7.289
582.71	7.301
583.04	7.329
583.38	7.302
583.71	7.284
584.04	7.260
584.38	7.266
584.71	7.231
585.04	7.242
585.37	7.240
585.71	7.244
586.04	7.285
586.37	7.285
586.70	7.277
587.04	7.304
587.37	7.326
587.70	7.299
588.03	7.285
588.37	7.309
588.70	7.302
589.03	7.285
589.36	7.269
589.69	7.229
590.03	7.203
590.36	7.210
590.69	7.157
591.02	7.155
591.35	7.142
591.69	7.153
592.02	7.123
592.35	7.122
592.68	7.088
593.01	7.070
593.35	7.080
593.68	7.072
594.01	7.025
594.34	7.033
594.67	6.996
595.00	6.988
595.34	6.956
595.67	6.947
596.00	6.902
596.33	6.905
596.66	6.885
596.99	6.873
597.32	6.873
597.65	6.860
597.99	6.840
598.32	6.829
598.65	6.825
598.98	6.801
599.31	6.810
599.64	6.829
599.97	6.856
600.30	6.867
600.63	6.847
600.96	6.838
601.30	6.848
601.63	6.837
601.96	6.832
602.29	6.837
602.62	6.850
602.95	6.847
603.28	6.823
603.61	6.793
603.94	6.772
604.27	6.788
604.60	6.788
604.93	6.773
605.26	6.763
605.59	6.746
605.92	6.731
606.25	6.742
606.58	6.740
606.91	6.769
607.24	6.762
607.57	6.771
607.90	6.761
608.23	6.749
608.56	6.749
608.89	6.742
609.22	6.736
609.55	6.747
609.88	6.725
610.21	6.703
610.54	6.648
610.87	6.604
611.20	6.570
611.53	6.562
611.86	6.544
612.19	6.548
612.52	6.545
612.85	6.569
613.18	6.561
613.51	6.531
613.84	6.519
614.17	6.558
614.49	6.575
614.82	6.622
615.15	6.641
615.48	6.641
615.81	6.621
616.14	6.642
616.47	6.649
616.80	6.669
617.13	6.695
617.46	6.718
617.78	6.660
618.11	6.692
618.44	6.663
618.77	6.617
619.10	6.610
619.43	6.625
619.76	6.597
620.09	6.566
620.41	6.530
620.74	6.548
621.07	6.530
621.40	6.596
621.73	6.633
622.06	6.652
622.38	6.686
622.71	6.690
623.04	6.692
623.37	6.752
623.70	6.797
624.02	6.802
624.35	6.792
624.68	6.843
625.01	6.856
625.34	6.852
625.66	6.835
625.99	6.824
626.32	6.869
626.65	6.909
626.98	6.926
627.30	6.952
627.63	6.988
627.96	6.993
628.29	6.977
628.61	6.956
628.94	6.927
629.27	6.948
629.60	7.006
629.92	7.009
630.25	6.948
630.58	6.865
630.91	6.799
631.23	6.796
631.56	6.819
631.89	6.788
632.21	6.831
632.54	6.846
632.87	6.868
633.19	6.845
633.52	6.821
633.85	6.818
634.18	6.828
634.50	6.824
634.83	6.831
635.16	6.777
635.48	6.789
635.81	6.742
636.14	6.680
636.46	6.620
636.79	6.576
637.11	6.581
637.44	6.601
637.77	6.605
638.09	6.569
638.42	6.488
638.75	6.480
639.07	6.451
639.40	6.404
639.73	6.469
640.05	6.436
640.38	6.397
640.70	6.359
641.03	6.324
641.36	6.341
641.68	6.379
642.01	6.435
642.33	6.508
642.66	6.485
642.98	6.521
643.31	6.481
643.64	6.569
643.96	6.608
644.29	6.608
644.61	6.590
644.94	6.648
645.26	6.709
645.59	6.712
645.91	6.668
646.24	6.717
646.56	6.736
646.89	6.781
647.22	6.748
647.54	6.740
647.87	6.755
648.19	6.798
648.52	6.738
648.84	6.699
649.17	6.703
649.49	6.663
649.82	6.650
650.14	6.617
650.47	6.594
650.79	6.632
651.11	6.632
651.44	6.640
651.76	6.690
652.09	6.754
652.41	6.764
652.74	6.738
653.06	6.765
653.39	6.787
653.71	6.829
654.04	6.903
654.36	6.894
654.68	6.942
655.01	6.975
655.33	6.977
655.66	6.927
655.98	6.951
656.30	6.987
656.63	7.046
656.95	7.024
657.28	7.038
657.60	6.987
657.92	6.934
658.25	6.886
658.57	6.860
658.90	6.792
659.22	6.806
659.54	6.743
659.87	6.657
660.19	6.566
660.51	6.585
660.84	6.499
661.16	6.451
661.48	6.522
661.81	6.489
662.13	6.439
662.45	6.448
662.78	6.416
663.10	6.441
663.42	6.474
663.75	6.528
664.07	6.524
664.39	6.552
664.72	6.569
665.04	6.573
665.36	6.608
665.69	6.667
666.01	6.685
666.33	6.779
666.65	6.747
666.98	6.737
667.30	6.759
667.62	6.788
667.94	6.861
668.27	6.888
668.59	6.853
668.91	6.913
669.23	6.920
669.56	6.970
669.88	6.876
670.20	6.907
670.52	6.976
670.85	7.001
671.17	6.946
671.49	6.898
671.81	6.907
672.13	6.983
672.46	6.930
672.78	6.974
673.10	6.969
673.42	7.079
673.74	7.158
674.07	7.198
674.39	7.237
674.71	7.293
675.03	7.440
675.35	7.498
675.67	7.431
676.00	7.572
676.32	7.575
676.64	7.681
676.96	7.751
677.28	7.855
677.60	7.920
677.92	7.950
678.25	8.049
678.57	8.045
678.89	8.110
679.21	8.248
679.53	8.253
679.85	8.350
680.17	8.375
680.49	8.391
680.81	8.373
681.13	8.471
681.46	8.507
681.78	8.519
682.10	8.614
682.42	8.712
682.74	8.767
683.06	8.914
683.38	8.951
683.70	9.081
684.02	9.156
684.34	9.287
684.66	9.370
684.98	9.522
685.30	9.710
685.62	9.862
685.94	9.961
686.26	10.074
686.58	10.147
686.90	10.228
687.22	10.313
687.54	10.413
687.86	10.468
688.18	10.505
688.50	10.549
688.82	10.623
689.14	10.567
689.46	10.662
689.78	10.714
690.10	10.764
690.42	10.874
690.74	10.955
691.06	11.033
691.38	11.154
691.70	11.225
692.02	11.276
692.34	11.226
692.66	11.384
692.98	11.372
693.30	11.456
693.62	11.523
693.94	11.579
694.26	11.566
694.57	11.642
694.89	11.653
695.21	11.718
695.53	11.839
695.85	11.917
696.17	11.973
696.49	12.002
696.81	12.106
697.13	12.148
697.44	12.255
697.76	12.361
698.08	12.379
698.40	12.461
698.72	12.500
699.04	12.543
699.36	12.638
699.67	12.610
699.99	12.722
700.31	12.679
700.63	12.728
700.95	12.694
701.27	12.652
701.58	12.720
701.90	12.776
702.22	12.826
702.54	12.861
702.86	12.937
703.17	13.055
703.49	13.043
703.81	13.068
704.13	13.117
704.45	13.180
704.76	13.226
705.08	13.262
705.40	13.223
705.72	13.285
706.03	13.441
706.35	13.472
706.67	13.548
706.99	13.631
707.30	13.737
707.62	13.869
707.94	13.999
708.26	14.075
708.57	14.149
708.89	14.303
709.21	14.347
709.53	14.262
709.84	14.358
710.16	14.394
710.48	14.501
710.79	14.556
711.11	14.528
711.43	14.629
711.74	14.755
712.06	14.851
712.38	14.948
712.69	15.013
713.01	15.137
713.33	15.168
713.64	15.275
713.96	15.451
714.28	15.628
714.59	15.797
714.91	15.880
715.23	16.093
715.54	16.123
715.86	16.199
716.17	16.400
716.49	16.423
716.81	16.607
717.12	16.641
717.44	16.616
717.76	16.650
718.07	16.595
718.39	16.626
718.70	16.479
719.02	16.523
719.33	16.538
719.65	16.474
719.97	16.530
720.28	16.429
720.60	16.604
720.91	16.657
721.23	16.704
721.54	16.750
721.86	16.823
722.17	17.032
722.49	17.218
722.81	17.259
723.12	17.319
723.44	17.586
723.75	17.715
724.07	17.683
724.38	17.709
724.70	17.723
725.01	17.860
725.33	17.844
725.64	17.841
725.96	17.803
726.27	17.917
726.59	18.025
726.90	17.937
727.22	18.029
727.53	18.105
727.84	18.117
728.16	18.144
728.47	18.176
728.79	18.191
729.10	18.107
729.42	18.199
729.73	18.153
730.05	18.167
730.36	18.139
730.67	18.088
730.99	18.024
731.30	17.995
731.62	18.014
731.93	18.117
732.24	18.004
732.56	18.069
732.87	18.022
733.19	18.172
733.50	18.142
733.81	18.140
734.13	18.178
734.44	18.235
734.76	18.354
735.07	18.235
735.38	18.157
735.70	18.143
736.01	18.138
736.32	18.255
736.64	18.034
736.95	18.117
737.26	18.273
737.58	18.274
737.89	18.257
738.20	18.172
738.52	18.188
738.83	18.214
739.14	18.365
739.45	18.327
739.77	18.169
740.08	18.246
740.39	18.089
740.71	17.989
741.02	17.916
741.33	17.917
741.64	17.922
741.96	17.953
742.27	17.970
742.58	17.911
742.90	17.863
743.21	17.920
743.52	18.034
743.83	18.000
744.14	17.942
744.46	17.871
744.77	17.900
745.08	17.901
745.39	18.027
745.71	18.117
746.02	18.048
746.33	18.215
746.64	18.267
746.95	18.213
747.27	18.329
747.58	18.421
747.89	18.685
748.20	18.717
748.51	18.756
748.82	18.736
749.14	18.514
749.45	18.763
749.76	18.781
750.07	18.859
750.38	18.873
750.69	18.976
751.01	19.118
751.32	19.003
751.63	18.933
751.94	19.042
752.25	19.083
752.56	19.069
752.87	18.958
753.18	18.821
753.49	18.695
753.81	18.624
754.12	18.697
754.43	18.809
754.74	18.884
755.05	19.183
755.36	19.272
755.67	19.507
755.98	19.977
756.29	20.369
756.60	20.844
756.91	21.177
757.22	21.537
757.53	21.829
757.84	21.869
758.15	22.249
758.46	22.455
758.77	22.751
759.09	22.835
759.40	22.885
759.71	23.117
760.02	23.225
760.33	23.369
760.64	23.541
760.95	23.532
761.26	23.590
761.57	23.464
761.88	23.456
762.18	23.370
762.49	23.396
762.80	23.454
763.11	23.352
763.42	23.223
763.73	23.089
764.04	22.790
764.35	22.665
764.66	22.539
764.97	22.521
765.28	22.298
765.59	22.009
765.90	21.841
766.21	21.474
766.52	20.937
766.83	20.669
767.14	20.379
767.44	20.339
767.75	20.057
768.06	19.804
768.37	19.522
768.68	19.348
768.99	19.387
769.30	19.098
769.61	18.969
769.91	19.144
770.22	19.049
770.53	18.978
770.84	18.843
771.15	18.846
771.46	18.935
771.77	18.960
772.07	18.926
772.38	18.937
772.69	19.221
773.00	19.214
773.31	19.021
773.61	19.121
773.92	19.203
774.23	19.186
774.54	18.928
774.85	19.047
775.15	18.915
775.46	18.869
775.77	18.862
776.08	18.942
776.39	19.051
776.69	19.274
777.00	19.328
777.31	19.565
777.62	19.639
777.92	20.162
778.23	19.965
778.54	20.081
778.85	20.151
779.15	20.187
779.46	19.947
779.77	20.052
780.07	20.097
780.38	20.020
780.69	19.858
781.00	20.254
781.30	20.117
781.61	20.381
781.92	20.446
782.22	20.643
782.53	20.719
782.84	20.826
783.14	20.674
783.45	20.850
783.76	21.190
784.06	21.505
784.37	21.238
784.68	21.522
784.98	21.633
785.29	22.111
785.60	22.341
785.90	22.650
786.21	22.863
786.51	23.297
786.82	23.270
787.13	23.226
787.43	23.133
787.74	23.432
788.04	23.558
788.35	23.783
788.66	23.442
788.96	23.326
789.27	23.254
789.57	23.200
789.88	23.068
790.19	23.205
790.49	23.262
790.80	23.258
791.10	23.285
791.41	23.375
791.71	23.087
792.02	23.251
792.32	23.342
792.63	23.323
792.93	23.502
793.24	23.708
793.54	23.705
793.85	23.667
794.15	23.516
794.46	23.485
794.76	23.179
795.07	23.219
795.37	23.108
795.68	23.366
795.98	23.543
796.29	23.552
796.59	23.213
796.90	23.047
797.20	23.282
797.51	23.678
797.81	23.890
798.12	23.929
798.42	24.368
798.72	24.518
799.03	24.773
799.33	24.602
799.64	24.622
799.94	24.926
800.25	25.070
800.55	25.012
800.85	24.929
801.16	24.803
801.46	24.821
801.77	24.894
802.07	24.881
802.37	24.453
802.68	24.677
802.98	25.045
803.28	25.064
803.59	25.324
803.89	25.147
804.20	25.564
804.50	25.760
804.80	26.013
805.11	25.457
805.41	25.336
805.71	25.114
806.02	24.984
806.32	24.545
806.62	24.497
806.93	24.352
807.23	24.740
807.53	24.629
807.83	24.426
808.14	24.271
808.44	24.696
808.74	25.423
809.05	25.858
809.35	26.176
809.65	26.332
809.95	26.876
810.26	27.208
810.56	27.356
810.86	27.123
811.16	27.244
811.47	27.788
811.77	28.347
812.07	28.312
812.37	28.444
812.68	28.740
812.98	28.913
813.28	28.731
813.58	28.744
813.88	28.453
814.19	29.411
814.49	29.931
814.79	30.194
815.09	29.869
815.39	29.690
815.70	30.071
816.00	30.059
816.30	30.037
816.60	30.046
816.90	30.073
817.20	30.495
817.50	30.349
817.81	30.310
818.11	30.288
818.41	30.521
818.71	30.687
819.01	30.740
819.31	30.777
819.61	30.957
819.92	31.119
820.22	31.319
820.52	31.359
820.82	31.301
821.12	31.302
821.42	31.321
821.72	31.278
822.02	31.330
822.32	31.413
822.62	31.457
822.92	31.519
823.22	31.414
823.52	31.368
823.83	31.418
824.13	31.517
824.43	31.602
824.73	31.697
825.03	31.862
825.33	31.993
825.63	31.823
825.93	31.772
826.23	31.520
826.53	31.710
826.83	31.668
827.13	31.525
827.43	31.349
827.73	31.375
828.03	31.324
828.33	31.237
828.63	30.955
828.93	31.182
829.23	31.303
829.53	31.518
829.83	31.589
830.13	31.514
830.42	31.602
830.72	31.848
831.02	31.560
831.32	31.523
831.62	31.258
831.92	31.409
832.22	31.434
832.52	31.507
832.82	31.626
833.12	31.507
833.42	31.615
833.72	31.421
834.01	31.340
834.31	31.333
834.61	31.359
834.91	31.584
835.21	31.366
835.51	31.060
835.81	30.796
836.11	30.733
836.40	30.810
836.70	30.598
837.00	30.852
837.30	31.269
837.60	31.665
837.90	31.979
838.19	31.679
838.49	31.792
838.79	31.955
839.09	31.762
839.39	31.718
839.68	31.238
839.98	31.325
840.28	31.485
840.58	30.852
840.88	30.442
841.17	30.069
841.47	30.645
841.77	30.713
842.07	30.770
842.36	31.332
842.66	31.424
842.96	31.411
843.26	30.912
843.55	29.825
843.85	29.748
844.15	28.581
844.45	27.343
844.74	27.217
845.04	27.173
845.34	26.678
845.63	26.518
845.93	26.341
846.23	27.828
846.53	29.423
846.82	30.082
847.12	29.566
847.42	30.351
847.71	31.322
848.01	31.379
848.31	32.138
848.60	32.735
848.90	32.833
849.19	32.757
849.49	31.670
849.79	29.137
850.08	29.725
850.38	30.196
850.68	30.125
850.97	30.060
851.27	28.949
851.56	28.072
851.86	26.329
852.16	26.462
852.45	26.806
852.75	27.275
853.04	27.214
853.34	26.940
853.64	26.726
853.93	27.460
854.23	27.467
854.52	27.520
854.82	26.932
855.11	29.378
855.41	28.535
855.70	28.345
856.00	27.574
856.30	28.545
856.59	28.263
856.89	28.588
857.18	28.417
857.48	27.852
857.77	28.767
858.07	29.932
858.36	28.321
858.66	28.876
858.95	28.403
859.25	29.496
859.54	30.841
859.84	30.315
860.13	30.478
860.42	31.864
860.72	32.555
861.01	32.209
861.31	32.580
861.60	34.277
861.90	34.501
862.19	35.141
862.49	34.010
862.78	34.090
863.07	33.844
863.37	34.477
863.66	32.983
863.96	32.764
864.25	32.850
864.54	32.093
864.84	30.138
865.13	30.328
865.43	29.736
865.72	33.476
866.01	28.867
866.31	22.878
866.60	32.951
866.89	28.920
>>>>>End Spectral Data<<<<<
