OOIBase32 Version 2.0.0.6 Data File
++++++++++++++++++++++++++++++++++++
Date: 01-23-2012, 22:17:33
User: Valued Ocean Optics Customer
Spectrometer Serial Number: USB2E2917
Spectrometer Channel: Master
Integration Time (msec): 5
Spectra Averaged: 10
Boxcar Smoothing: 5
Correct for Electrical Dark: Enabled
Time Normalized: Disabled
Dual-beam Reference: Disabled
Reference Channel: Master
Temperature: Not acquired
Spectrometer Type: S2000
ADC Type: USB2000
Number of Pixels in File: 2048
Graph Title: 
>>>>>Begin Spectral Data<<<<<
180.30	0.000
180.67	0.000
181.03	249.230
181.40	-306.573
181.77	5102.133
182.14	52.567
182.51	102.532
182.88	159.428
183.25	421.445
183.62	187.004
183.99	70.279
184.36	-272.442
184.73	172.643
185.10	-25.177
185.46	67.398
185.83	88.771
186.20	56.599
186.57	663.649
186.94	-76.964
187.31	189.567
187.68	187.515
188.05	-54.052
188.42	-24.717
188.78	-13.931
189.15	-18.630
189.52	1.611
189.89	18.404
190.26	8.524
190.63	14.820
191.00	6.393
191.37	13.575
191.73	30.476
192.10	37.861
192.47	31.579
192.84	30.801
193.21	26.315
193.58	18.688
193.94	11.165
194.31	5.158
194.68	7.022
195.05	0.942
195.42	-20.074
195.79	-31.792
196.15	-38.447
196.52	-27.522
196.89	-44.241
197.26	-41.547
197.63	-55.056
198.00	-52.317
198.36	-41.074
198.73	-35.391
199.10	-25.214
199.47	-12.351
199.84	-11.432
200.20	-1.287
200.57	-18.798
200.94	-11.356
201.31	-6.960
201.68	17.333
202.04	20.190
202.41	28.061
202.78	26.315
203.15	23.412
203.51	7.728
203.88	4.664
204.25	-8.575
204.62	-3.921
204.98	9.077
205.35	16.015
205.72	13.552
206.09	4.776
206.46	3.787
206.82	6.073
207.19	4.672
207.56	8.816
207.92	2.106
208.29	2.016
208.66	3.566
209.03	-5.541
209.39	-15.689
209.76	-32.833
210.13	-37.873
210.50	-40.076
210.86	-39.378
211.23	-24.857
211.60	-15.888
211.96	-8.648
212.33	-9.638
212.70	-4.927
213.07	-7.277
213.43	-2.867
213.80	6.860
214.17	9.695
214.53	12.346
214.90	10.484
215.27	8.664
215.63	5.946
216.00	4.003
216.37	6.260
216.74	-11.294
217.10	-8.810
217.47	-11.247
217.84	-10.715
218.20	-3.105
218.57	2.486
218.94	10.550
219.30	9.918
219.67	10.635
220.04	12.423
220.40	15.732
220.77	21.699
221.13	12.507
221.50	7.238
221.87	5.660
222.23	0.874
222.60	-8.145
222.97	-15.583
223.33	-19.908
223.70	-19.777
224.07	-12.529
224.43	-10.505
224.80	-5.020
225.16	-2.782
225.53	-0.016
225.90	-2.724
226.26	-2.476
226.63	-2.505
226.99	-1.624
227.36	-1.662
227.73	-2.672
228.09	-5.453
228.46	-5.539
228.82	-5.537
229.19	-5.746
229.56	-7.992
229.92	-6.339
230.29	-6.868
230.65	-7.110
231.02	-6.409
231.38	-4.175
231.75	-4.008
232.12	-1.613
232.48	-0.443
232.85	-1.856
233.21	0.196
233.58	2.374
233.94	2.822
234.31	1.743
234.68	1.432
235.04	1.732
235.41	-0.314
235.77	1.869
236.14	1.688
236.50	-0.096
236.87	-0.494
237.23	-1.702
237.60	-1.575
237.96	-2.443
238.33	-0.121
238.69	0.399
239.06	-0.195
239.42	0.901
239.79	0.474
240.15	0.183
240.52	0.312
240.88	0.972
241.25	0.950
241.61	0.723
241.98	1.419
242.34	0.757
242.71	1.565
243.07	2.357
243.44	2.265
243.80	2.249
244.17	2.421
244.53	2.632
244.90	2.371
245.26	2.641
245.63	2.682
245.99	2.589
246.36	2.837
246.72	2.189
247.09	1.765
247.45	1.474
247.81	1.127
248.18	0.684
248.54	0.446
248.91	0.676
249.27	0.795
249.64	0.881
250.00	0.914
250.36	0.975
250.73	1.350
251.09	1.457
251.46	1.685
251.82	2.587
252.19	3.265
252.55	3.862
252.91	3.795
253.28	3.037
253.64	3.516
254.01	3.789
254.37	3.626
254.73	3.821
255.10	3.828
255.46	3.621
255.83	3.416
256.19	3.297
256.55	3.001
256.92	2.858
257.28	3.186
257.65	3.346
258.01	3.489
258.37	3.339
258.74	3.315
259.10	3.216
259.46	3.340
259.83	3.370
260.19	3.300
260.55	3.398
260.92	3.400
261.28	2.931
261.64	2.365
262.01	1.790
262.37	1.487
262.73	1.431
263.10	1.734
263.46	1.828
263.82	1.468
264.19	1.249
264.55	0.983
264.91	1.112
265.28	1.588
265.64	1.554
266.00	1.791
266.37	1.802
266.73	1.767
267.09	1.782
267.46	1.865
267.82	2.094
268.18	2.312
268.54	2.366
268.91	2.499
269.27	2.464
269.63	2.543
270.00	2.425
270.36	2.593
270.72	2.530
271.08	2.284
271.45	2.228
271.81	2.469
272.17	2.579
272.53	2.500
272.90	2.249
273.26	2.048
273.62	1.956
273.98	2.059
274.35	2.070
274.71	2.344
275.07	2.522
275.43	2.602
275.80	2.410
276.16	2.511
276.52	2.535
276.88	2.599
277.25	2.665
277.61	2.925
277.97	2.757
278.33	2.618
278.69	2.132
279.06	2.347
279.42	1.905
279.78	1.931
280.14	1.890
280.50	1.962
280.87	2.148
281.23	2.440
281.59	2.292
281.95	2.455
282.31	2.635
282.68	3.041
283.04	3.066
283.40	3.262
283.76	3.008
284.12	2.925
284.48	3.012
284.85	2.924
285.21	2.815
285.57	2.910
285.93	2.935
286.29	2.860
286.65	2.661
287.02	2.427
287.38	2.342
287.74	2.526
288.10	2.390
288.46	2.296
288.82	2.163
289.18	1.995
289.54	1.884
289.91	1.875
290.27	1.905
290.63	1.920
290.99	1.879
291.35	1.989
291.71	2.140
292.07	2.147
292.43	2.198
292.79	2.562
293.16	2.571
293.52	2.542
293.88	2.487
294.24	2.551
294.60	2.493
294.96	2.589
295.32	2.599
295.68	2.383
296.04	2.512
296.40	2.507
296.76	2.446
297.12	2.519
297.49	2.567
297.85	2.639
298.21	2.740
298.57	2.807
298.93	2.644
299.29	2.686
299.65	2.651
300.01	2.621
300.37	2.484
300.73	2.587
301.09	2.687
301.45	2.685
301.81	2.612
302.17	2.443
302.53	2.464
302.89	2.566
303.25	2.381
303.61	2.560
303.97	2.570
304.33	2.595
304.69	2.386
305.05	2.287
305.41	2.184
305.77	2.267
306.13	2.289
306.49	2.356
306.85	2.477
307.21	2.639
307.57	2.582
307.93	2.590
308.29	2.646
308.65	2.570
309.01	2.566
309.37	2.731
309.73	2.676
310.09	2.606
310.45	2.567
310.81	2.576
311.17	2.420
311.53	2.398
311.89	2.470
312.25	2.426
312.61	2.509
312.96	2.617
313.32	2.626
313.68	2.555
314.04	2.650
314.40	2.688
314.76	2.667
315.12	2.895
315.48	3.021
315.84	2.884
316.20	2.946
316.56	2.964
316.92	2.841
317.27	2.645
317.63	2.650
317.99	2.724
318.35	2.569
318.71	2.447
319.07	2.310
319.43	2.245
319.79	2.272
320.15	2.216
320.50	2.106
320.86	2.160
321.22	2.182
321.58	2.256
321.94	2.062
322.30	2.164
322.66	2.191
323.01	2.252
323.37	2.230
323.73	2.254
324.09	2.388
324.45	2.490
324.81	2.488
325.17	2.532
325.52	2.497
325.88	2.543
326.24	2.610
326.60	2.765
326.96	2.829
327.31	2.813
327.67	2.787
328.03	2.776
328.39	2.699
328.75	2.688
329.11	2.747
329.46	2.743
329.82	2.744
330.18	2.651
330.54	2.529
330.90	2.412
331.25	2.321
331.61	2.362
331.97	2.314
332.33	2.500
332.68	2.433
333.04	2.427
333.40	2.481
333.76	2.528
334.11	2.476
334.47	2.468
334.83	2.434
335.19	2.555
335.54	2.542
335.90	2.497
336.26	2.408
336.62	2.540
336.97	2.434
337.33	2.312
337.69	2.317
338.05	2.344
338.40	2.319
338.76	2.382
339.12	2.337
339.48	2.341
339.83	2.393
340.19	2.308
340.55	2.212
340.90	2.322
341.26	2.357
341.62	2.346
341.97	2.473
342.33	2.596
342.69	2.582
343.04	2.639
343.40	2.719
343.76	2.745
344.12	2.847
344.47	2.916
344.83	2.843
345.19	2.828
345.54	2.888
345.90	2.884
346.26	2.825
346.61	2.924
346.97	2.906
347.32	2.824
347.68	2.785
348.04	2.736
348.39	2.703
348.75	2.874
349.11	2.885
349.46	2.867
349.82	2.789
350.18	2.761
350.53	2.642
350.89	2.597
351.24	2.594
351.60	2.578
351.96	2.620
352.31	2.729
352.67	2.650
353.02	2.730
353.38	2.652
353.74	2.647
354.09	2.678
354.45	2.780
354.80	2.839
355.16	2.893
355.52	2.950
355.87	2.922
356.23	2.835
356.58	2.869
356.94	2.836
357.29	2.883
357.65	2.935
358.00	2.966
358.36	2.948
358.72	3.025
359.07	3.020
359.43	3.039
359.78	3.101
360.14	3.108
360.49	3.093
360.85	3.164
361.20	3.293
361.56	3.311
361.91	3.273
362.27	3.273
362.62	3.185
362.98	3.161
363.33	3.139
363.69	3.069
364.04	3.068
364.40	3.071
364.75	3.002
365.11	2.933
365.46	2.928
365.82	2.948
366.17	2.956
366.53	3.038
366.88	3.107
367.24	3.177
367.59	3.270
367.95	3.334
368.30	3.334
368.66	3.398
369.01	3.429
369.37	3.486
369.72	3.507
370.08	3.560
370.43	3.551
370.78	3.521
371.14	3.489
371.49	3.530
371.85	3.502
372.20	3.579
372.56	3.622
372.91	3.575
373.26	3.552
373.62	3.555
373.97	3.577
374.33	3.610
374.68	3.652
375.03	3.705
375.39	3.645
375.74	3.671
376.10	3.645
376.45	3.639
376.80	3.675
377.16	3.687
377.51	3.751
377.87	3.712
378.22	3.696
378.57	3.712
378.93	3.716
379.28	3.778
379.63	3.842
379.99	3.881
380.34	3.897
380.70	3.946
381.05	3.994
381.40	3.997
381.76	4.044
382.11	4.072
382.46	4.096
382.82	4.097
383.17	4.092
383.52	4.092
383.88	4.078
384.23	4.130
384.58	4.137
384.94	4.143
385.29	4.143
385.64	4.194
385.99	4.223
386.35	4.305
386.70	4.373
387.05	4.388
387.41	4.424
387.76	4.481
388.11	4.452
388.47	4.483
388.82	4.502
389.17	4.540
389.52	4.531
389.88	4.590
390.23	4.586
390.58	4.622
390.93	4.699
391.29	4.719
391.64	4.758
391.99	4.822
392.34	4.880
392.70	4.916
393.05	4.960
393.40	5.005
393.75	4.997
394.11	5.013
394.46	5.032
394.81	5.012
395.16	5.028
395.52	5.053
395.87	5.036
396.22	5.013
396.57	5.028
396.92	5.040
397.28	5.088
397.63	5.113
397.98	5.169
398.33	5.173
398.68	5.210
399.04	5.288
399.39	5.320
399.74	5.371
400.09	5.409
400.44	5.469
400.80	5.470
401.15	5.455
401.50	5.474
401.85	5.488
402.20	5.531
402.55	5.567
402.90	5.552
403.26	5.589
403.61	5.622
403.96	5.671
404.31	5.677
404.66	5.747
405.01	5.817
405.36	5.869
405.72	5.898
406.07	5.916
406.42	5.977
406.77	6.001
407.12	6.036
407.47	6.103
407.82	6.121
408.17	6.147
408.53	6.159
408.88	6.191
409.23	6.224
409.58	6.218
409.93	6.270
410.28	6.287
410.63	6.356
410.98	6.384
411.33	6.355
411.68	6.375
412.03	6.394
412.38	6.456
412.73	6.488
413.09	6.513
413.44	6.588
413.79	6.608
414.14	6.625
414.49	6.625
414.84	6.657
415.19	6.743
415.54	6.775
415.89	6.820
416.24	6.822
416.59	6.851
416.94	6.888
417.29	6.909
417.64	6.930
417.99	6.983
418.34	7.019
418.69	7.033
419.04	7.033
419.39	7.068
419.74	7.091
420.09	7.123
420.44	7.132
420.79	7.143
421.14	7.139
421.49	7.160
421.84	7.175
422.19	7.193
422.54	7.238
422.89	7.262
423.24	7.275
423.59	7.301
423.94	7.321
424.29	7.335
424.64	7.357
424.99	7.421
425.34	7.470
425.68	7.504
426.03	7.554
426.38	7.551
426.73	7.593
427.08	7.648
427.43	7.691
427.78	7.713
428.13	7.764
428.48	7.803
428.83	7.818
429.18	7.802
429.53	7.801
429.87	7.826
430.22	7.834
430.57	7.844
430.92	7.830
431.27	7.820
431.62	7.836
431.97	7.833
432.32	7.854
432.67	7.854
433.01	7.881
433.36	7.918
433.71	7.924
434.06	7.960
434.41	7.993
434.76	8.046
435.11	8.080
435.45	8.097
435.80	8.130
436.15	8.158
436.50	8.182
436.85	8.212
437.20	8.211
437.54	8.235
437.89	8.233
438.24	8.239
438.59	8.239
438.94	8.269
439.29	8.283
439.63	8.292
439.98	8.317
440.33	8.345
440.68	8.358
441.03	8.372
441.37	8.375
441.72	8.413
442.07	8.436
442.42	8.451
442.76	8.453
443.11	8.472
443.46	8.479
443.81	8.467
444.16	8.479
444.50	8.488
444.85	8.533
445.20	8.558
445.55	8.556
445.89	8.562
446.24	8.566
446.59	8.592
446.94	8.622
447.28	8.656
447.63	8.708
447.98	8.725
448.32	8.761
448.67	8.760
449.02	8.772
449.37	8.809
449.71	8.833
450.06	8.870
450.41	8.881
450.75	8.899
451.10	8.903
451.45	8.906
451.79	8.929
452.14	8.933
452.49	8.940
452.84	8.973
453.18	8.983
453.53	9.009
453.88	9.020
454.22	9.032
454.57	9.045
454.92	9.128
455.26	9.148
455.61	9.157
455.95	9.165
456.30	9.175
456.65	9.177
456.99	9.189
457.34	9.211
457.69	9.243
458.03	9.259
458.38	9.267
458.73	9.250
459.07	9.275
459.42	9.308
459.76	9.328
460.11	9.349
460.46	9.372
460.80	9.427
461.15	9.445
461.49	9.459
461.84	9.487
462.19	9.525
462.53	9.553
462.88	9.550
463.22	9.566
463.57	9.606
463.91	9.647
464.26	9.691
464.61	9.707
464.95	9.724
465.30	9.746
465.64	9.780
465.99	9.805
466.33	9.822
466.68	9.860
467.02	9.876
467.37	9.895
467.71	9.916
468.06	9.925
468.41	9.933
468.75	9.949
469.10	9.962
469.44	9.969
469.79	9.977
470.13	10.010
470.48	10.000
470.82	10.015
471.17	10.033
471.51	10.028
471.86	10.018
472.20	10.043
472.55	10.072
472.89	10.100
473.23	10.109
473.58	10.123
473.92	10.122
474.27	10.153
474.61	10.164
474.96	10.164
475.30	10.182
475.65	10.193
475.99	10.197
476.34	10.223
476.68	10.238
477.02	10.266
477.37	10.291
477.71	10.306
478.06	10.334
478.40	10.393
478.75	10.482
479.09	10.578
479.43	10.690
479.78	10.800
480.12	10.937
480.47	11.082
480.81	11.240
481.15	11.413
481.50	11.594
481.84	11.810
482.19	12.026
482.53	12.201
482.87	12.301
483.22	12.292
483.56	12.189
483.90	12.015
484.25	11.800
484.59	11.602
484.94	11.446
485.28	11.288
485.62	11.084
485.97	10.860
486.31	10.671
486.65	10.559
487.00	10.554
487.34	10.634
487.68	10.751
488.03	10.915
488.37	11.044
488.71	11.100
489.06	11.127
489.40	11.147
489.74	11.166
490.09	11.174
490.43	11.169
490.77	11.180
491.11	11.182
491.46	11.198
491.80	11.205
492.14	11.195
492.49	11.195
492.83	11.188
493.17	11.191
493.51	11.200
493.86	11.219
494.20	11.241
494.54	11.249
494.88	11.269
495.23	11.293
495.57	11.311
495.91	11.349
496.25	11.353
496.60	11.389
496.94	11.399
497.28	11.426
497.62	11.443
497.97	11.473
498.31	11.502
498.65	11.512
498.99	11.533
499.33	11.560
499.68	11.579
500.02	11.615
500.36	11.629
500.70	11.649
501.04	11.671
501.39	11.666
501.73	11.692
502.07	11.717
502.41	11.760
502.75	11.772
503.09	11.784
503.44	11.795
503.78	11.810
504.12	11.851
504.46	11.891
504.80	11.900
505.14	11.955
505.49	11.974
505.83	11.995
506.17	12.021
506.51	12.033
506.85	12.043
507.19	12.072
507.53	12.099
507.87	12.121
508.22	12.147
508.56	12.171
508.90	12.185
509.24	12.224
509.58	12.238
509.92	12.262
510.26	12.302
510.60	12.347
510.94	12.369
511.28	12.392
511.63	12.427
511.97	12.442
512.31	12.490
512.65	12.521
512.99	12.545
513.33	12.593
513.67	12.625
514.01	12.660
514.35	12.699
514.69	12.734
515.03	12.775
515.37	12.794
515.71	12.820
516.05	12.823
516.39	12.833
516.73	12.847
517.07	12.875
517.41	12.901
517.75	12.919
518.09	12.934
518.43	12.960
518.77	12.974
519.11	13.000
519.45	13.046
519.79	13.075
520.13	13.133
520.47	13.168
520.81	13.207
521.15	13.225
521.49	13.255
521.83	13.271
522.17	13.308
522.51	13.334
522.85	13.362
523.19	13.413
523.53	13.503
523.87	13.587
524.21	13.689
524.55	13.752
524.89	13.841
525.23	13.932
525.57	14.005
525.91	14.062
526.25	14.136
526.58	14.196
526.92	14.243
527.26	14.267
527.60	14.270
527.94	14.251
528.28	14.260
528.62	14.244
528.96	14.214
529.30	14.197
529.64	14.180
529.97	14.150
530.31	14.125
530.65	14.104
530.99	14.087
531.33	14.094
531.67	14.125
532.01	14.134
532.35	14.151
532.68	14.160
533.02	14.168
533.36	14.179
533.70	14.187
534.04	14.198
534.38	14.205
534.71	14.233
535.05	14.258
535.39	14.273
535.73	14.297
536.07	14.318
536.41	14.366
536.74	14.417
537.08	14.462
537.42	14.527
537.76	14.581
538.10	14.618
538.43	14.672
538.77	14.701
539.11	14.736
539.45	14.761
539.79	14.789
540.12	14.804
540.46	14.805
540.80	14.809
541.14	14.797
541.47	14.786
541.81	14.794
542.15	14.779
542.49	14.777
542.82	14.759
543.16	14.754
543.50	14.760
543.84	14.775
544.17	14.818
544.51	14.840
544.85	14.871
545.18	14.908
545.52	14.932
545.86	14.958
546.20	14.977
546.53	15.014
546.87	15.042
547.21	15.072
547.54	15.085
547.88	15.104
548.22	15.125
548.55	15.149
548.89	15.181
549.23	15.208
549.56	15.229
549.90	15.277
550.24	15.321
550.57	15.340
550.91	15.350
551.25	15.378
551.58	15.399
551.92	15.445
552.26	15.468
552.59	15.484
552.93	15.531
553.27	15.567
553.60	15.579
553.94	15.610
554.27	15.638
554.61	15.695
554.95	15.761
555.28	15.813
555.62	15.846
555.95	15.878
556.29	15.928
556.63	15.938
556.96	15.964
557.30	16.000
557.63	16.004
557.97	16.055
558.31	16.060
558.64	16.083
558.98	16.093
559.31	16.103
559.65	16.146
559.98	16.154
560.32	16.177
560.65	16.189
560.99	16.209
561.33	16.244
561.66	16.267
562.00	16.312
562.33	16.328
562.67	16.340
563.00	16.396
563.34	16.415
563.67	16.430
564.01	16.441
564.34	16.435
564.68	16.459
565.01	16.459
565.35	16.457
565.68	16.477
566.02	16.492
566.35	16.536
566.69	16.558
567.02	16.561
567.36	16.592
567.69	16.622
568.03	16.662
568.36	16.687
568.69	16.726
569.03	16.765
569.36	16.780
569.70	16.789
570.03	16.802
570.37	16.802
570.70	16.843
571.04	16.858
571.37	16.867
571.70	16.910
572.04	16.922
572.37	16.951
572.71	16.979
573.04	16.987
573.37	17.049
573.71	17.061
574.04	17.095
574.38	17.123
574.71	17.155
575.04	17.229
575.38	17.254
575.71	17.301
576.05	17.348
576.38	17.396
576.71	17.449
577.05	17.464
577.38	17.540
577.71	17.575
578.05	17.582
578.38	17.626
578.71	17.602
579.05	17.631
579.38	17.686
579.71	17.676
580.05	17.680
580.38	17.712
580.71	17.719
581.05	17.736
581.38	17.749
581.71	17.788
582.05	17.794
582.38	17.849
582.71	17.892
583.04	17.898
583.38	17.961
583.71	17.989
584.04	17.995
584.38	18.028
584.71	18.024
585.04	18.054
585.37	18.076
585.71	18.112
586.04	18.138
586.37	18.139
586.70	18.159
587.04	18.148
587.37	18.160
587.70	18.159
588.03	18.176
588.37	18.184
588.70	18.181
589.03	18.191
589.36	18.190
589.69	18.171
590.03	18.159
590.36	18.147
590.69	18.176
591.02	18.174
591.35	18.206
591.69	18.204
592.02	18.240
592.35	18.223
592.68	18.248
593.01	18.271
593.35	18.300
593.68	18.333
594.01	18.307
594.34	18.293
594.67	18.303
595.00	18.305
595.34	18.306
595.67	18.294
596.00	18.341
596.33	18.325
596.66	18.339
596.99	18.361
597.32	18.377
597.65	18.463
597.99	18.527
598.32	18.580
598.65	18.606
598.98	18.657
599.31	18.700
599.64	18.724
599.97	18.751
600.30	18.726
600.63	18.729
600.96	18.714
601.30	18.702
601.63	18.683
601.96	18.663
602.29	18.679
602.62	18.662
602.95	18.666
603.28	18.639
603.61	18.650
603.94	18.692
604.27	18.697
604.60	18.732
604.93	18.765
605.26	18.781
605.59	18.806
605.92	18.820
606.25	18.850
606.58	18.870
606.91	18.933
607.24	18.981
607.57	18.990
607.90	19.019
608.23	19.014
608.56	19.004
608.89	19.029
609.22	19.045
609.55	19.075
609.88	19.090
610.21	19.110
610.54	19.119
610.87	19.124
611.20	19.166
611.53	19.188
611.86	19.240
612.19	19.310
612.52	19.330
612.85	19.385
613.18	19.401
613.51	19.423
613.84	19.439
614.17	19.490
614.49	19.519
614.82	19.521
615.15	19.522
615.48	19.566
615.81	19.558
616.14	19.624
616.47	19.655
616.80	19.707
617.13	19.754
617.46	19.794
617.78	19.778
618.11	19.777
618.44	19.810
618.77	19.841
619.10	19.847
619.43	19.878
619.76	19.901
620.09	19.911
620.41	19.912
620.74	19.932
621.07	19.935
621.40	19.971
621.73	20.014
622.06	20.035
622.38	20.079
622.71	20.082
623.04	20.122
623.37	20.102
623.70	20.088
624.02	20.102
624.35	20.136
624.68	20.120
625.01	20.146
625.34	20.146
625.66	20.155
625.99	20.171
626.32	20.211
626.65	20.229
626.98	20.258
627.30	20.305
627.63	20.342
627.96	20.376
628.29	20.445
628.61	20.478
628.94	20.521
629.27	20.548
629.60	20.611
629.92	20.600
630.25	20.624
630.58	20.654
630.91	20.692
631.23	20.716
631.56	20.722
631.89	20.769
632.21	20.789
632.54	20.826
632.87	20.875
633.19	20.866
633.52	20.920
633.85	20.943
634.18	20.938
634.50	20.926
634.83	20.973
635.16	21.011
635.48	21.016
635.81	20.997
636.14	21.029
636.46	21.012
636.79	21.065
637.11	21.130
637.44	21.176
637.77	21.171
638.09	21.194
638.42	21.144
638.75	21.169
639.07	21.184
639.40	21.277
639.73	21.271
640.05	21.364
640.38	21.351
640.70	21.351
641.03	21.333
641.36	21.414
641.68	21.422
642.01	21.468
642.33	21.477
642.66	21.502
642.98	21.448
643.31	21.428
643.64	21.382
643.96	21.375
644.29	21.323
644.61	21.341
644.94	21.327
645.26	21.359
645.59	21.380
645.91	21.400
646.24	21.422
646.56	21.471
646.89	21.533
647.22	21.561
647.54	21.600
647.87	21.644
648.19	21.639
648.52	21.656
648.84	21.683
649.17	21.682
649.49	21.662
649.82	21.712
650.14	21.734
650.47	21.707
650.79	21.697
651.11	21.695
651.44	21.765
651.76	21.806
652.09	21.857
652.41	21.874
652.74	21.905
653.06	21.948
653.39	21.926
653.71	21.933
654.04	22.005
654.36	22.052
654.68	22.080
655.01	22.064
655.33	22.059
655.66	22.038
655.98	21.995
656.30	21.967
656.63	21.955
656.95	21.938
657.28	21.960
657.60	21.911
657.92	21.908
658.25	21.875
658.57	21.834
658.90	21.817
659.22	21.809
659.54	21.894
659.87	21.876
660.19	21.928
660.51	21.983
660.84	22.019
661.16	22.056
661.48	22.052
661.81	22.115
662.13	22.162
662.45	22.191
662.78	22.197
663.10	22.185
663.42	22.274
663.75	22.231
664.07	22.208
664.39	22.155
664.72	22.122
665.04	22.094
665.36	22.085
665.69	22.051
666.01	22.006
666.33	22.148
666.65	22.175
666.98	22.133
667.30	22.138
667.62	22.124
667.94	22.143
668.27	22.233
668.59	22.303
668.91	22.312
669.23	22.367
669.56	22.428
669.88	22.362
670.20	22.321
670.52	22.364
670.85	22.404
671.17	22.415
671.49	22.425
671.81	22.455
672.13	22.475
672.46	22.525
672.78	22.500
673.10	22.547
673.42	22.548
673.74	22.649
674.07	22.687
674.39	22.734
674.71	22.772
675.03	22.807
675.35	22.764
675.67	22.837
676.00	22.818
676.32	22.883
676.64	22.884
676.96	22.912
677.28	22.874
677.60	22.904
677.92	22.935
678.25	22.958
678.57	22.944
678.89	22.957
679.21	22.956
679.53	23.060
679.85	23.135
680.17	23.250
680.49	23.318
680.81	23.399
681.13	23.495
681.46	23.567
681.78	23.662
682.10	23.771
682.42	23.915
682.74	23.956
683.06	23.933
683.38	23.924
683.70	23.968
684.02	24.000
684.34	24.076
684.66	24.125
684.98	24.135
685.30	24.201
685.62	24.252
685.94	24.277
686.26	24.348
686.58	24.468
686.90	24.570
687.22	24.621
687.54	24.675
687.86	24.676
688.18	24.695
688.50	24.765
688.82	24.776
689.14	24.848
689.46	24.918
689.78	24.964
690.10	25.007
690.42	25.078
690.74	25.027
691.06	25.079
691.38	25.130
691.70	25.166
692.02	25.125
692.34	25.186
692.66	25.196
692.98	25.244
693.30	25.258
693.62	25.218
693.94	25.217
694.26	25.305
694.57	25.274
694.89	25.314
695.21	25.371
695.53	25.437
695.85	25.424
696.17	25.393
696.49	25.353
696.81	25.438
697.13	25.466
697.44	25.491
697.76	25.495
698.08	25.512
698.40	25.530
698.72	25.443
699.04	25.443
699.36	25.467
699.67	25.521
699.99	25.500
700.31	25.342
700.63	25.413
700.95	25.406
701.27	25.386
701.58	25.408
701.90	25.319
702.22	25.409
702.54	25.412
702.86	25.438
703.17	25.472
703.49	25.523
703.81	25.765
704.13	25.812
704.45	25.887
704.76	25.926
705.08	25.977
705.40	26.068
705.72	26.128
706.03	26.194
706.35	26.252
706.67	26.239
706.99	26.318
707.30	26.287
707.62	26.211
707.94	26.156
708.26	26.224
708.57	26.255
708.89	26.316
709.21	26.308
709.53	26.284
709.84	26.291
710.16	26.334
710.48	26.433
710.79	26.379
711.11	26.453
711.43	26.414
711.74	26.427
712.06	26.488
712.38	26.488
712.69	26.507
713.01	26.599
713.33	26.598
713.64	26.668
713.96	26.602
714.28	26.795
714.59	26.838
714.91	27.009
715.23	27.056
715.54	27.064
715.86	27.170
716.17	27.333
716.49	27.382
716.81	27.457
717.12	27.469
717.44	27.532
717.76	27.489
718.07	27.619
718.39	27.603
718.70	27.662
719.02	27.688
719.33	27.574
719.65	27.391
719.97	27.443
720.28	27.496
720.60	27.635
720.91	27.704
721.23	27.702
721.54	27.621
721.86	27.755
722.17	27.715
722.49	27.696
722.81	27.825
723.12	27.957
723.44	27.910
723.75	28.071
724.07	28.103
724.38	28.129
724.70	28.083
725.01	28.159
725.33	28.123
725.64	28.230
725.96	28.261
726.27	28.270
726.59	28.334
726.90	28.375
727.22	28.240
727.53	28.141
727.84	28.156
728.16	28.149
728.47	28.028
728.79	28.059
729.10	28.057
729.42	28.235
729.73	28.162
730.05	28.159
730.36	28.128
730.67	28.151
730.99	28.127
731.30	28.036
731.62	28.041
731.93	28.182
732.24	28.050
732.56	27.902
732.87	27.608
733.19	27.668
733.50	27.658
733.81	27.753
734.13	27.778
734.44	27.853
734.76	27.909
735.07	27.894
735.38	27.886
735.70	27.998
736.01	28.098
736.32	28.331
736.64	28.514
736.95	28.495
737.26	28.270
737.58	28.233
737.89	28.190
738.20	28.140
738.52	28.168
738.83	28.097
739.14	28.162
739.45	28.148
739.77	28.185
740.08	28.038
740.39	28.091
740.71	28.350
741.02	28.400
741.33	28.562
741.64	28.703
741.96	28.697
742.27	28.656
742.58	28.535
742.90	28.556
743.21	28.338
743.52	28.290
743.83	28.356
744.14	28.124
744.46	27.992
744.77	27.775
745.08	27.863
745.39	27.935
745.71	28.021
746.02	28.037
746.33	28.081
746.64	28.175
746.95	28.259
747.27	28.011
747.58	28.174
747.89	28.256
748.20	28.339
748.51	28.230
748.82	28.236
749.14	28.089
749.45	28.289
749.76	28.328
750.07	28.382
750.38	28.300
750.69	28.568
751.01	28.552
751.32	28.630
751.63	28.472
751.94	28.464
752.25	28.456
752.56	28.733
752.87	28.582
753.18	28.596
753.49	28.547
753.81	28.516
754.12	28.475
754.43	28.664
754.74	28.618
755.05	28.849
755.36	29.075
755.67	29.282
755.98	29.359
756.29	29.513
756.60	29.818
756.91	30.110
757.22	30.597
757.53	30.730
757.84	30.863
758.15	31.206
758.46	31.433
758.77	31.613
759.09	31.789
759.40	31.896
759.71	32.062
760.02	32.077
760.33	32.073
760.64	31.941
760.95	31.965
761.26	31.910
761.57	32.051
761.88	31.943
762.18	31.922
762.49	31.842
762.80	31.831
763.11	31.663
763.42	31.450
763.73	31.415
764.04	31.222
764.35	31.098
764.66	31.021
764.97	30.662
765.28	30.580
765.59	30.265
765.90	30.176
766.21	30.024
766.52	29.985
766.83	30.049
767.14	29.998
767.44	30.054
767.75	30.145
768.06	30.072
768.37	30.060
768.68	30.117
768.99	30.201
769.30	29.953
769.61	29.860
769.91	29.821
770.22	29.494
770.53	29.218
770.84	29.341
771.15	29.317
771.46	29.194
771.77	29.172
772.07	29.232
772.38	29.039
772.69	29.234
773.00	28.983
773.31	29.398
773.61	29.608
773.92	29.798
774.23	29.479
774.54	28.945
774.85	29.010
775.15	28.926
775.46	28.908
775.77	28.856
776.08	28.757
776.39	28.818
776.69	28.580
777.00	28.844
777.31	28.741
777.62	29.221
777.92	29.738
778.23	29.947
778.54	29.727
778.85	29.517
779.15	29.802
779.46	29.881
779.77	30.109
780.07	29.972
780.38	29.667
780.69	29.790
781.00	29.354
781.30	29.173
781.61	28.945
781.92	29.408
782.22	29.478
782.53	29.467
782.84	29.567
783.14	29.645
783.45	29.885
783.76	30.026
784.06	30.157
784.37	30.430
784.68	30.449
784.98	30.718
785.29	30.504
785.60	30.647
785.90	30.763
786.21	31.038
786.51	31.064
786.82	30.932
787.13	31.078
787.43	31.283
787.74	31.436
788.04	31.617
788.35	31.663
788.66	31.668
788.96	31.670
789.27	31.947
789.57	31.748
789.88	31.640
790.19	31.759
790.49	31.641
790.80	31.645
791.10	31.379
791.41	31.356
791.71	31.188
792.02	31.703
792.32	31.749
792.63	31.503
792.93	31.436
793.24	31.332
793.54	31.379
793.85	31.683
794.15	31.332
794.46	31.398
794.76	31.542
795.07	31.715
795.37	31.298
795.68	31.322
795.98	31.233
796.29	31.341
796.59	31.700
796.90	31.464
797.20	31.398
797.51	31.853
797.81	32.017
798.12	32.026
798.42	31.997
798.72	32.080
799.03	32.001
799.33	32.044
799.64	32.249
799.94	31.929
800.25	32.312
800.55	32.486
800.85	32.248
801.16	32.063
801.46	31.913
801.77	31.971
802.07	32.048
802.37	32.088
802.68	32.052
802.98	31.449
803.28	31.680
803.59	31.322
803.89	30.917
804.20	30.959
804.50	31.146
804.80	31.233
805.11	31.198
805.41	31.165
805.71	31.182
806.02	31.424
806.32	32.007
806.62	31.763
806.93	32.225
807.23	32.183
807.53	32.170
807.83	32.333
808.14	32.376
808.44	32.398
808.74	32.620
809.05	33.246
809.35	33.313
809.65	33.183
809.95	33.469
810.26	32.852
810.56	32.923
810.86	33.485
811.16	33.332
811.47	33.260
811.77	33.422
812.07	33.383
812.37	32.685
812.68	32.422
812.98	32.688
813.28	32.900
813.58	33.449
813.88	33.585
814.19	33.138
814.49	33.504
814.79	33.586
815.09	33.576
815.39	33.782
815.70	33.914
816.00	34.068
816.30	34.052
816.60	34.044
816.90	34.102
817.20	34.840
817.50	35.196
817.81	35.232
818.11	35.305
818.41	35.567
818.71	35.457
819.01	35.681
819.31	35.791
819.61	35.777
819.92	35.750
820.22	35.764
820.52	35.741
820.82	35.698
821.12	35.727
821.42	35.688
821.72	35.592
822.02	35.563
822.32	35.488
822.62	35.374
822.92	35.328
823.22	35.321
823.52	35.237
823.83	35.071
824.13	35.066
824.43	34.963
824.73	34.976
825.03	35.030
825.33	35.056
825.63	35.016
825.93	35.052
826.23	35.030
826.53	34.925
826.83	34.954
827.13	34.832
827.43	34.538
827.73	34.531
828.03	34.513
828.33	34.350
828.63	34.366
828.93	34.372
829.23	34.497
829.53	34.433
829.83	34.571
830.13	34.538
830.42	34.886
830.72	35.288
831.02	35.071
831.32	35.211
831.62	35.305
831.92	35.285
832.22	35.385
832.52	35.239
832.82	35.367
833.12	35.306
833.42	35.287
833.72	35.371
834.01	35.281
834.31	35.533
834.61	35.467
834.91	35.435
835.21	35.396
835.51	34.982
835.81	35.013
836.11	34.880
836.40	34.656
836.70	34.948
837.00	34.812
837.30	34.473
837.60	34.314
837.90	33.992
838.19	33.814
838.49	33.753
838.79	34.163
839.09	34.551
839.39	34.554
839.68	35.309
839.98	35.061
840.28	34.786
840.58	35.620
840.88	35.055
841.17	35.237
841.47	35.503
841.77	35.792
842.07	35.875
842.36	35.326
842.66	35.182
842.96	35.612
843.26	35.089
843.55	34.017
843.85	32.559
844.15	32.984
844.45	32.778
844.74	32.742
845.04	32.520
845.34	31.731
845.63	30.749
845.93	32.541
846.23	32.021
846.53	33.202
846.82	33.705
847.12	33.285
847.42	32.363
847.71	32.291
848.01	31.723
848.31	32.097
848.60	32.811
848.90	33.283
849.19	30.413
849.49	28.312
849.79	28.377
850.08	29.646
850.38	30.335
850.68	31.818
850.97	32.551
851.27	32.506
851.56	31.970
851.86	32.459
852.16	32.721
852.45	34.055
852.75	35.488
853.04	33.254
853.34	32.627
853.64	31.948
853.93	32.369
854.23	31.531
854.52	30.498
854.82	31.025
855.11	29.828
855.41	28.723
855.70	29.365
856.00	28.782
856.30	30.233
856.59	29.444
856.89	29.499
857.18	29.123
857.48	29.559
857.77	28.278
858.07	28.455
858.36	29.596
858.66	31.157
858.95	30.544
859.25	31.197
859.54	31.430
859.84	32.907
860.13	33.485
860.42	32.252
860.72	31.470
861.01	34.658
861.31	33.327
861.60	34.109
861.90	32.985
862.19	32.815
862.49	32.551
862.78	33.118
863.07	32.271
863.37	32.113
863.66	32.271
863.96	34.077
864.25	32.453
864.54	34.820
864.84	33.253
865.13	33.130
865.43	32.908
865.72	29.355
866.01	49.118
866.31	29.597
866.60	24.154
866.89	29.628
>>>>>End Spectral Data<<<<<
