OOIBase32 Version 2.0.0.6 Data File
++++++++++++++++++++++++++++++++++++
Date: 01-23-2012, 22:16:07
User: Valued Ocean Optics Customer
Spectrometer Serial Number: USB2E2917
Spectrometer Channel: Master
Integration Time (msec): 5
Spectra Averaged: 10
Boxcar Smoothing: 5
Correct for Electrical Dark: Enabled
Time Normalized: Disabled
Dual-beam Reference: Disabled
Reference Channel: Master
Temperature: Not acquired
Spectrometer Type: S2000
ADC Type: USB2000
Number of Pixels in File: 2048
Graph Title: 
>>>>>Begin Spectral Data<<<<<
180.30	0.000
180.67	0.000
181.03	179.342
181.40	-276.600
181.77	4938.067
182.14	175.319
182.51	49.137
182.88	5395.233
183.25	289.332
183.62	46.310
183.99	40.973
184.36	-77.668
184.73	175.834
185.10	47.748
185.46	165.095
185.83	46.309
186.20	113.442
186.57	782.195
186.94	-7.327
187.31	145.617
187.68	-74.733
188.05	-61.495
188.42	-31.938
188.78	-10.292
189.15	-10.882
189.52	-11.927
189.89	-6.433
190.26	-24.103
190.63	-10.002
191.00	-10.759
191.37	-5.833
191.73	4.222
192.10	8.268
192.47	10.793
192.84	5.128
193.21	4.973
193.58	16.671
193.94	18.564
194.31	17.466
194.68	18.894
195.05	5.514
195.42	6.092
195.79	-2.827
196.15	-4.042
196.52	0.351
196.89	-1.267
197.26	-3.323
197.63	-16.527
198.00	-29.486
198.36	-18.607
198.73	-21.270
199.10	-1.115
199.47	-0.732
199.84	4.574
200.20	11.565
200.57	-12.159
200.94	-16.734
201.31	-15.998
201.68	-9.291
202.04	-13.043
202.41	-13.383
202.78	-20.110
203.15	-23.787
203.51	-58.235
203.88	-62.846
204.25	-69.470
204.62	-42.086
204.98	-34.616
205.35	-27.150
205.72	-23.454
206.09	-1.663
206.46	2.364
206.82	9.033
207.19	5.596
207.56	11.248
207.92	10.988
208.29	5.459
208.66	10.988
209.03	5.163
209.39	-16.991
209.76	-21.832
210.13	-24.414
210.50	-25.902
210.86	-24.257
211.23	-7.291
211.60	-4.493
211.96	8.870
212.33	4.282
212.70	6.592
213.07	-3.584
213.43	9.099
213.80	12.467
214.17	-0.640
214.53	-0.407
214.90	-1.425
215.27	-7.318
215.63	-12.769
216.00	-25.868
216.37	-19.652
216.74	-28.856
217.10	-20.888
217.47	-28.212
217.84	-37.932
218.20	-12.160
218.57	-11.550
218.94	-8.563
219.30	-12.321
219.67	-12.275
220.04	-11.149
220.40	-12.608
220.77	-18.356
221.13	-16.058
221.50	-18.745
221.87	-15.693
222.23	-27.141
222.60	-22.655
222.97	-20.825
223.33	-18.198
223.70	-16.006
224.07	-11.047
224.43	-10.336
224.80	-4.302
225.16	-4.799
225.53	-3.677
225.90	-6.734
226.26	-8.318
226.63	-9.413
226.99	-8.481
227.36	-7.844
227.73	-7.089
228.09	-10.403
228.46	-10.548
228.82	-10.171
229.19	-9.452
229.56	-10.394
229.92	-8.159
230.29	-6.991
230.65	-7.198
231.02	-7.371
231.38	-7.893
231.75	-8.556
232.12	-5.651
232.48	-3.430
232.85	-4.659
233.21	-2.957
233.58	-0.825
233.94	-0.038
234.31	-0.821
234.68	-1.594
235.04	-2.867
235.41	-3.190
235.77	-1.969
236.14	-1.917
236.50	-3.013
236.87	-2.904
237.23	-3.384
237.60	-3.083
237.96	-3.120
238.33	-1.629
238.69	-0.453
239.06	-0.157
239.42	-0.170
239.79	-0.537
240.15	-0.674
240.52	-0.863
240.88	-0.705
241.25	-0.458
241.61	-0.574
241.98	0.018
242.34	-0.541
242.71	-0.111
243.07	0.119
243.44	0.454
243.80	0.848
244.17	1.253
244.53	1.454
244.90	1.387
245.26	1.322
245.63	1.216
245.99	1.098
246.36	1.477
246.72	0.992
247.09	1.123
247.45	0.985
247.81	0.559
248.18	0.242
248.54	0.266
248.91	0.124
249.27	0.381
249.64	0.613
250.00	0.768
250.36	0.832
250.73	1.095
251.09	0.975
251.46	1.160
251.82	1.737
252.19	1.935
252.55	1.630
252.91	1.819
253.28	0.891
253.64	0.756
254.01	0.666
254.37	0.600
254.73	1.062
255.10	1.329
255.46	1.463
255.83	1.424
256.19	1.549
256.55	1.665
256.92	1.529
257.28	1.467
257.65	1.475
258.01	1.558
258.37	1.415
258.74	1.331
259.10	1.252
259.46	1.058
259.83	0.956
260.19	0.740
260.55	0.731
260.92	0.665
261.28	0.656
261.64	0.586
262.01	0.356
262.37	0.282
262.73	-0.105
263.10	-0.314
263.46	0.312
263.82	0.429
264.19	0.376
264.55	0.205
264.91	0.515
265.28	1.250
265.64	1.409
266.00	1.307
266.37	1.522
266.73	1.902
267.09	1.860
267.46	1.551
267.82	1.481
268.18	1.485
268.54	1.631
268.91	1.732
269.27	1.567
269.63	1.435
270.00	1.535
270.36	1.429
270.72	1.151
271.08	0.757
271.45	0.634
271.81	0.815
272.17	0.886
272.53	0.889
272.90	0.622
273.26	0.560
273.62	0.470
273.98	0.391
274.35	0.279
274.71	0.697
275.07	1.319
275.43	1.575
275.80	1.499
276.16	1.656
276.52	1.276
276.88	1.317
277.25	1.048
277.61	1.287
277.97	1.394
278.33	1.152
278.69	0.708
279.06	0.727
279.42	0.329
279.78	0.169
280.14	0.304
280.50	0.666
280.87	0.892
281.23	1.112
281.59	1.034
281.95	1.000
282.31	1.375
282.68	1.602
283.04	1.607
283.40	1.860
283.76	1.988
284.12	1.908
284.48	1.888
284.85	1.721
285.21	1.766
285.57	1.832
285.93	1.840
286.29	1.768
286.65	1.720
287.02	1.717
287.38	1.695
287.74	1.681
288.10	1.670
288.46	1.633
288.82	1.672
289.18	1.467
289.54	1.273
289.91	1.344
290.27	1.483
290.63	1.573
290.99	1.593
291.35	1.781
291.71	2.111
292.07	2.105
292.43	2.270
292.79	2.629
293.16	3.001
293.52	3.280
293.88	3.392
294.24	3.452
294.60	3.437
294.96	3.544
295.32	3.550
295.68	3.283
296.04	3.451
296.40	3.499
296.76	3.643
297.12	3.848
297.49	3.982
297.85	4.130
298.21	4.327
298.57	4.669
298.93	4.831
299.29	4.984
299.65	5.364
300.01	5.652
300.37	5.920
300.73	6.145
301.09	6.327
301.45	6.645
301.81	6.694
302.17	6.670
302.53	6.811
302.89	6.980
303.25	7.054
303.61	7.188
303.97	7.154
304.33	7.157
304.69	6.910
305.05	6.767
305.41	6.564
305.77	6.795
306.13	6.900
306.49	6.792
306.85	6.697
307.21	6.788
307.57	6.829
307.93	6.943
308.29	7.082
308.65	7.109
309.01	7.153
309.37	7.263
309.73	7.186
310.09	7.198
310.45	7.244
310.81	7.426
311.17	7.453
311.53	7.445
311.89	7.414
312.25	7.201
312.61	7.228
312.96	7.282
313.32	7.337
313.68	7.299
314.04	7.302
314.40	7.272
314.76	7.299
315.12	7.342
315.48	7.312
315.84	7.177
316.20	7.449
316.56	7.520
316.92	7.535
317.27	7.446
317.63	7.403
317.99	7.424
318.35	7.418
318.71	7.288
319.07	7.152
319.43	7.247
319.79	7.231
320.15	7.116
320.50	6.978
320.86	6.985
321.22	7.093
321.58	7.192
321.94	7.001
322.30	7.063
322.66	7.096
323.01	7.220
323.37	7.160
323.73	7.295
324.09	7.275
324.45	7.413
324.81	7.387
325.17	7.239
325.52	7.298
325.88	7.349
326.24	7.301
326.60	7.365
326.96	7.420
327.31	7.396
327.67	7.317
328.03	7.305
328.39	7.272
328.75	7.237
329.11	7.301
329.46	7.135
329.82	7.119
330.18	7.151
330.54	7.152
330.90	7.106
331.25	7.101
331.61	7.021
331.97	6.959
332.33	6.910
332.68	6.847
333.04	6.802
333.40	6.869
333.76	6.961
334.11	6.913
334.47	6.764
334.83	6.603
335.19	6.578
335.54	6.711
335.90	6.779
336.26	6.841
336.62	6.822
336.97	6.778
337.33	6.731
337.69	6.652
338.05	6.573
338.40	6.599
338.76	6.627
339.12	6.576
339.48	6.536
339.83	6.545
340.19	6.360
340.55	6.335
340.90	6.282
341.26	6.221
341.62	6.282
341.97	6.345
342.33	6.375
342.69	6.390
343.04	6.452
343.40	6.470
343.76	6.442
344.12	6.570
344.47	6.640
344.83	6.674
345.19	6.667
345.54	6.637
345.90	6.658
346.26	6.560
346.61	6.636
346.97	6.535
347.32	6.465
347.68	6.417
348.04	6.328
348.39	6.280
348.75	6.316
349.11	6.299
349.46	6.241
349.82	6.219
350.18	6.243
350.53	6.108
350.89	6.171
351.24	6.148
351.60	6.112
351.96	6.099
352.31	6.108
352.67	6.049
353.02	6.091
353.38	6.101
353.74	6.029
354.09	5.985
354.45	6.021
354.80	5.992
355.16	6.003
355.52	6.025
355.87	5.986
356.23	5.955
356.58	6.011
356.94	5.976
357.29	5.943
357.65	5.958
358.00	5.962
358.36	5.885
358.72	5.882
359.07	5.827
359.43	5.828
359.78	5.862
360.14	5.771
360.49	5.699
360.85	5.690
361.20	5.707
361.56	5.707
361.91	5.665
362.27	5.725
362.62	5.660
362.98	5.684
363.33	5.649
363.69	5.602
364.04	5.641
364.40	5.617
364.75	5.573
365.11	5.562
365.46	5.545
365.82	5.567
366.17	5.479
366.53	5.530
366.88	5.450
367.24	5.469
367.59	5.504
367.95	5.524
368.30	5.541
368.66	5.606
369.01	5.581
369.37	5.579
369.72	5.550
370.08	5.592
370.43	5.524
370.78	5.521
371.14	5.500
371.49	5.515
371.85	5.493
372.20	5.499
372.56	5.479
372.91	5.495
373.26	5.460
373.62	5.419
373.97	5.404
374.33	5.414
374.68	5.380
375.03	5.363
375.39	5.282
375.74	5.270
376.10	5.231
376.45	5.218
376.80	5.119
377.16	5.091
377.51	5.142
377.87	5.110
378.22	5.113
378.57	5.156
378.93	5.148
379.28	5.207
379.63	5.208
379.99	5.212
380.34	5.199
380.70	5.251
381.05	5.285
381.40	5.234
381.76	5.243
382.11	5.242
382.46	5.197
382.82	5.158
383.17	5.127
383.52	5.110
383.88	5.094
384.23	5.044
384.58	5.020
384.94	4.991
385.29	4.999
385.64	4.966
385.99	4.960
386.35	4.998
386.70	4.997
387.05	4.956
387.41	4.963
387.76	4.929
388.11	4.905
388.47	4.899
388.82	4.876
389.17	4.866
389.52	4.874
389.88	4.824
390.23	4.809
390.58	4.824
390.93	4.824
391.29	4.802
391.64	4.813
391.99	4.802
392.34	4.826
392.70	4.815
393.05	4.799
393.40	4.755
393.75	4.770
394.11	4.746
394.46	4.690
394.81	4.615
395.16	4.561
395.52	4.549
395.87	4.524
396.22	4.455
396.57	4.412
396.92	4.393
397.28	4.434
397.63	4.381
397.98	4.380
398.33	4.387
398.68	4.441
399.04	4.445
399.39	4.429
399.74	4.446
400.09	4.444
400.44	4.458
400.80	4.437
401.15	4.387
401.50	4.400
401.85	4.378
402.20	4.373
402.55	4.350
402.90	4.343
403.26	4.328
403.61	4.319
403.96	4.304
404.31	4.288
404.66	4.307
405.01	4.297
405.36	4.285
405.72	4.270
406.07	4.250
406.42	4.257
406.77	4.240
407.12	4.240
407.47	4.238
407.82	4.223
408.17	4.208
408.53	4.168
408.88	4.198
409.23	4.207
409.58	4.189
409.93	4.156
410.28	4.129
410.63	4.116
410.98	4.109
411.33	4.074
411.68	4.098
412.03	4.120
412.38	4.150
412.73	4.106
413.09	4.065
413.44	4.075
413.79	4.114
414.14	4.117
414.49	4.139
414.84	4.122
415.19	4.127
415.54	4.111
415.89	4.088
416.24	4.056
416.59	4.071
416.94	4.093
417.29	4.095
417.64	4.079
417.99	4.086
418.34	4.084
418.69	4.090
419.04	4.085
419.39	4.091
419.74	4.087
420.09	4.091
420.44	4.086
420.79	4.059
421.14	4.048
421.49	4.034
421.84	4.017
422.19	3.990
422.54	3.980
422.89	3.970
423.24	3.953
423.59	3.950
423.94	3.948
424.29	3.921
424.64	3.926
424.99	3.916
425.34	3.926
425.68	3.922
426.03	3.955
426.38	3.958
426.73	3.970
427.08	3.972
427.43	3.977
427.78	3.980
428.13	4.008
428.48	4.015
428.83	4.024
429.18	4.030
429.53	4.033
429.87	4.019
430.22	4.007
430.57	4.002
430.92	4.000
431.27	3.987
431.62	3.960
431.97	3.925
432.32	3.916
432.67	3.892
433.01	3.868
433.36	3.871
433.71	3.850
434.06	3.849
434.41	3.858
434.76	3.866
435.11	3.851
435.45	3.855
435.80	3.863
436.15	3.845
436.50	3.851
436.85	3.844
437.20	3.835
437.54	3.836
437.89	3.834
438.24	3.835
438.59	3.830
438.94	3.834
439.29	3.834
439.63	3.833
439.98	3.851
440.33	3.841
440.68	3.842
441.03	3.844
441.37	3.830
441.72	3.829
442.07	3.815
442.42	3.803
442.76	3.812
443.11	3.811
443.46	3.799
443.81	3.788
444.16	3.791
444.50	3.792
444.85	3.782
445.20	3.787
445.55	3.785
445.89	3.765
446.24	3.756
446.59	3.743
446.94	3.730
447.28	3.723
447.63	3.704
447.98	3.697
448.32	3.699
448.67	3.678
449.02	3.670
449.37	3.660
449.71	3.660
450.06	3.645
450.41	3.628
450.75	3.629
451.10	3.637
451.45	3.653
451.79	3.658
452.14	3.624
452.49	3.633
452.84	3.627
453.18	3.602
453.53	3.600
453.88	3.598
454.22	3.605
454.57	3.593
454.92	3.584
455.26	3.587
455.61	3.574
455.95	3.609
456.30	3.603
456.65	3.606
456.99	3.610
457.34	3.616
457.69	3.623
458.03	3.615
458.38	3.625
458.73	3.637
459.07	3.639
459.42	3.651
459.76	3.634
460.11	3.623
460.46	3.609
460.80	3.607
461.15	3.581
461.49	3.572
461.84	3.576
462.19	3.570
462.53	3.550
462.88	3.518
463.22	3.499
463.57	3.519
463.91	3.542
464.26	3.559
464.61	3.568
464.95	3.593
465.30	3.594
465.64	3.578
465.99	3.560
466.33	3.562
466.68	3.584
467.02	3.575
467.37	3.543
467.71	3.523
468.06	3.497
468.41	3.479
468.75	3.460
469.10	3.432
469.44	3.440
469.79	3.449
470.13	3.447
470.48	3.397
470.82	3.379
471.17	3.374
471.51	3.362
471.86	3.379
472.20	3.365
472.55	3.359
472.89	3.380
473.23	3.367
473.58	3.358
473.92	3.346
474.27	3.359
474.61	3.379
474.96	3.356
475.30	3.341
475.65	3.329
475.99	3.318
476.34	3.316
476.68	3.295
477.02	3.293
477.37	3.276
477.71	3.271
478.06	3.283
478.40	3.302
478.75	3.357
479.09	3.420
479.43	3.471
479.78	3.542
480.12	3.606
480.47	3.676
480.81	3.749
481.15	3.834
481.50	3.913
481.84	3.996
482.19	4.077
482.53	4.144
482.87	4.173
483.22	4.161
483.56	4.116
483.90	4.049
484.25	3.971
484.59	3.892
484.94	3.822
485.28	3.750
485.62	3.660
485.97	3.564
486.31	3.472
486.65	3.414
487.00	3.397
487.34	3.413
487.68	3.433
488.03	3.457
488.37	3.472
488.71	3.465
489.06	3.460
489.40	3.451
489.74	3.435
490.09	3.429
490.43	3.416
490.77	3.393
491.11	3.369
491.46	3.353
491.80	3.333
492.14	3.316
492.49	3.296
492.83	3.258
493.17	3.221
493.51	3.197
493.86	3.174
494.20	3.145
494.54	3.139
494.88	3.122
495.23	3.115
495.57	3.115
495.91	3.118
496.25	3.099
496.60	3.102
496.94	3.118
497.28	3.123
497.62	3.121
497.97	3.121
498.31	3.106
498.65	3.082
498.99	3.073
499.33	3.057
499.68	3.036
500.02	3.030
500.36	3.019
500.70	2.993
501.04	2.991
501.39	2.958
501.73	2.968
502.07	2.972
502.41	2.991
502.75	2.984
503.09	2.989
503.44	2.991
503.78	2.997
504.12	3.007
504.46	3.030
504.80	3.021
505.14	3.032
505.49	3.028
505.83	3.036
506.17	3.037
506.51	3.043
506.85	3.034
507.19	3.041
507.53	3.049
507.87	3.038
508.22	3.032
508.56	3.027
508.90	3.028
509.24	3.019
509.58	3.016
509.92	3.007
510.26	3.000
510.60	3.003
510.94	2.977
511.28	2.961
511.63	2.963
511.97	2.958
512.31	2.958
512.65	2.960
512.99	2.959
513.33	2.954
513.67	2.959
514.01	2.983
514.35	2.994
514.69	3.033
515.03	3.052
515.37	3.058
515.71	3.076
516.05	3.082
516.39	3.086
516.73	3.101
517.07	3.116
517.41	3.119
517.75	3.095
518.09	3.090
518.43	3.069
518.77	3.058
519.11	3.053
519.45	3.027
519.79	3.015
520.13	2.998
520.47	2.979
520.81	2.960
521.15	2.962
521.49	2.972
521.83	2.970
522.17	2.982
522.51	2.995
522.85	3.009
523.19	3.047
523.53	3.104
523.87	3.152
524.21	3.200
524.55	3.239
524.89	3.274
525.23	3.318
525.57	3.352
525.91	3.382
526.25	3.407
526.58	3.429
526.92	3.440
527.26	3.438
527.60	3.430
527.94	3.420
528.28	3.406
528.62	3.384
528.96	3.361
529.30	3.337
529.64	3.305
529.97	3.278
530.31	3.257
530.65	3.230
530.99	3.214
531.33	3.211
531.67	3.206
532.01	3.201
532.35	3.197
532.68	3.175
533.02	3.173
533.36	3.167
533.70	3.159
534.04	3.135
534.38	3.122
534.71	3.096
535.05	3.077
535.39	3.053
535.73	3.047
536.07	3.037
536.41	3.044
536.74	3.043
537.08	3.048
537.42	3.060
537.76	3.081
538.10	3.094
538.43	3.115
538.77	3.126
539.11	3.140
539.45	3.156
539.79	3.171
540.12	3.184
540.46	3.187
540.80	3.186
541.14	3.161
541.47	3.146
541.81	3.139
542.15	3.125
542.49	3.103
542.82	3.076
543.16	3.044
543.50	3.005
543.84	2.969
544.17	2.947
544.51	2.924
544.85	2.927
545.18	2.914
545.52	2.889
545.86	2.862
546.20	2.844
546.53	2.831
546.87	2.792
547.21	2.761
547.54	2.742
547.88	2.717
548.22	2.687
548.55	2.655
548.89	2.648
549.23	2.639
549.56	2.626
549.90	2.648
550.24	2.648
550.57	2.670
550.91	2.686
551.25	2.682
551.58	2.684
551.92	2.706
552.26	2.697
552.59	2.675
552.93	2.658
553.27	2.666
553.60	2.624
553.94	2.607
554.27	2.588
554.61	2.598
554.95	2.604
555.28	2.602
555.62	2.589
555.95	2.610
556.29	2.625
556.63	2.635
556.96	2.618
557.30	2.641
557.63	2.649
557.97	2.647
558.31	2.652
558.64	2.655
558.98	2.651
559.31	2.642
559.65	2.653
559.98	2.642
560.32	2.640
560.65	2.658
560.99	2.660
561.33	2.661
561.66	2.678
562.00	2.675
562.33	2.675
562.67	2.676
563.00	2.703
563.34	2.701
563.67	2.691
564.01	2.705
564.34	2.682
564.68	2.678
565.01	2.677
565.35	2.654
565.68	2.653
566.02	2.654
566.35	2.659
566.69	2.643
567.02	2.644
567.36	2.652
567.69	2.659
568.03	2.691
568.36	2.696
568.69	2.711
569.03	2.741
569.36	2.754
569.70	2.751
570.03	2.755
570.37	2.759
570.70	2.760
571.04	2.763
571.37	2.756
571.70	2.757
572.04	2.749
572.37	2.737
572.71	2.737
573.04	2.719
573.37	2.741
573.71	2.742
574.04	2.739
574.38	2.729
574.71	2.721
575.04	2.715
575.38	2.692
575.71	2.684
576.05	2.685
576.38	2.664
576.71	2.642
577.05	2.601
577.38	2.585
577.71	2.583
578.05	2.571
578.38	2.578
578.71	2.562
579.05	2.549
579.38	2.561
579.71	2.526
580.05	2.503
580.38	2.513
580.71	2.499
581.05	2.488
581.38	2.467
581.71	2.461
582.05	2.437
582.38	2.458
582.71	2.452
583.04	2.424
583.38	2.443
583.71	2.451
584.04	2.438
584.38	2.447
584.71	2.447
585.04	2.464
585.37	2.491
585.71	2.506
586.04	2.502
586.37	2.529
586.70	2.544
587.04	2.519
587.37	2.533
587.70	2.558
588.03	2.571
588.37	2.566
588.70	2.564
589.03	2.541
589.36	2.533
589.69	2.508
590.03	2.469
590.36	2.471
590.69	2.511
591.02	2.484
591.35	2.457
591.69	2.429
592.02	2.443
592.35	2.416
592.68	2.435
593.01	2.446
593.35	2.456
593.68	2.482
594.01	2.473
594.34	2.447
594.67	2.467
595.00	2.464
595.34	2.451
595.67	2.434
596.00	2.434
596.33	2.401
596.66	2.367
596.99	2.352
597.32	2.333
597.65	2.319
597.99	2.322
598.32	2.280
598.65	2.281
598.98	2.286
599.31	2.274
599.64	2.296
599.97	2.295
600.30	2.279
600.63	2.282
600.96	2.306
601.30	2.323
601.63	2.303
601.96	2.336
602.29	2.314
602.62	2.336
602.95	2.345
603.28	2.324
603.61	2.300
603.94	2.303
604.27	2.286
604.60	2.257
604.93	2.238
605.26	2.255
605.59	2.220
605.92	2.225
606.25	2.176
606.58	2.156
606.91	2.145
607.24	2.169
607.57	2.159
607.90	2.181
608.23	2.149
608.56	2.145
608.89	2.109
609.22	2.079
609.55	2.046
609.88	2.004
610.21	1.989
610.54	1.951
610.87	1.909
611.20	1.887
611.53	1.834
611.86	1.823
612.19	1.765
612.52	1.743
612.85	1.743
613.18	1.737
613.51	1.739
613.84	1.691
614.17	1.689
614.49	1.671
614.82	1.668
615.15	1.668
615.48	1.657
615.81	1.673
616.14	1.675
616.47	1.648
616.80	1.650
617.13	1.636
617.46	1.647
617.78	1.633
618.11	1.620
618.44	1.606
618.77	1.572
619.10	1.557
619.43	1.529
619.76	1.521
620.09	1.552
620.41	1.547
620.74	1.604
621.07	1.585
621.40	1.602
621.73	1.642
622.06	1.671
622.38	1.699
622.71	1.697
623.04	1.694
623.37	1.715
623.70	1.707
624.02	1.704
624.35	1.702
624.68	1.739
625.01	1.765
625.34	1.744
625.66	1.748
625.99	1.750
626.32	1.764
626.65	1.766
626.98	1.745
627.30	1.745
627.63	1.733
627.96	1.704
628.29	1.662
628.61	1.625
628.94	1.614
629.27	1.595
629.60	1.593
629.92	1.563
630.25	1.576
630.58	1.557
630.91	1.540
631.23	1.549
631.56	1.543
631.89	1.553
632.21	1.530
632.54	1.514
632.87	1.510
633.19	1.478
633.52	1.457
633.85	1.459
634.18	1.449
634.50	1.433
634.83	1.422
635.16	1.430
635.48	1.437
635.81	1.422
636.14	1.414
636.46	1.364
636.79	1.363
637.11	1.391
637.44	1.366
637.77	1.351
638.09	1.347
638.42	1.304
638.75	1.300
639.07	1.245
639.40	1.219
639.73	1.217
640.05	1.235
640.38	1.214
640.70	1.197
641.03	1.170
641.36	1.165
641.68	1.150
642.01	1.139
642.33	1.126
642.66	1.165
642.98	1.195
643.31	1.178
643.64	1.165
643.96	1.169
644.29	1.184
644.61	1.187
644.94	1.180
645.26	1.211
645.59	1.249
645.91	1.233
646.24	1.229
646.56	1.223
646.89	1.255
647.22	1.295
647.54	1.317
647.87	1.275
648.19	1.298
648.52	1.372
648.84	1.367
649.17	1.333
649.49	1.308
649.82	1.305
650.14	1.322
650.47	1.315
650.79	1.288
651.11	1.281
651.44	1.323
651.76	1.319
652.09	1.271
652.41	1.253
652.74	1.298
653.06	1.349
653.39	1.344
653.71	1.397
654.04	1.421
654.36	1.440
654.68	1.428
655.01	1.444
655.33	1.445
655.66	1.437
655.98	1.453
656.30	1.466
656.63	1.489
656.95	1.506
657.28	1.485
657.60	1.432
657.92	1.402
658.25	1.403
658.57	1.358
658.90	1.339
659.22	1.305
659.54	1.297
659.87	1.211
660.19	1.105
660.51	1.062
660.84	1.028
661.16	1.035
661.48	1.005
661.81	0.946
662.13	0.940
662.45	0.894
662.78	0.873
663.10	0.843
663.42	0.879
663.75	0.931
664.07	0.928
664.39	0.900
664.72	0.857
665.04	0.877
665.36	0.859
665.69	0.894
666.01	0.893
666.33	0.940
666.65	0.953
666.98	0.974
667.30	0.961
667.62	0.890
667.94	0.873
668.27	0.888
668.59	0.917
668.91	0.946
669.23	0.950
669.56	0.975
669.88	0.926
670.20	0.852
670.52	0.791
670.85	0.780
671.17	0.832
671.49	0.855
671.81	0.830
672.13	0.781
672.46	0.749
672.78	0.609
673.10	0.541
673.42	0.523
673.74	0.540
674.07	0.561
674.39	0.515
674.71	0.544
675.03	0.506
675.35	0.468
675.67	0.472
676.00	0.546
676.32	0.650
676.64	0.742
676.96	0.781
677.28	0.843
677.60	0.879
677.92	0.950
678.25	0.960
678.57	1.008
678.89	1.040
679.21	1.032
679.53	1.057
679.85	1.051
680.17	1.032
680.49	1.049
680.81	1.031
681.13	1.037
681.46	1.064
681.78	1.088
682.10	1.060
682.42	1.145
682.74	1.201
683.06	1.160
683.38	1.197
683.70	1.196
684.02	1.182
684.34	1.208
684.66	1.234
684.98	1.239
685.30	1.265
685.62	1.295
685.94	1.275
686.26	1.267
686.58	1.279
686.90	1.293
687.22	1.310
687.54	1.326
687.86	1.303
688.18	1.282
688.50	1.223
688.82	1.148
689.14	1.079
689.46	1.031
689.78	0.983
690.10	0.921
690.42	0.860
690.74	0.806
691.06	0.803
691.38	0.787
691.70	0.709
692.02	0.686
692.34	0.678
692.66	0.692
692.98	0.723
693.30	0.774
693.62	0.796
693.94	0.783
694.26	0.890
694.57	0.909
694.89	0.996
695.21	1.129
695.53	1.188
695.85	1.237
696.17	1.310
696.49	1.315
696.81	1.346
697.13	1.395
697.44	1.479
697.76	1.421
698.08	1.413
698.40	1.329
698.72	1.234
699.04	1.162
699.36	1.060
699.67	0.944
699.99	0.807
700.31	0.641
700.63	0.518
700.95	0.351
701.27	0.216
701.58	0.116
701.90	-0.019
702.22	-0.099
702.54	-0.198
702.86	-0.267
703.17	-0.324
703.49	-0.228
703.81	-0.183
704.13	-0.185
704.45	-0.183
704.76	-0.219
705.08	-0.274
705.40	-0.244
705.72	-0.238
706.03	-0.223
706.35	-0.126
706.67	-0.090
706.99	-0.153
707.30	-0.191
707.62	-0.213
707.94	-0.213
708.26	-0.171
708.57	-0.090
708.89	-0.043
709.21	-0.078
709.53	-0.031
709.84	-0.039
710.16	-0.034
710.48	0.045
710.79	0.059
711.11	0.084
711.43	0.041
711.74	0.070
712.06	0.087
712.38	0.098
712.69	0.226
713.01	0.274
713.33	0.275
713.64	0.340
713.96	0.364
714.28	0.497
714.59	0.524
714.91	0.706
715.23	0.811
715.54	0.862
715.86	0.933
716.17	0.938
716.49	0.956
716.81	1.003
717.12	0.952
717.44	0.970
717.76	0.904
718.07	0.918
718.39	0.782
718.70	0.715
719.02	0.629
719.33	0.573
719.65	0.489
719.97	0.479
720.28	0.395
720.60	0.426
720.91	0.367
721.23	0.343
721.54	0.418
721.86	0.488
722.17	0.429
722.49	0.383
722.81	0.333
723.12	0.326
723.44	0.261
723.75	0.377
724.07	0.396
724.38	0.365
724.70	0.397
725.01	0.404
725.33	0.442
725.64	0.541
725.96	0.642
726.27	0.727
726.59	0.734
726.90	0.766
727.22	0.756
727.53	0.718
727.84	0.756
728.16	0.698
728.47	0.588
728.79	0.511
729.10	0.406
729.42	0.391
729.73	0.315
730.05	0.371
730.36	0.338
730.67	0.225
730.99	0.199
731.30	0.059
731.62	-0.027
731.93	-0.108
732.24	-0.224
732.56	-0.239
732.87	-0.469
733.19	-0.563
733.50	-0.720
733.81	-0.829
734.13	-0.838
734.44	-0.931
734.76	-0.856
735.07	-0.929
735.38	-0.904
735.70	-0.841
736.01	-0.931
736.32	-0.849
736.64	-0.732
736.95	-0.781
737.26	-0.797
737.58	-0.864
737.89	-0.963
738.20	-1.172
738.52	-1.273
738.83	-1.356
739.14	-1.460
739.45	-1.425
739.77	-1.502
740.08	-1.708
740.39	-1.918
740.71	-2.013
741.02	-1.993
741.33	-1.851
741.64	-1.892
741.96	-2.079
742.27	-2.197
742.58	-2.364
742.90	-2.319
743.21	-2.406
743.52	-2.402
743.83	-2.160
744.14	-2.322
744.46	-2.523
744.77	-2.676
745.08	-2.468
745.39	-2.214
745.71	-2.232
746.02	-2.122
746.33	-2.319
746.64	-2.235
746.95	-2.241
747.27	-2.230
747.58	-2.146
747.89	-2.030
748.20	-2.042
748.51	-2.164
748.82	-2.071
749.14	-2.092
749.45	-2.006
749.76	-2.055
750.07	-2.098
750.38	-2.126
750.69	-2.068
751.01	-2.037
751.32	-2.132
751.63	-2.144
751.94	-2.150
752.25	-2.278
752.56	-2.244
752.87	-2.332
753.18	-2.329
753.49	-2.317
753.81	-2.313
754.12	-2.426
754.43	-2.249
754.74	-2.152
755.05	-2.069
755.36	-1.785
755.67	-1.482
755.98	-1.089
756.29	-0.848
756.60	-0.540
756.91	-0.183
757.22	0.205
757.53	0.692
757.84	1.015
758.15	1.382
758.46	1.734
758.77	1.944
759.09	2.144
759.40	2.273
759.71	2.459
760.02	2.562
760.33	2.623
760.64	2.671
760.95	2.590
761.26	2.505
761.57	2.419
761.88	2.295
762.18	2.253
762.49	2.173
762.80	1.991
763.11	1.787
763.42	1.689
763.73	1.526
764.04	1.181
764.35	0.933
764.66	0.701
764.97	0.489
765.28	0.320
765.59	-0.131
765.90	-0.617
766.21	-0.849
766.52	-1.143
766.83	-1.371
767.14	-1.558
767.44	-1.565
767.75	-1.764
768.06	-1.853
768.37	-2.234
768.68	-2.377
768.99	-2.578
769.30	-2.554
769.61	-2.824
769.91	-3.107
770.22	-3.494
770.53	-3.747
770.84	-3.780
771.15	-3.699
771.46	-3.897
771.77	-3.945
772.07	-4.153
772.38	-4.157
772.69	-4.307
773.00	-4.457
773.31	-4.132
773.61	-3.999
773.92	-4.012
774.23	-4.140
774.54	-4.356
774.85	-4.311
775.15	-3.966
775.46	-4.016
775.77	-3.947
776.08	-3.879
776.39	-3.769
776.69	-3.558
777.00	-3.351
777.31	-3.383
777.62	-3.230
777.92	-3.376
778.23	-3.368
778.54	-3.706
778.85	-3.635
779.15	-3.469
779.46	-3.490
779.77	-3.376
780.07	-3.555
780.38	-3.939
780.69	-3.780
781.00	-4.186
781.30	-4.237
781.61	-4.313
781.92	-4.141
782.22	-3.944
782.53	-4.147
782.84	-3.981
783.14	-3.709
783.45	-3.781
783.76	-3.137
784.06	-3.269
784.37	-2.630
784.68	-2.355
784.98	-2.007
785.29	-1.567
785.60	-1.587
785.90	-1.188
786.21	-1.306
786.51	-1.250
786.82	-1.268
787.13	-1.234
787.43	-1.003
787.74	-1.182
788.04	-0.921
788.35	-1.150
788.66	-1.535
788.96	-1.481
789.27	-1.413
789.57	-1.301
789.88	-1.097
790.19	-0.862
790.49	-1.188
790.80	-1.252
791.10	-1.282
791.41	-1.570
791.71	-1.207
792.02	-0.754
792.32	-0.830
792.63	-0.929
792.93	-0.613
793.24	-1.287
793.54	-1.450
793.85	-0.983
794.15	-0.931
794.46	-0.910
794.76	-0.780
795.07	-0.709
795.37	-0.789
795.68	-0.692
795.98	-0.583
796.29	-0.399
796.59	-0.031
796.90	-0.234
797.20	-0.654
797.51	-0.521
797.81	-0.599
798.12	-0.616
798.42	-0.724
798.72	-0.858
799.03	-0.847
799.33	-0.821
799.64	-1.177
799.94	-1.314
800.25	-0.823
800.55	-0.656
800.85	-0.898
801.16	-0.745
801.46	-0.618
801.77	-0.726
802.07	-0.844
802.37	-0.814
802.68	-1.097
802.98	-1.245
803.28	-1.067
803.59	-1.323
803.89	-1.254
804.20	-1.106
804.50	-1.051
804.80	-1.317
805.11	-1.391
805.41	-1.325
805.71	-1.198
806.02	-1.216
806.32	-0.937
806.62	-1.142
806.93	-1.159
807.23	-1.040
807.53	-1.111
807.83	-1.313
808.14	-1.290
808.44	-1.248
808.74	-0.922
809.05	-0.910
809.35	-0.264
809.65	-0.278
809.95	0.087
810.26	0.417
810.56	0.548
810.86	0.926
811.16	0.924
811.47	1.384
811.77	2.154
812.07	2.349
812.37	1.854
812.68	1.315
812.98	1.613
813.28	1.471
813.58	1.149
813.88	0.450
814.19	0.535
814.49	0.981
814.79	0.966
815.09	0.245
815.39	-0.229
815.70	0.325
816.00	0.484
816.30	0.018
816.60	0.398
816.90	1.217
817.20	1.695
817.50	1.802
817.81	2.162
818.11	2.417
818.41	2.902
818.71	3.227
819.01	3.514
819.31	3.758
819.61	3.963
819.92	4.046
820.22	4.070
820.52	4.272
820.82	4.340
821.12	4.381
821.42	4.480
821.72	4.533
822.02	4.568
822.32	4.520
822.62	4.475
822.92	4.467
823.22	4.469
823.52	4.451
823.83	4.295
824.13	4.257
824.43	4.194
824.73	4.102
825.03	4.056
825.33	4.085
825.63	4.115
825.93	4.149
826.23	4.116
826.53	4.082
826.83	4.051
827.13	4.058
827.43	3.945
827.73	3.896
828.03	3.753
828.33	3.474
828.63	3.509
828.93	3.322
829.23	3.146
829.53	3.193
829.83	3.441
830.13	3.533
830.42	3.320
830.72	3.483
831.02	3.616
831.32	3.822
831.62	3.938
831.92	3.556
832.22	3.648
832.52	3.653
832.82	3.855
833.12	3.614
833.42	3.430
833.72	3.817
834.01	3.959
834.31	3.977
834.61	3.914
834.91	4.044
835.21	4.185
835.51	4.191
835.81	4.329
836.11	4.058
836.40	3.674
836.70	3.884
837.00	3.292
837.30	3.046
837.60	2.775
837.90	2.566
838.19	1.864
838.49	1.574
838.79	1.277
839.09	1.178
839.39	0.993
839.68	1.053
839.98	0.923
840.28	0.483
840.58	0.018
840.88	-0.213
841.17	-0.815
841.47	-0.634
841.77	-1.068
842.07	-1.339
842.36	-1.720
842.66	-2.842
842.96	-2.551
843.26	-4.078
843.55	-4.549
843.85	-3.930
844.15	-4.641
844.45	-3.298
844.74	-2.803
845.04	-3.303
845.34	-2.837
845.63	-3.803
845.93	-2.570
846.23	-3.345
846.53	-2.351
846.82	-0.375
847.12	-0.788
847.42	-1.988
847.71	-4.195
848.01	-5.007
848.31	-3.585
848.60	-4.435
848.90	-5.080
849.19	-5.756
849.49	-4.860
849.79	-5.245
850.08	-4.934
850.38	-4.586
850.68	-2.495
850.97	0.414
851.27	0.864
851.56	0.214
851.86	1.664
852.16	3.004
852.45	2.930
852.75	1.680
853.04	1.874
853.34	1.426
853.64	-0.254
853.93	0.306
854.23	-0.952
854.52	-1.319
854.82	0.655
855.11	-0.071
855.41	-0.251
855.70	0.446
856.00	0.988
856.30	1.538
856.59	0.863
856.89	2.873
857.18	1.300
857.48	1.324
857.77	1.235
858.07	0.155
858.36	-0.806
858.66	-1.186
858.95	-1.605
859.25	-2.518
859.54	-4.059
859.84	-4.542
860.13	-5.955
860.42	-4.863
860.72	-3.742
861.01	-3.840
861.31	-5.508
861.60	-4.624
861.90	-5.858
862.19	-6.352
862.49	-5.324
862.78	-1.781
863.07	-1.496
863.37	-2.086
863.66	-2.809
863.96	-4.510
864.25	-3.808
864.54	-1.641
864.84	-1.506
865.13	-0.217
865.43	-0.324
865.72	5.111
866.01	10.608
866.31	1.016
866.60	-4.814
866.89	-9.409
>>>>>End Spectral Data<<<<<
