OOIBase32 Version 2.0.0.6 Data File
++++++++++++++++++++++++++++++++++++
Date: 01-20-2012, 22:22:29
User: Valued Ocean Optics Customer
Spectrometer Serial Number: USB2E2917
Spectrometer Channel: Master
Integration Time (msec): 4
Spectra Averaged: 10
Boxcar Smoothing: 5
Correct for Electrical Dark: Enabled
Time Normalized: Disabled
Dual-beam Reference: Disabled
Reference Channel: Master
Temperature: Not acquired
Spectrometer Type: S2000
ADC Type: USB2000
Number of Pixels in File: 2048
Graph Title: 
>>>>>Begin Spectral Data<<<<<
180.30	0.000
180.67	0.000
181.03	439.137
181.40	41.728
181.77	78.887
182.14	147.270
182.51	110.471
182.88	180.027
183.25	31.659
183.62	122.547
183.99	159.000
184.36	99.757
184.73	114.125
185.10	205.452
185.46	-151.586
185.83	-25.983
186.20	513.395
186.57	42.676
186.94	119.168
187.31	-85.449
187.68	580.114
188.05	20.915
188.42	51.098
188.78	68.663
189.15	40.140
189.52	27.015
189.89	10.760
190.26	12.788
190.63	14.947
191.00	-3.161
191.37	-17.632
191.73	-19.208
192.10	-58.931
192.47	-19.208
192.84	-39.586
193.21	-14.993
193.58	-30.500
193.94	-27.582
194.31	10.620
194.68	26.467
195.05	20.929
195.42	22.316
195.79	22.682
196.15	23.406
196.52	26.053
196.89	9.948
197.26	12.475
197.63	22.222
198.00	27.275
198.36	11.930
198.73	11.214
199.10	33.250
199.47	48.128
199.84	54.695
200.20	50.239
200.57	36.597
200.94	26.150
201.31	23.620
201.68	17.464
202.04	22.766
202.41	21.736
202.78	16.207
203.15	-4.732
203.51	-20.961
203.88	-11.838
204.25	-6.204
204.62	6.057
204.98	14.486
205.35	17.744
205.72	15.398
206.09	10.750
206.46	11.787
206.82	10.119
207.19	27.732
207.56	21.736
207.92	17.088
208.29	21.004
208.66	4.668
209.03	-0.734
209.39	11.441
209.76	28.857
210.13	41.149
210.50	42.780
210.86	41.813
211.23	28.867
211.60	32.540
211.96	29.760
212.33	23.968
212.70	32.842
213.07	31.365
213.43	11.483
213.80	17.959
214.17	20.389
214.53	16.073
214.90	13.353
215.27	33.875
215.63	40.204
216.00	45.957
216.37	41.610
216.74	31.016
217.10	37.537
217.47	32.691
217.84	23.001
218.20	5.900
218.57	0.688
218.94	1.338
219.30	-6.404
219.67	-5.229
220.04	-4.180
220.40	-3.273
220.77	-2.071
221.13	-0.480
221.50	9.347
221.87	11.292
222.23	14.683
222.60	16.415
222.97	17.190
223.33	16.189
223.70	12.648
224.07	9.712
224.43	8.439
224.80	8.721
225.16	8.303
225.53	6.425
225.90	5.623
226.26	5.587
226.63	5.185
226.99	4.482
227.36	3.308
227.73	3.422
228.09	4.602
228.46	4.908
228.82	4.303
229.19	3.471
229.56	3.953
229.92	3.708
230.29	3.423
230.65	4.772
231.02	4.485
231.38	5.016
231.75	4.502
232.12	4.745
232.48	5.091
232.85	6.114
233.21	6.970
233.58	6.156
233.94	5.848
234.31	6.420
234.68	4.247
235.04	5.176
235.41	4.544
235.77	6.689
236.14	5.181
236.50	4.370
236.87	5.227
237.23	5.490
237.60	5.873
237.96	6.372
238.33	6.244
238.69	6.990
239.06	6.481
239.42	7.133
239.79	6.536
240.15	6.595
240.52	6.452
240.88	6.192
241.25	5.974
241.61	5.472
241.98	5.402
242.34	5.157
242.71	4.939
243.07	4.958
243.44	4.667
243.80	4.588
244.17	4.601
244.53	4.417
244.90	4.062
245.26	4.206
245.63	4.450
245.99	4.371
246.36	4.335
246.72	4.162
247.09	4.118
247.45	3.852
247.81	3.713
248.18	3.721
248.54	3.669
248.91	3.729
249.27	3.609
249.64	3.611
250.00	3.648
250.36	3.805
250.73	4.049
251.09	4.120
251.46	4.623
251.82	4.330
252.19	4.172
252.55	4.798
252.91	5.059
253.28	5.106
253.64	5.075
254.01	5.066
254.37	4.855
254.73	4.649
255.10	4.688
255.46	4.278
255.83	4.680
256.19	4.657
256.55	4.458
256.92	4.577
257.28	4.434
257.65	4.340
258.01	4.272
258.37	4.122
258.74	4.166
259.10	4.075
259.46	4.174
259.83	3.964
260.19	3.858
260.55	3.837
260.92	3.799
261.28	3.783
261.64	3.920
262.01	3.827
262.37	3.990
262.73	3.769
263.10	3.659
263.46	3.819
263.82	4.122
264.19	4.069
264.55	4.075
264.91	4.062
265.28	4.009
265.64	3.845
266.00	4.001
266.37	4.046
266.73	4.316
267.09	4.534
267.46	4.517
267.82	4.455
268.18	4.396
268.54	4.182
268.91	3.860
269.27	3.931
269.63	3.912
270.00	3.762
270.36	3.724
270.72	3.587
271.08	3.352
271.45	3.103
271.81	2.938
272.17	3.206
272.53	3.353
272.90	3.458
273.26	3.386
273.62	3.299
273.98	3.343
274.35	3.309
274.71	3.257
275.07	3.129
275.43	3.220
275.80	3.205
276.16	2.902
276.52	2.832
276.88	2.638
277.25	2.627
277.61	2.733
277.97	2.768
278.33	2.958
278.69	3.247
279.06	3.364
279.42	3.316
279.78	3.517
280.14	3.872
280.50	3.952
280.87	4.080
281.23	4.030
281.59	3.940
281.95	3.904
282.31	3.740
282.68	3.659
283.04	3.756
283.40	3.934
283.76	3.781
284.12	3.582
284.48	3.578
284.85	3.508
285.21	3.512
285.57	3.379
285.93	3.363
286.29	3.395
286.65	3.228
287.02	3.144
287.38	2.843
287.74	2.867
288.10	2.866
288.46	2.896
288.82	3.078
289.18	3.053
289.54	3.199
289.91	3.204
290.27	2.973
290.63	3.286
290.99	3.501
291.35	3.615
291.71	3.590
292.07	3.834
292.43	3.882
292.79	3.642
293.16	3.743
293.52	3.715
293.88	3.901
294.24	4.253
294.60	4.148
294.96	4.028
295.32	4.282
295.68	4.375
296.04	4.267
296.40	4.250
296.76	4.364
297.12	4.387
297.49	4.446
297.85	4.358
298.21	4.218
298.57	4.392
298.93	4.489
299.29	4.519
299.65	4.551
300.01	4.649
300.37	4.685
300.73	4.821
301.09	4.912
301.45	5.059
301.81	5.259
302.17	5.402
302.53	5.369
302.89	5.513
303.25	5.378
303.61	5.423
303.97	5.373
304.33	5.449
304.69	5.593
305.05	5.570
305.41	5.509
305.77	5.452
306.13	5.570
306.49	5.589
306.85	5.504
307.21	5.603
307.57	5.674
307.93	5.606
308.29	5.568
308.65	5.554
309.01	5.667
309.37	5.819
309.73	5.850
310.09	5.735
310.45	5.724
310.81	5.727
311.17	5.795
311.53	5.889
311.89	6.081
312.25	6.212
312.61	6.188
312.96	6.211
313.32	6.101
313.68	6.101
314.04	6.197
314.40	6.192
314.76	6.273
315.12	6.144
315.48	6.110
315.84	6.145
316.20	5.996
316.56	6.055
316.92	6.067
317.27	6.254
317.63	6.290
317.99	6.273
318.35	6.387
318.71	6.479
319.07	6.729
319.43	6.687
319.79	6.627
320.15	6.747
320.50	6.825
320.86	6.851
321.22	6.804
321.58	6.757
321.94	6.759
322.30	6.616
322.66	6.588
323.01	6.455
323.37	6.477
323.73	6.457
324.09	6.487
324.45	6.476
324.81	6.505
325.17	6.503
325.52	6.558
325.88	6.523
326.24	6.533
326.60	6.538
326.96	6.528
327.31	6.525
327.67	6.579
328.03	6.631
328.39	6.740
328.75	6.785
329.11	6.795
329.46	6.799
329.82	6.962
330.18	7.102
330.54	7.081
330.90	7.179
331.25	7.123
331.61	7.102
331.97	7.039
332.33	6.927
332.68	6.815
333.04	6.828
333.40	6.902
333.76	6.860
334.11	6.728
334.47	6.704
334.83	6.730
335.19	6.813
335.54	6.836
335.90	6.888
336.26	6.917
336.62	6.943
336.97	6.915
337.33	6.828
337.69	6.796
338.05	6.760
338.40	6.764
338.76	6.636
339.12	6.658
339.48	6.627
339.83	6.514
340.19	6.412
340.55	6.443
340.90	6.399
341.26	6.367
341.62	6.385
341.97	6.523
342.33	6.455
342.69	6.497
343.04	6.391
343.40	6.391
343.76	6.450
344.12	6.458
344.47	6.438
344.83	6.478
345.19	6.514
345.54	6.456
345.90	6.374
346.26	6.529
346.61	6.548
346.97	6.617
347.32	6.586
347.68	6.560
348.04	6.607
348.39	6.526
348.75	6.431
349.11	6.474
349.46	6.494
349.82	6.544
350.18	6.442
350.53	6.400
350.89	6.391
351.24	6.376
351.60	6.381
351.96	6.309
352.31	6.369
352.67	6.383
353.02	6.362
353.38	6.312
353.74	6.325
354.09	6.341
354.45	6.383
354.80	6.336
355.16	6.398
355.52	6.303
355.87	6.356
356.23	6.303
356.58	6.345
356.94	6.290
357.29	6.335
357.65	6.303
358.00	6.330
358.36	6.268
358.72	6.270
359.07	6.217
359.43	6.273
359.78	6.275
360.14	6.273
360.49	6.281
360.85	6.268
361.20	6.237
361.56	6.146
361.91	6.033
362.27	6.066
362.62	6.077
362.98	6.068
363.33	6.049
363.69	6.040
364.04	5.978
364.40	5.926
364.75	5.942
365.11	5.972
365.46	6.059
365.82	6.098
366.17	6.060
366.53	6.036
366.88	6.038
367.24	5.990
367.59	5.905
367.95	5.953
368.30	5.941
368.66	5.969
369.01	5.929
369.37	5.895
369.72	5.924
370.08	5.942
370.43	5.962
370.78	5.962
371.14	6.055
371.49	6.085
371.85	6.111
372.20	6.132
372.56	6.104
372.91	6.077
373.26	6.086
373.62	6.087
373.97	6.072
374.33	6.080
374.68	6.081
375.03	6.048
375.39	6.063
375.74	6.046
376.10	6.070
376.45	6.012
376.80	6.037
377.16	6.004
377.51	6.011
377.87	6.014
378.22	6.033
378.57	6.035
378.93	6.073
379.28	6.083
379.63	6.118
379.99	6.124
380.34	6.166
380.70	6.176
381.05	6.270
381.40	6.301
381.76	6.338
382.11	6.338
382.46	6.402
382.82	6.384
383.17	6.440
383.52	6.484
383.88	6.495
384.23	6.515
384.58	6.593
384.94	6.518
385.29	6.484
385.64	6.477
385.99	6.485
386.35	6.434
386.70	6.445
387.05	6.421
387.41	6.395
387.76	6.401
388.11	6.418
388.47	6.386
388.82	6.467
389.17	6.480
389.52	6.492
389.88	6.494
390.23	6.555
390.58	6.593
390.93	6.590
391.29	6.589
391.64	6.609
391.99	6.615
392.34	6.630
392.70	6.607
393.05	6.586
393.40	6.581
393.75	6.589
394.11	6.566
394.46	6.522
394.81	6.568
395.16	6.554
395.52	6.530
395.87	6.525
396.22	6.460
396.57	6.472
396.92	6.467
397.28	6.477
397.63	6.424
397.98	6.390
398.33	6.361
398.68	6.327
399.04	6.322
399.39	6.299
399.74	6.265
400.09	6.312
400.44	6.304
400.80	6.331
401.15	6.314
401.50	6.345
401.85	6.375
402.20	6.433
402.55	6.446
402.90	6.451
403.26	6.482
403.61	6.536
403.96	6.554
404.31	6.576
404.66	6.601
405.01	6.636
405.36	6.615
405.72	6.625
406.07	6.647
406.42	6.668
406.77	6.696
407.12	6.707
407.47	6.722
407.82	6.699
408.17	6.691
408.53	6.673
408.88	6.660
409.23	6.731
409.58	6.723
409.93	6.703
410.28	6.697
410.63	6.714
410.98	6.729
411.33	6.735
411.68	6.772
412.03	6.783
412.38	6.836
412.73	6.882
413.09	6.917
413.44	6.973
413.79	7.070
414.14	7.125
414.49	7.166
414.84	7.227
415.19	7.293
415.54	7.368
415.89	7.446
416.24	7.502
416.59	7.556
416.94	7.600
417.29	7.661
417.64	7.687
417.99	7.732
418.34	7.782
418.69	7.825
419.04	7.851
419.39	7.893
419.74	7.931
420.09	7.970
420.44	8.015
420.79	8.056
421.14	8.077
421.49	8.107
421.84	8.125
422.19	8.142
422.54	8.176
422.89	8.205
423.24	8.226
423.59	8.228
423.94	8.235
424.29	8.217
424.64	8.224
424.99	8.242
425.34	8.244
425.68	8.257
426.03	8.303
426.38	8.291
426.73	8.312
427.08	8.319
427.43	8.370
427.78	8.392
428.13	8.467
428.48	8.519
428.83	8.548
429.18	8.621
429.53	8.685
429.87	8.719
430.22	8.766
430.57	8.830
430.92	8.867
431.27	8.906
431.62	8.960
431.97	8.963
432.32	8.992
432.67	9.019
433.01	9.036
433.36	9.051
433.71	9.069
434.06	9.114
434.41	9.127
434.76	9.185
435.11	9.239
435.45	9.282
435.80	9.372
436.15	9.422
436.50	9.497
436.85	9.548
437.20	9.626
437.54	9.688
437.89	9.734
438.24	9.787
438.59	9.806
438.94	9.813
439.29	9.857
439.63	9.873
439.98	9.901
440.33	9.928
440.68	9.966
441.03	9.986
441.37	9.993
441.72	10.036
442.07	10.069
442.42	10.106
442.76	10.144
443.11	10.189
443.46	10.225
443.81	10.254
444.16	10.267
444.50	10.268
444.85	10.270
445.20	10.287
445.55	10.250
445.89	10.236
446.24	10.225
446.59	10.236
446.94	10.189
447.28	10.152
447.63	10.119
447.98	10.104
448.32	10.089
448.67	10.071
449.02	10.075
449.37	10.084
449.71	10.105
450.06	10.106
450.41	10.112
450.75	10.131
451.10	10.167
451.45	10.190
451.79	10.216
452.14	10.232
452.49	10.249
452.84	10.276
453.18	10.326
453.53	10.334
453.88	10.386
454.22	10.417
454.57	10.467
454.92	10.525
455.26	10.581
455.61	10.656
455.95	10.733
456.30	10.827
456.65	10.892
456.99	10.955
457.34	11.016
457.69	11.086
458.03	11.129
458.38	11.179
458.73	11.190
459.07	11.211
459.42	11.205
459.76	11.215
460.11	11.196
460.46	11.181
460.80	11.164
461.15	11.164
461.49	11.149
461.84	11.150
462.19	11.154
462.53	11.202
462.88	11.231
463.22	11.274
463.57	11.297
463.91	11.326
464.26	11.370
464.61	11.416
464.95	11.441
465.30	11.461
465.64	11.515
465.99	11.537
466.33	11.547
466.68	11.576
467.02	11.597
467.37	11.603
467.71	11.630
468.06	11.630
468.41	11.664
468.75	11.693
469.10	11.697
469.44	11.684
469.79	11.678
470.13	11.666
470.48	11.649
470.82	11.634
471.17	11.647
471.51	11.632
471.86	11.627
472.20	11.606
472.55	11.608
472.89	11.604
473.23	11.601
473.58	11.609
473.92	11.653
474.27	11.671
474.61	11.699
474.96	11.704
475.30	11.723
475.65	11.743
475.99	11.782
476.34	11.791
476.68	11.819
477.02	11.819
477.37	11.843
477.71	11.859
478.06	11.927
478.40	12.013
478.75	12.176
479.09	12.355
479.43	12.565
479.78	12.799
480.12	13.062
480.47	13.340
480.81	13.621
481.15	13.902
481.50	14.183
481.84	14.498
482.19	14.840
482.53	15.137
482.87	15.344
483.22	15.396
483.56	15.297
483.90	15.106
484.25	14.838
484.59	14.536
484.94	14.288
485.28	14.080
485.62	13.805
485.97	13.477
486.31	13.179
486.65	12.962
487.00	12.890
487.34	12.918
487.68	13.026
488.03	13.177
488.37	13.360
488.71	13.457
489.06	13.470
489.40	13.482
489.74	13.507
490.09	13.497
490.43	13.499
490.77	13.486
491.11	13.480
491.46	13.449
491.80	13.431
492.14	13.401
492.49	13.372
492.83	13.360
493.17	13.332
493.51	13.301
493.86	13.327
494.20	13.341
494.54	13.390
494.88	13.476
495.23	13.555
495.57	13.629
495.91	13.703
496.25	13.751
496.60	13.797
496.94	13.855
497.28	13.916
497.62	13.971
497.97	14.028
498.31	14.062
498.65	14.081
498.99	14.127
499.33	14.181
499.68	14.243
500.02	14.338
500.36	14.418
500.70	14.507
501.04	14.581
501.39	14.648
501.73	14.730
502.07	14.835
502.41	14.913
502.75	14.989
503.09	15.085
503.44	15.174
503.78	15.255
504.12	15.335
504.46	15.443
504.80	15.551
505.14	15.665
505.49	15.746
505.83	15.804
506.17	15.911
506.51	16.036
506.85	16.128
507.19	16.202
507.53	16.272
507.87	16.374
508.22	16.425
508.56	16.477
508.90	16.529
509.24	16.607
509.58	16.687
509.92	16.733
510.26	16.777
510.60	16.826
510.94	16.899
511.28	16.969
511.63	16.998
511.97	17.058
512.31	17.131
512.65	17.185
512.99	17.232
513.33	17.350
513.67	17.490
514.01	17.588
514.35	17.677
514.69	17.760
515.03	17.879
515.37	17.996
515.71	18.098
516.05	18.171
516.39	18.258
516.73	18.316
517.07	18.363
517.41	18.387
517.75	18.425
518.09	18.453
518.43	18.485
518.77	18.486
519.11	18.480
519.45	18.466
519.79	18.510
520.13	18.525
520.47	18.588
520.81	18.634
521.15	18.713
521.49	18.780
521.83	18.863
522.17	18.934
522.51	19.034
522.85	19.173
523.19	19.331
523.53	19.492
523.87	19.713
524.21	19.940
524.55	20.128
524.89	20.301
525.23	20.484
525.57	20.656
525.91	20.807
526.25	20.950
526.58	21.066
526.92	21.182
527.26	21.274
527.60	21.322
527.94	21.332
528.28	21.327
528.62	21.316
528.96	21.286
529.30	21.242
529.64	21.208
529.97	21.136
530.31	21.083
530.65	21.030
530.99	20.982
531.33	20.970
531.67	20.974
532.01	20.997
532.35	21.008
532.68	21.003
533.02	20.994
533.36	20.989
533.70	21.004
534.04	20.997
534.38	20.981
534.71	20.962
535.05	20.916
535.39	20.892
535.73	20.863
536.07	20.865
536.41	20.937
536.74	21.021
537.08	21.104
537.42	21.202
537.76	21.294
538.10	21.400
538.43	21.513
538.77	21.631
539.11	21.722
539.45	21.817
539.79	21.901
540.12	21.968
540.46	22.002
540.80	22.016
541.14	22.015
541.47	22.010
541.81	22.011
542.15	21.986
542.49	21.949
542.82	21.914
543.16	21.902
543.50	21.855
543.84	21.785
544.17	21.771
544.51	21.770
544.85	21.783
545.18	21.806
545.52	21.789
545.86	21.796
546.20	21.804
546.53	21.804
546.87	21.765
547.21	21.762
547.54	21.774
547.88	21.760
548.22	21.786
548.55	21.803
548.89	21.794
549.23	21.808
549.56	21.808
549.90	21.839
550.24	21.870
550.57	21.920
550.91	21.958
551.25	22.020
551.58	22.069
551.92	22.092
552.26	22.094
552.59	22.122
552.93	22.170
553.27	22.231
553.60	22.261
553.94	22.271
554.27	22.313
554.61	22.327
554.95	22.309
555.28	22.340
555.62	22.367
555.95	22.402
556.29	22.453
556.63	22.476
556.96	22.480
557.30	22.512
557.63	22.579
557.97	22.609
558.31	22.654
558.64	22.735
558.98	22.764
559.31	22.781
559.65	22.844
559.98	22.883
560.32	22.906
560.65	22.977
560.99	22.993
561.33	23.028
561.66	23.070
562.00	23.148
562.33	23.171
562.67	23.245
563.00	23.315
563.34	23.336
563.67	23.378
564.01	23.429
564.34	23.467
564.68	23.553
565.01	23.621
565.35	23.637
565.68	23.641
566.02	23.642
566.35	23.672
566.69	23.707
567.02	23.763
567.36	23.792
567.69	23.817
568.03	23.864
568.36	23.876
568.69	23.878
569.03	23.909
569.36	23.966
569.70	24.073
570.03	24.094
570.37	24.106
570.70	24.148
571.04	24.192
571.37	24.246
571.70	24.285
572.04	24.316
572.37	24.352
572.71	24.411
573.04	24.431
573.37	24.402
573.71	24.422
574.04	24.462
574.38	24.461
574.71	24.488
575.04	24.516
575.38	24.532
575.71	24.543
576.05	24.583
576.38	24.584
576.71	24.590
577.05	24.639
577.38	24.686
577.71	24.709
578.05	24.735
578.38	24.743
578.71	24.738
579.05	24.730
579.38	24.787
579.71	24.781
580.05	24.827
580.38	24.899
580.71	24.923
581.05	24.938
581.38	24.975
581.71	25.019
582.05	25.072
582.38	25.118
582.71	25.154
583.04	25.175
583.38	25.215
583.71	25.222
584.04	25.271
584.38	25.319
584.71	25.359
585.04	25.366
585.37	25.417
585.71	25.459
586.04	25.496
586.37	25.522
586.70	25.546
587.04	25.581
587.37	25.640
587.70	25.661
588.03	25.671
588.37	25.664
588.70	25.710
589.03	25.712
589.36	25.725
589.69	25.770
590.03	25.806
590.36	25.828
590.69	25.868
591.02	25.890
591.35	25.891
591.69	25.935
592.02	26.010
592.35	26.047
592.68	26.116
593.01	26.180
593.35	26.216
593.68	26.266
594.01	26.344
594.34	26.378
594.67	26.415
595.00	26.445
595.34	26.487
595.67	26.500
596.00	26.507
596.33	26.531
596.66	26.512
596.99	26.533
597.32	26.603
597.65	26.577
597.99	26.606
598.32	26.625
598.65	26.655
598.98	26.650
599.31	26.697
599.64	26.738
599.97	26.729
600.30	26.800
600.63	26.817
600.96	26.777
601.30	26.824
601.63	26.868
601.96	26.898
602.29	26.934
602.62	26.985
602.95	27.006
603.28	27.036
603.61	27.073
603.94	27.104
604.27	27.117
604.60	27.177
604.93	27.211
605.26	27.205
605.59	27.230
605.92	27.210
606.25	27.200
606.58	27.201
606.91	27.269
607.24	27.298
607.57	27.286
607.90	27.317
608.23	27.301
608.56	27.301
608.89	27.349
609.22	27.369
609.55	27.430
609.88	27.442
610.21	27.487
610.54	27.475
610.87	27.479
611.20	27.493
611.53	27.495
611.86	27.531
612.19	27.526
612.52	27.554
612.85	27.556
613.18	27.581
613.51	27.636
613.84	27.664
614.17	27.705
614.49	27.728
614.82	27.767
615.15	27.807
615.48	27.786
615.81	27.845
616.14	27.806
616.47	27.853
616.80	27.819
617.13	27.846
617.46	27.844
617.78	27.812
618.11	27.837
618.44	27.825
618.77	27.866
619.10	27.941
619.43	27.942
619.76	27.977
620.09	27.974
620.41	27.964
620.74	27.976
621.07	27.999
621.40	28.031
621.73	28.048
622.06	28.101
622.38	28.121
622.71	28.151
623.04	28.181
623.37	28.187
623.70	28.225
624.02	28.356
624.35	28.382
624.68	28.408
625.01	28.470
625.34	28.460
625.66	28.465
625.99	28.458
626.32	28.422
626.65	28.436
626.98	28.477
627.30	28.473
627.63	28.439
627.96	28.442
628.29	28.451
628.61	28.427
628.94	28.471
629.27	28.478
629.60	28.514
629.92	28.557
630.25	28.524
630.58	28.546
630.91	28.605
631.23	28.622
631.56	28.648
631.89	28.632
632.21	28.625
632.54	28.608
632.87	28.631
633.19	28.613
633.52	28.644
633.85	28.694
634.18	28.682
634.50	28.652
634.83	28.608
635.16	28.601
635.48	28.588
635.81	28.571
636.14	28.573
636.46	28.534
636.79	28.516
637.11	28.496
637.44	28.514
637.77	28.507
638.09	28.475
638.42	28.471
638.75	28.434
639.07	28.479
639.40	28.455
639.73	28.451
640.05	28.436
640.38	28.409
640.70	28.415
641.03	28.362
641.36	28.359
641.68	28.334
642.01	28.334
642.33	28.270
642.66	28.229
642.98	28.279
643.31	28.241
643.64	28.303
643.96	28.342
644.29	28.310
644.61	28.351
644.94	28.330
645.26	28.378
645.59	28.420
645.91	28.530
646.24	28.540
646.56	28.569
646.89	28.594
647.22	28.578
647.54	28.605
647.87	28.574
648.19	28.543
648.52	28.540
648.84	28.564
649.17	28.546
649.49	28.474
649.82	28.469
650.14	28.380
650.47	28.425
650.79	28.394
651.11	28.362
651.44	28.410
651.76	28.394
652.09	28.470
652.41	28.435
652.74	28.401
653.06	28.420
653.39	28.400
653.71	28.397
654.04	28.357
654.36	28.377
654.68	28.386
655.01	28.401
655.33	28.404
655.66	28.365
655.98	28.302
656.30	28.295
656.63	28.338
656.95	28.369
657.28	28.398
657.60	28.380
657.92	28.347
658.25	28.312
658.57	28.256
658.90	28.191
659.22	28.132
659.54	28.169
659.87	28.127
660.19	28.073
660.51	27.990
660.84	27.925
661.16	27.858
661.48	27.758
661.81	27.718
662.13	27.671
662.45	27.684
662.78	27.616
663.10	27.513
663.42	27.548
663.75	27.472
664.07	27.420
664.39	27.378
664.72	27.290
665.04	27.333
665.36	27.269
665.69	27.261
666.01	27.203
666.33	27.176
666.65	27.159
666.98	27.035
667.30	26.954
667.62	26.891
667.94	26.909
668.27	26.993
668.59	26.935
668.91	26.916
669.23	26.816
669.56	26.764
669.88	26.707
670.20	26.643
670.52	26.669
670.85	26.730
671.17	26.718
671.49	26.651
671.81	26.587
672.13	26.549
672.46	26.492
672.78	26.542
673.10	26.537
673.42	26.524
673.74	26.549
674.07	26.556
674.39	26.429
674.71	26.447
675.03	26.403
675.35	26.358
675.67	26.334
676.00	26.298
676.32	26.189
676.64	26.169
676.96	26.161
677.28	26.114
677.60	26.002
677.92	26.014
678.25	26.056
678.57	26.093
678.89	26.070
679.21	26.042
679.53	26.008
679.85	26.026
680.17	25.980
680.49	25.932
680.81	25.892
681.13	25.910
681.46	25.855
681.78	25.714
682.10	25.671
682.42	25.616
682.74	25.597
683.06	25.665
683.38	25.629
683.70	25.621
684.02	25.632
684.34	25.668
684.66	25.694
684.98	25.737
685.30	25.768
685.62	25.767
685.94	25.755
686.26	25.702
686.58	25.638
686.90	25.715
687.22	25.742
687.54	25.710
687.86	25.605
688.18	25.521
688.50	25.393
688.82	25.274
689.14	25.080
689.46	25.007
689.78	24.988
690.10	24.860
690.42	24.652
690.74	24.491
691.06	24.363
691.38	24.285
691.70	24.157
692.02	24.039
692.34	23.996
692.66	23.916
692.98	23.853
693.30	23.813
693.62	23.901
693.94	23.919
694.26	23.965
694.57	23.959
694.89	24.021
695.21	24.095
695.53	24.235
695.85	24.332
696.17	24.470
696.49	24.503
696.81	24.562
697.13	24.506
697.44	24.476
697.76	24.432
698.08	24.442
698.40	24.358
698.72	24.278
699.04	24.101
699.36	23.932
699.67	23.696
699.99	23.384
700.31	23.066
700.63	22.783
700.95	22.483
701.27	22.155
701.58	21.667
701.90	21.321
702.22	20.995
702.54	20.753
702.86	20.488
703.17	20.346
703.49	20.351
703.81	20.182
704.13	20.030
704.45	19.959
704.76	19.946
705.08	20.039
705.40	19.943
705.72	19.911
706.03	19.933
706.35	19.885
706.67	19.783
706.99	19.746
707.30	19.769
707.62	19.783
707.94	19.769
708.26	19.691
708.57	19.716
708.89	19.738
709.21	19.685
709.53	19.617
709.84	19.532
710.16	19.568
710.48	19.476
710.79	19.389
711.11	19.420
711.43	19.434
711.74	19.519
712.06	19.493
712.38	19.606
712.69	19.676
713.01	19.822
713.33	19.929
713.64	20.050
713.96	20.313
714.28	20.630
714.59	20.774
714.91	20.937
715.23	21.121
715.54	21.328
715.86	21.408
716.17	21.478
716.49	21.376
716.81	21.408
717.12	21.266
717.44	21.019
717.76	20.701
718.07	20.565
718.39	20.263
718.70	19.930
719.02	19.476
719.33	19.103
719.65	18.867
719.97	18.611
720.28	18.455
720.60	18.361
720.91	18.348
721.23	18.213
721.54	18.111
721.86	18.188
722.17	18.216
722.49	18.425
722.81	18.673
723.12	18.749
723.44	19.034
723.75	19.146
724.07	19.184
724.38	19.128
724.70	19.049
725.01	18.869
725.33	18.871
725.64	18.810
725.96	18.843
726.27	18.640
726.59	18.595
726.90	18.567
727.22	18.567
727.53	18.543
727.84	18.507
728.16	18.439
728.47	18.477
728.79	18.289
729.10	18.093
729.42	17.686
729.73	17.458
730.05	17.045
730.36	16.718
730.67	16.167
730.99	15.767
731.30	15.398
731.62	15.199
731.93	14.853
732.24	14.526
732.56	14.170
732.87	13.971
733.19	13.555
733.50	13.412
733.81	12.914
734.13	12.711
734.44	12.213
734.76	11.972
735.07	11.748
735.38	11.364
735.70	10.887
736.01	10.514
736.32	10.301
736.64	10.201
736.95	9.953
737.26	9.793
737.58	9.470
737.89	9.370
738.20	8.850
738.52	8.183
738.83	7.760
739.14	7.467
739.45	7.049
739.77	6.504
740.08	5.888
740.39	5.295
740.71	4.722
741.02	4.304
741.33	3.849
741.64	3.583
741.96	3.060
742.27	2.603
742.58	2.244
742.90	1.937
743.21	1.568
743.52	1.661
743.83	1.316
744.14	1.252
744.46	0.817
744.77	0.575
745.08	0.191
745.39	0.599
745.71	0.703
746.02	0.638
746.33	0.907
746.64	0.871
746.95	0.527
747.27	0.715
747.58	0.747
747.89	0.742
748.20	0.796
748.51	1.062
748.82	0.763
749.14	0.579
749.45	0.532
749.76	0.083
750.07	-0.147
750.38	-0.282
750.69	-0.300
751.01	-0.795
751.32	-0.821
751.63	-1.100
751.94	-1.457
752.25	-1.381
752.56	-1.384
752.87	-1.509
753.18	-1.442
753.49	-1.407
753.81	-1.365
754.12	-1.385
754.43	-1.036
754.74	-0.347
755.05	0.351
755.36	1.505
755.67	2.125
755.98	3.239
756.29	4.418
756.60	5.867
756.91	7.221
757.22	8.860
757.53	10.310
757.84	11.817
758.15	13.092
758.46	14.497
758.77	15.495
759.09	16.726
759.40	17.430
759.71	18.090
760.02	18.440
760.33	18.763
760.64	18.812
760.95	18.911
761.26	18.950
761.57	18.824
761.88	18.564
762.18	18.286
762.49	17.877
762.80	17.432
763.11	16.757
763.42	16.099
763.73	15.223
764.04	14.405
764.35	13.378
764.66	12.190
764.97	10.839
765.28	9.281
765.59	7.346
765.90	5.252
766.21	3.338
766.52	1.517
766.83	-0.365
767.14	-2.009
767.44	-3.603
767.75	-5.288
768.06	-6.731
768.37	-7.917
768.68	-9.492
768.99	-10.335
769.30	-11.045
769.61	-12.142
769.91	-12.744
770.22	-13.519
770.53	-13.849
770.84	-14.754
771.15	-15.055
771.46	-15.655
771.77	-16.354
772.07	-16.019
772.38	-16.612
772.69	-16.805
773.00	-17.010
773.31	-17.330
773.61	-17.845
773.92	-18.521
774.23	-18.347
774.54	-18.991
774.85	-18.687
775.15	-18.673
775.46	-18.730
775.77	-18.127
776.08	-18.239
776.39	-18.039
776.69	-18.060
777.00	-17.767
777.31	-17.320
777.62	-17.057
777.92	-16.569
778.23	-17.369
778.54	-17.151
778.85	-17.418
779.15	-17.733
779.46	-17.341
779.77	-17.657
780.07	-17.822
780.38	-18.013
780.69	-18.107
781.00	-18.773
781.30	-18.962
781.61	-18.359
781.92	-19.215
782.22	-19.198
782.53	-19.519
782.84	-19.988
783.14	-19.194
783.45	-18.540
783.76	-17.328
784.06	-16.410
784.37	-15.271
784.68	-14.001
784.98	-13.395
785.29	-11.487
785.60	-10.287
785.90	-8.731
786.21	-7.681
786.51	-6.706
786.82	-5.388
787.13	-5.239
787.43	-4.809
787.74	-4.122
788.04	-4.355
788.35	-4.371
788.66	-4.635
788.96	-5.240
789.27	-5.655
789.57	-6.063
789.88	-6.886
790.19	-8.219
790.49	-8.245
790.80	-9.303
791.10	-10.313
791.41	-10.097
791.71	-9.822
792.02	-9.723
792.32	-9.356
792.63	-8.865
792.93	-8.402
793.24	-7.869
793.54	-7.390
793.85	-6.732
794.15	-5.548
794.46	-4.473
794.76	-4.864
795.07	-4.752
795.37	-4.813
795.68	-3.699
795.98	-3.901
796.29	-3.477
796.59	-3.420
796.90	-3.413
797.20	-3.141
797.51	-3.204
797.81	-3.777
798.12	-3.780
798.42	-3.744
798.72	-3.386
799.03	-4.518
799.33	-4.427
799.64	-4.911
799.94	-5.421
800.25	-5.431
800.55	-6.115
800.85	-6.307
801.16	-6.690
801.46	-5.912
801.77	-6.188
802.07	-6.788
802.37	-6.203
802.68	-6.936
802.98	-7.642
803.28	-7.177
803.59	-7.147
803.89	-7.120
804.20	-7.379
804.50	-7.253
804.80	-7.380
805.11	-7.019
805.41	-6.720
805.71	-6.860
806.02	-5.694
806.32	-5.160
806.62	-4.827
806.93	-5.013
807.23	-5.021
807.53	-4.854
807.83	-4.426
808.14	-5.009
808.44	-4.847
808.74	-4.739
809.05	-4.090
809.35	-3.898
809.65	-3.190
809.95	-2.854
810.26	-1.678
810.56	-1.346
810.86	0.016
811.16	0.358
811.47	1.567
811.77	2.711
812.07	3.403
812.37	4.186
812.68	4.667
812.98	5.350
813.28	6.179
813.58	6.707
813.88	7.442
814.19	7.590
814.49	8.425
814.79	8.858
815.09	9.021
815.39	9.318
815.70	9.098
816.00	9.101
816.30	8.956
816.60	9.215
816.90	9.385
817.20	10.041
817.50	11.192
817.81	12.656
818.11	13.921
818.41	14.795
818.71	15.693
819.01	16.640
819.31	17.396
819.61	18.024
819.92	18.388
820.22	18.665
820.52	18.996
820.82	19.156
821.12	19.401
821.42	19.599
821.72	19.680
822.02	19.762
822.32	19.689
822.62	19.692
822.92	19.596
823.22	19.559
823.52	19.547
823.83	19.419
824.13	19.304
824.43	19.063
824.73	18.743
825.03	18.627
825.33	18.402
825.63	18.292
825.93	18.040
826.23	17.983
826.53	17.740
826.83	17.581
827.13	17.313
827.43	17.160
827.73	16.837
828.03	16.509
828.33	16.413
828.63	16.076
828.93	15.549
829.23	14.922
829.53	14.303
829.83	13.734
830.13	13.347
830.42	13.107
830.72	12.852
831.02	12.699
831.32	13.087
831.62	13.135
831.92	13.249
832.22	13.379
832.52	13.576
832.82	13.492
833.12	13.803
833.42	13.967
833.72	13.959
834.01	13.810
834.31	13.921
834.61	13.554
834.91	12.873
835.21	12.528
835.51	11.945
835.81	11.299
836.11	10.596
836.40	9.436
836.70	7.799
837.00	6.877
837.30	5.634
837.60	3.878
837.90	2.571
838.19	1.352
838.49	0.657
838.79	0.048
839.09	0.063
839.39	-0.199
839.68	-1.496
839.98	-1.590
840.28	-3.035
840.58	-3.935
840.88	-5.684
841.17	-6.334
841.47	-8.222
841.77	-9.426
842.07	-12.398
842.36	-16.048
842.66	-18.775
842.96	-21.333
843.26	-24.266
843.55	-25.275
843.85	-26.684
844.15	-26.844
844.45	-27.203
844.74	-24.440
845.04	-29.443
845.34	-27.345
845.63	-26.587
845.93	-27.759
846.23	-28.781
846.53	-30.611
846.82	-34.953
847.12	-36.216
847.42	-33.529
847.71	-34.851
848.01	-38.416
848.31	-32.394
848.60	-32.844
848.90	-33.647
849.19	-32.165
849.49	-33.322
849.79	-33.676
850.08	-33.994
850.38	-30.591
850.68	-33.322
850.97	-34.579
851.27	-35.662
851.56	-40.697
851.86	-41.481
852.16	-41.101
852.45	-43.811
852.75	-38.366
853.04	-38.311
853.34	-36.791
853.64	-40.050
853.93	-38.415
854.23	-38.696
854.52	-36.035
854.82	-34.540
855.11	-36.731
855.41	-39.318
855.70	-33.732
856.00	-36.488
856.30	-36.923
856.59	-32.481
856.89	-33.349
857.18	-36.273
857.48	-37.677
857.77	-39.239
858.07	-36.419
858.36	-36.980
858.66	-37.531
858.95	-41.753
859.25	-41.712
859.54	-42.080
859.84	-43.465
860.13	-40.091
860.42	-38.825
860.72	-38.426
861.01	-37.897
861.31	-37.707
861.60	-31.872
861.90	-27.805
862.19	-27.544
862.49	-26.164
862.78	-24.502
863.07	-24.344
863.37	-23.783
863.66	-26.949
863.96	-24.874
864.25	-22.037
864.54	-24.842
864.84	-26.552
865.13	-27.854
865.43	-25.021
865.72	-13.490
866.01	-46.747
866.31	-32.195
866.60	-25.367
866.89	-1.837
>>>>>End Spectral Data<<<<<
