OOIBase32 Version 2.0.0.6 Data File
++++++++++++++++++++++++++++++++++++
Date: 01-20-2012, 22:23:01
User: Valued Ocean Optics Customer
Spectrometer Serial Number: USB2E2917
Spectrometer Channel: Master
Integration Time (msec): 4
Spectra Averaged: 10
Boxcar Smoothing: 5
Correct for Electrical Dark: Enabled
Time Normalized: Disabled
Dual-beam Reference: Disabled
Reference Channel: Master
Temperature: Not acquired
Spectrometer Type: S2000
ADC Type: USB2000
Number of Pixels in File: 2048
Graph Title: 
>>>>>Begin Spectral Data<<<<<
180.30	0.000
180.67	0.000
181.03	307.128
181.40	38.517
181.77	24.099
182.14	51.483
182.51	57.158
182.88	128.958
183.25	-13.087
183.62	86.190
183.99	133.531
184.36	-2.099
184.73	177.429
185.10	377.111
185.46	-79.112
185.83	29.846
186.20	-728.029
186.57	29.914
186.94	-62.834
187.31	90.503
187.68	378.251
188.05	-106.414
188.42	-127.418
188.78	-12.933
189.15	-2.861
189.52	-7.929
189.89	-22.567
190.26	-14.234
190.63	-6.875
191.00	-18.430
191.37	-41.666
191.73	-37.270
192.10	-56.333
192.47	-12.984
192.84	-29.302
193.21	-36.650
193.58	-15.185
193.94	-21.587
194.31	12.757
194.68	17.879
195.05	11.599
195.42	15.052
195.79	16.035
196.15	-0.072
196.52	-3.482
196.89	-25.685
197.26	-0.408
197.63	23.621
198.00	40.791
198.36	22.879
198.73	32.788
199.10	40.980
199.47	44.914
199.84	33.266
200.20	32.698
200.57	23.695
200.94	16.680
201.31	2.461
201.68	-21.432
202.04	-34.328
202.41	-44.236
202.78	-59.465
203.15	-78.054
203.51	-101.239
203.88	-45.737
204.25	-29.240
204.62	-19.688
204.98	-5.991
205.35	-10.228
205.72	3.868
206.09	1.332
206.46	19.924
206.82	34.400
207.19	29.680
207.56	35.961
207.92	31.752
208.29	33.393
208.66	26.818
209.03	23.161
209.39	32.587
209.76	46.718
210.13	47.384
210.50	36.381
210.86	36.785
211.23	34.787
211.60	28.509
211.96	27.821
212.33	19.938
212.70	12.273
213.07	12.603
213.43	11.113
213.80	1.203
214.17	3.360
214.53	15.668
214.90	10.483
215.27	25.557
215.63	30.149
216.00	19.668
216.37	24.089
216.74	24.486
217.10	35.917
217.47	27.117
217.84	21.421
218.20	15.112
218.57	-0.791
218.94	2.572
219.30	-5.734
219.67	-2.558
220.04	6.044
220.40	2.292
220.77	4.501
221.13	3.958
221.50	10.379
221.87	16.009
222.23	18.980
222.60	18.110
222.97	22.596
223.33	23.510
223.70	20.061
224.07	17.992
224.43	18.982
224.80	16.924
225.16	15.890
225.53	15.268
225.90	13.494
226.26	13.578
226.63	13.709
226.99	10.826
227.36	11.063
227.73	11.394
228.09	10.829
228.46	10.484
228.82	9.935
229.19	8.229
229.56	7.151
229.92	7.195
230.29	5.980
230.65	6.203
231.02	7.396
231.38	5.474
231.75	3.145
232.12	3.814
232.48	3.244
232.85	3.136
233.21	4.797
233.58	4.617
233.94	4.318
234.31	4.449
234.68	4.143
235.04	4.679
235.41	4.445
235.77	5.848
236.14	4.606
236.50	4.961
236.87	6.515
237.23	6.874
237.60	8.010
237.96	8.024
238.33	8.436
238.69	8.279
239.06	7.843
239.42	8.108
239.79	8.104
240.15	8.232
240.52	8.063
240.88	7.993
241.25	7.967
241.61	7.573
241.98	7.607
242.34	7.628
242.71	7.329
243.07	7.133
243.44	6.772
243.80	6.784
244.17	6.729
244.53	6.626
244.90	6.318
245.26	6.316
245.63	6.354
245.99	6.221
246.36	6.058
246.72	5.991
247.09	6.042
247.45	6.006
247.81	5.904
248.18	5.844
248.54	5.520
248.91	5.533
249.27	5.449
249.64	5.588
250.00	5.933
250.36	6.092
250.73	6.142
251.09	6.136
251.46	6.461
251.82	6.335
252.19	6.382
252.55	6.939
252.91	6.760
253.28	6.728
253.64	6.232
254.01	5.796
254.37	5.385
254.73	5.373
255.10	5.219
255.46	5.214
255.83	5.252
256.19	5.322
256.55	5.288
256.92	5.620
257.28	5.530
257.65	5.516
258.01	5.454
258.37	5.427
258.74	5.570
259.10	5.522
259.46	5.526
259.83	5.413
260.19	5.356
260.55	5.369
260.92	5.300
261.28	5.324
261.64	5.514
262.01	5.608
262.37	5.677
262.73	5.234
263.10	5.228
263.46	5.150
263.82	5.575
264.19	5.202
264.55	5.394
264.91	5.245
265.28	5.324
265.64	5.294
266.00	5.142
266.37	5.157
266.73	5.521
267.09	5.534
267.46	5.558
267.82	5.331
268.18	5.543
268.54	5.271
268.91	5.196
269.27	5.046
269.63	4.958
270.00	4.948
270.36	4.838
270.72	4.582
271.08	4.584
271.45	4.597
271.81	4.584
272.17	4.742
272.53	4.901
272.90	4.777
273.26	4.760
273.62	4.709
273.98	4.876
274.35	5.023
274.71	5.205
275.07	5.200
275.43	5.062
275.80	5.167
276.16	4.788
276.52	4.586
276.88	4.598
277.25	4.478
277.61	4.530
277.97	4.390
278.33	4.446
278.69	4.345
279.06	4.370
279.42	4.263
279.78	4.297
280.14	4.756
280.50	4.888
280.87	5.032
281.23	5.074
281.59	5.054
281.95	5.016
282.31	4.903
282.68	5.049
283.04	4.935
283.40	4.980
283.76	4.862
284.12	4.729
284.48	4.684
284.85	4.688
285.21	4.712
285.57	4.632
285.93	4.528
286.29	4.487
286.65	4.370
287.02	4.397
287.38	4.485
287.74	4.485
288.10	4.427
288.46	4.389
288.82	4.392
289.18	4.447
289.54	4.509
289.91	4.637
290.27	4.621
290.63	4.686
290.99	4.881
291.35	4.876
291.71	4.874
292.07	4.974
292.43	4.932
292.79	4.833
293.16	4.716
293.52	4.750
293.88	4.894
294.24	5.158
294.60	5.117
294.96	5.049
295.32	5.160
295.68	5.325
296.04	5.344
296.40	5.488
296.76	5.672
297.12	5.827
297.49	5.798
297.85	5.920
298.21	5.981
298.57	6.174
298.93	6.260
299.29	6.656
299.65	6.810
300.01	7.159
300.37	7.495
300.73	7.627
301.09	7.998
301.45	8.469
301.81	8.827
302.17	9.102
302.53	9.406
302.89	9.922
303.25	9.909
303.61	10.285
303.97	10.380
304.33	10.503
304.69	10.971
305.05	11.142
305.41	11.363
305.77	11.609
306.13	11.804
306.49	12.020
306.85	12.252
307.21	12.596
307.57	12.734
307.93	13.039
308.29	13.292
308.65	13.469
309.01	13.649
309.37	13.832
309.73	13.823
310.09	13.926
310.45	14.105
310.81	14.174
311.17	14.178
311.53	14.351
311.89	14.302
312.25	14.472
312.61	14.485
312.96	14.661
313.32	14.781
313.68	14.963
314.04	15.110
314.40	15.199
314.76	15.320
315.12	15.429
315.48	15.588
315.84	15.771
316.20	15.686
316.56	15.764
316.92	15.683
317.27	15.605
317.63	15.583
317.99	15.504
318.35	15.459
318.71	15.499
319.07	15.676
319.43	15.477
319.79	15.492
320.15	15.476
320.50	15.420
320.86	15.385
321.22	15.459
321.58	15.436
321.94	15.550
322.30	15.502
322.66	15.364
323.01	15.239
323.37	15.207
323.73	15.124
324.09	15.086
324.45	14.979
324.81	14.925
325.17	14.824
325.52	14.775
325.88	14.597
326.24	14.579
326.60	14.639
326.96	14.582
327.31	14.534
327.67	14.526
328.03	14.523
328.39	14.591
328.75	14.613
329.11	14.630
329.46	14.597
329.82	14.653
330.18	14.634
330.54	14.587
330.90	14.536
331.25	14.474
331.61	14.361
331.97	14.398
332.33	14.308
332.68	14.163
333.04	14.079
333.40	14.069
333.76	13.963
334.11	13.854
334.47	13.719
334.83	13.624
335.19	13.669
335.54	13.646
335.90	13.522
336.26	13.550
336.62	13.564
336.97	13.560
337.33	13.505
337.69	13.476
338.05	13.477
338.40	13.510
338.76	13.409
339.12	13.375
339.48	13.397
339.83	13.325
340.19	13.191
340.55	13.179
340.90	13.100
341.26	13.043
341.62	12.963
341.97	12.955
342.33	12.812
342.69	12.839
343.04	12.728
343.40	12.695
343.76	12.632
344.12	12.599
344.47	12.525
344.83	12.472
345.19	12.477
345.54	12.512
345.90	12.466
346.26	12.578
346.61	12.498
346.97	12.495
347.32	12.445
347.68	12.541
348.04	12.539
348.39	12.549
348.75	12.475
349.11	12.428
349.46	12.311
349.82	12.319
350.18	12.141
350.53	12.138
350.89	12.106
351.24	12.063
351.60	11.882
351.96	11.794
352.31	11.734
352.67	11.746
353.02	11.731
353.38	11.751
353.74	11.708
354.09	11.662
354.45	11.701
354.80	11.604
355.16	11.620
355.52	11.621
355.87	11.608
356.23	11.537
356.58	11.520
356.94	11.426
357.29	11.409
357.65	11.358
358.00	11.345
358.36	11.281
358.72	11.322
359.07	11.202
359.43	11.140
359.78	11.107
360.14	11.083
360.49	10.954
360.85	10.916
361.20	10.790
361.56	10.711
361.91	10.646
362.27	10.571
362.62	10.404
362.98	10.347
363.33	10.289
363.69	10.239
364.04	10.152
364.40	10.128
364.75	10.124
365.11	10.133
365.46	10.066
365.82	10.050
366.17	10.026
366.53	10.081
366.88	9.988
367.24	9.962
367.59	9.932
367.95	9.915
368.30	9.930
368.66	9.869
369.01	9.842
369.37	9.843
369.72	9.860
370.08	9.850
370.43	9.783
370.78	9.780
371.14	9.852
371.49	9.807
371.85	9.805
372.20	9.751
372.56	9.727
372.91	9.651
373.26	9.609
373.62	9.591
373.97	9.475
374.33	9.433
374.68	9.427
375.03	9.308
375.39	9.291
375.74	9.230
376.10	9.205
376.45	9.120
376.80	9.116
377.16	9.060
377.51	8.925
377.87	8.959
378.22	8.947
378.57	8.901
378.93	8.887
379.28	8.869
379.63	8.855
379.99	8.852
380.34	8.849
380.70	8.828
381.05	8.822
381.40	8.844
381.76	8.825
382.11	8.785
382.46	8.793
382.82	8.739
383.17	8.704
383.52	8.700
383.88	8.644
384.23	8.636
384.58	8.589
384.94	8.554
385.29	8.489
385.64	8.444
385.99	8.428
386.35	8.357
386.70	8.299
387.05	8.196
387.41	8.120
387.76	8.129
388.11	8.043
388.47	8.031
388.82	8.028
389.17	8.040
389.52	7.978
389.88	7.921
390.23	7.958
390.58	7.968
390.93	7.986
391.29	7.970
391.64	7.882
391.99	7.885
392.34	7.825
392.70	7.774
393.05	7.709
393.40	7.649
393.75	7.584
394.11	7.443
394.46	7.356
394.81	7.304
395.16	7.238
395.52	7.155
395.87	7.047
396.22	6.940
396.57	6.854
396.92	6.745
397.28	6.687
397.63	6.635
397.98	6.552
398.33	6.487
398.68	6.416
399.04	6.347
399.39	6.264
399.74	6.198
400.09	6.152
400.44	6.089
400.80	6.054
401.15	5.997
401.50	5.968
401.85	5.967
402.20	5.938
402.55	5.892
402.90	5.836
403.26	5.810
403.61	5.799
403.96	5.796
404.31	5.745
404.66	5.695
405.01	5.670
405.36	5.592
405.72	5.565
406.07	5.514
406.42	5.464
406.77	5.454
407.12	5.443
407.47	5.392
407.82	5.290
408.17	5.238
408.53	5.223
408.88	5.173
409.23	5.153
409.58	5.074
409.93	5.033
410.28	5.005
410.63	4.951
410.98	4.911
411.33	4.894
411.68	4.882
412.03	4.841
412.38	4.824
412.73	4.829
413.09	4.856
413.44	4.870
413.79	4.917
414.14	4.928
414.49	4.935
414.84	4.935
415.19	4.956
415.54	5.018
415.89	5.096
416.24	5.108
416.59	5.096
416.94	5.088
417.29	5.110
417.64	5.092
417.99	5.091
418.34	5.106
418.69	5.121
419.04	5.135
419.39	5.135
419.74	5.129
420.09	5.136
420.44	5.152
420.79	5.148
421.14	5.124
421.49	5.112
421.84	5.092
422.19	5.076
422.54	5.057
422.89	5.021
423.24	4.995
423.59	4.942
423.94	4.883
424.29	4.855
424.64	4.811
424.99	4.787
425.34	4.740
425.68	4.715
426.03	4.679
426.38	4.633
426.73	4.603
427.08	4.566
427.43	4.552
427.78	4.572
428.13	4.565
428.48	4.594
428.83	4.580
429.18	4.631
429.53	4.643
429.87	4.638
430.22	4.665
430.57	4.679
430.92	4.684
431.27	4.710
431.62	4.723
431.97	4.717
432.32	4.707
432.67	4.709
433.01	4.675
433.36	4.668
433.71	4.674
434.06	4.653
434.41	4.636
434.76	4.634
435.11	4.630
435.45	4.653
435.80	4.690
436.15	4.713
436.50	4.737
436.85	4.775
437.20	4.807
437.54	4.819
437.89	4.856
438.24	4.890
438.59	4.901
438.94	4.907
439.29	4.904
439.63	4.883
439.98	4.881
440.33	4.904
440.68	4.925
441.03	4.931
441.37	4.949
441.72	4.989
442.07	5.019
442.42	5.047
442.76	5.074
443.11	5.096
443.46	5.122
443.81	5.161
444.16	5.181
444.50	5.192
444.85	5.190
445.20	5.196
445.55	5.152
445.89	5.110
446.24	5.084
446.59	5.066
446.94	5.027
447.28	4.982
447.63	4.921
447.98	4.866
448.32	4.819
448.67	4.806
449.02	4.789
449.37	4.788
449.71	4.812
450.06	4.833
450.41	4.835
450.75	4.864
451.10	4.890
451.45	4.896
451.79	4.902
452.14	4.893
452.49	4.876
452.84	4.860
453.18	4.849
453.53	4.832
453.88	4.837
454.22	4.836
454.57	4.854
454.92	4.902
455.26	4.926
455.61	4.994
455.95	5.041
456.30	5.100
456.65	5.157
456.99	5.199
457.34	5.250
457.69	5.281
458.03	5.309
458.38	5.312
458.73	5.301
459.07	5.318
459.42	5.292
459.76	5.277
460.11	5.249
460.46	5.212
460.80	5.188
461.15	5.135
461.49	5.095
461.84	5.070
462.19	5.040
462.53	5.060
462.88	5.053
463.22	5.044
463.57	5.070
463.91	5.088
464.26	5.099
464.61	5.119
464.95	5.162
465.30	5.188
465.64	5.217
465.99	5.245
466.33	5.214
466.68	5.225
467.02	5.236
467.37	5.217
467.71	5.194
468.06	5.201
468.41	5.201
468.75	5.190
469.10	5.178
469.44	5.150
469.79	5.138
470.13	5.139
470.48	5.113
470.82	5.096
471.17	5.088
471.51	5.088
471.86	5.058
472.20	5.033
472.55	5.029
472.89	5.015
473.23	4.996
473.58	4.959
473.92	4.959
474.27	4.951
474.61	4.947
474.96	4.951
475.30	4.953
475.65	4.960
475.99	4.968
476.34	4.955
476.68	4.949
477.02	4.938
477.37	4.964
477.71	4.973
478.06	5.009
478.40	5.092
478.75	5.188
479.09	5.306
479.43	5.433
479.78	5.580
480.12	5.723
480.47	5.876
480.81	6.038
481.15	6.181
481.50	6.319
481.84	6.474
482.19	6.632
482.53	6.764
482.87	6.849
483.22	6.862
483.56	6.807
483.90	6.703
484.25	6.569
484.59	6.406
484.94	6.282
485.28	6.175
485.62	6.033
485.97	5.864
486.31	5.708
486.65	5.601
487.00	5.548
487.34	5.538
487.68	5.571
488.03	5.609
488.37	5.666
488.71	5.683
489.06	5.673
489.40	5.651
489.74	5.634
490.09	5.617
490.43	5.583
490.77	5.555
491.11	5.525
491.46	5.484
491.80	5.451
492.14	5.418
492.49	5.363
492.83	5.304
493.17	5.256
493.51	5.213
493.86	5.178
494.20	5.160
494.54	5.161
494.88	5.180
495.23	5.209
495.57	5.237
495.91	5.267
496.25	5.292
496.60	5.323
496.94	5.361
497.28	5.376
497.62	5.393
497.97	5.389
498.31	5.396
498.65	5.412
498.99	5.448
499.33	5.477
499.68	5.499
500.02	5.554
500.36	5.576
500.70	5.621
501.04	5.669
501.39	5.717
501.73	5.780
502.07	5.824
502.41	5.876
502.75	5.912
503.09	5.975
503.44	6.046
503.78	6.100
504.12	6.171
504.46	6.230
504.80	6.309
505.14	6.378
505.49	6.448
505.83	6.509
506.17	6.557
506.51	6.612
506.85	6.660
507.19	6.710
507.53	6.749
507.87	6.809
508.22	6.844
508.56	6.863
508.90	6.891
509.24	6.922
509.58	6.963
509.92	7.007
510.26	7.027
510.60	7.055
510.94	7.074
511.28	7.095
511.63	7.107
511.97	7.145
512.31	7.166
512.65	7.193
512.99	7.242
513.33	7.293
513.67	7.335
514.01	7.413
514.35	7.488
514.69	7.561
515.03	7.647
515.37	7.703
515.71	7.760
516.05	7.835
516.39	7.900
516.73	7.916
517.07	7.963
517.41	7.987
517.75	7.992
518.09	7.994
518.43	7.991
518.77	7.959
519.11	7.926
519.45	7.890
519.79	7.879
520.13	7.847
520.47	7.845
520.81	7.810
521.15	7.820
521.49	7.816
521.83	7.811
522.17	7.823
522.51	7.884
522.85	7.960
523.19	8.047
523.53	8.125
523.87	8.246
524.21	8.350
524.55	8.455
524.89	8.532
525.23	8.617
525.57	8.685
525.91	8.757
526.25	8.802
526.58	8.844
526.92	8.880
527.26	8.890
527.60	8.879
527.94	8.860
528.28	8.822
528.62	8.793
528.96	8.752
529.30	8.701
529.64	8.645
529.97	8.590
530.31	8.526
530.65	8.454
530.99	8.411
531.33	8.360
531.67	8.340
532.01	8.315
532.35	8.288
532.68	8.255
533.02	8.243
533.36	8.209
533.70	8.173
534.04	8.140
534.38	8.102
534.71	8.058
535.05	8.010
535.39	7.946
535.73	7.913
536.07	7.871
536.41	7.862
536.74	7.842
537.08	7.851
537.42	7.868
537.76	7.898
538.10	7.928
538.43	7.958
538.77	7.998
539.11	8.028
539.45	8.041
539.79	8.057
540.12	8.063
540.46	8.072
540.80	8.052
541.14	8.038
541.47	8.003
541.81	7.976
542.15	7.923
542.49	7.873
542.82	7.815
543.16	7.773
543.50	7.717
543.84	7.658
544.17	7.619
544.51	7.580
544.85	7.539
545.18	7.499
545.52	7.449
545.86	7.426
546.20	7.386
546.53	7.340
546.87	7.285
547.21	7.262
547.54	7.232
547.88	7.185
548.22	7.151
548.55	7.127
548.89	7.107
549.23	7.101
549.56	7.087
549.90	7.083
550.24	7.093
550.57	7.107
550.91	7.095
551.25	7.082
551.58	7.069
551.92	7.063
552.26	7.048
552.59	7.031
552.93	7.024
553.27	7.008
553.60	6.994
553.94	6.996
554.27	6.972
554.61	6.966
554.95	6.961
555.28	6.959
555.62	6.944
555.95	6.937
556.29	6.942
556.63	6.948
556.96	6.952
557.30	6.957
557.63	6.948
557.97	6.957
558.31	6.955
558.64	6.968
558.98	6.962
559.31	6.991
559.65	6.995
559.98	7.038
560.32	7.050
560.65	7.072
560.99	7.093
561.33	7.112
561.66	7.158
562.00	7.208
562.33	7.251
562.67	7.287
563.00	7.311
563.34	7.348
563.67	7.347
564.01	7.358
564.34	7.369
564.68	7.420
565.01	7.439
565.35	7.435
565.68	7.423
566.02	7.397
566.35	7.427
566.69	7.438
567.02	7.475
567.36	7.501
567.69	7.522
568.03	7.533
568.36	7.497
568.69	7.504
569.03	7.500
569.36	7.506
569.70	7.541
570.03	7.540
570.37	7.558
570.70	7.545
571.04	7.540
571.37	7.547
571.70	7.551
572.04	7.581
572.37	7.592
572.71	7.607
573.04	7.629
573.37	7.645
573.71	7.646
574.04	7.653
574.38	7.662
574.71	7.670
575.04	7.654
575.38	7.664
575.71	7.658
576.05	7.662
576.38	7.659
576.71	7.656
577.05	7.637
577.38	7.625
577.71	7.589
578.05	7.571
578.38	7.577
578.71	7.578
579.05	7.589
579.38	7.594
579.71	7.590
580.05	7.614
580.38	7.604
580.71	7.611
581.05	7.662
581.38	7.702
581.71	7.741
582.05	7.733
582.38	7.800
582.71	7.816
583.04	7.838
583.38	7.859
583.71	7.878
584.04	7.932
584.38	7.981
584.71	7.979
585.04	8.012
585.37	8.054
585.71	8.116
586.04	8.138
586.37	8.178
586.70	8.213
587.04	8.255
587.37	8.293
587.70	8.311
588.03	8.299
588.37	8.320
588.70	8.336
589.03	8.369
589.36	8.397
589.69	8.404
590.03	8.405
590.36	8.413
590.69	8.458
591.02	8.475
591.35	8.508
591.69	8.581
592.02	8.623
592.35	8.661
592.68	8.683
593.01	8.722
593.35	8.762
593.68	8.815
594.01	8.848
594.34	8.851
594.67	8.905
595.00	8.920
595.34	8.952
595.67	9.008
596.00	9.034
596.33	9.025
596.66	9.037
596.99	9.053
597.32	9.059
597.65	9.087
597.99	9.120
598.32	9.106
598.65	9.119
598.98	9.118
599.31	9.106
599.64	9.126
599.97	9.176
600.30	9.208
600.63	9.218
600.96	9.245
601.30	9.295
601.63	9.325
601.96	9.398
602.29	9.449
602.62	9.470
602.95	9.502
603.28	9.521
603.61	9.542
603.94	9.544
604.27	9.562
604.60	9.579
604.93	9.576
605.26	9.578
605.59	9.551
605.92	9.535
606.25	9.531
606.58	9.508
606.91	9.534
607.24	9.530
607.57	9.554
607.90	9.576
608.23	9.576
608.56	9.577
608.89	9.573
609.22	9.558
609.55	9.568
609.88	9.576
610.21	9.623
610.54	9.600
610.87	9.606
611.20	9.572
611.53	9.560
611.86	9.597
612.19	9.612
612.52	9.645
612.85	9.658
613.18	9.656
613.51	9.690
613.84	9.649
614.17	9.698
614.49	9.745
614.82	9.771
615.15	9.763
615.48	9.745
615.81	9.736
616.14	9.697
616.47	9.707
616.80	9.707
617.13	9.696
617.46	9.724
617.78	9.709
618.11	9.684
618.44	9.674
618.77	9.677
619.10	9.703
619.43	9.693
619.76	9.724
620.09	9.715
620.41	9.696
620.74	9.706
621.07	9.723
621.40	9.687
621.73	9.664
622.06	9.704
622.38	9.733
622.71	9.744
623.04	9.771
623.37	9.775
623.70	9.786
624.02	9.855
624.35	9.863
624.68	9.866
625.01	9.904
625.34	9.899
625.66	9.870
625.99	9.826
626.32	9.775
626.65	9.753
626.98	9.746
627.30	9.735
627.63	9.683
627.96	9.623
628.29	9.603
628.61	9.595
628.94	9.615
629.27	9.634
629.60	9.680
629.92	9.691
630.25	9.676
630.58	9.679
630.91	9.707
631.23	9.702
631.56	9.710
631.89	9.687
632.21	9.677
632.54	9.643
632.87	9.612
633.19	9.573
633.52	9.568
633.85	9.575
634.18	9.541
634.50	9.510
634.83	9.482
635.16	9.464
635.48	9.463
635.81	9.451
636.14	9.437
636.46	9.405
636.79	9.372
637.11	9.379
637.44	9.357
637.77	9.338
638.09	9.337
638.42	9.348
638.75	9.363
639.07	9.340
639.40	9.268
639.73	9.248
640.05	9.228
640.38	9.203
640.70	9.155
641.03	9.100
641.36	9.148
641.68	9.130
642.01	9.146
642.33	9.153
642.66	9.132
642.98	9.151
643.31	9.112
643.64	9.143
643.96	9.205
644.29	9.191
644.61	9.273
644.94	9.277
645.26	9.288
645.59	9.272
645.91	9.279
646.24	9.301
646.56	9.297
646.89	9.349
647.22	9.366
647.54	9.371
647.87	9.339
648.19	9.261
648.52	9.211
648.84	9.170
649.17	9.118
649.49	9.062
649.82	9.045
650.14	9.003
650.47	8.978
650.79	8.889
651.11	8.831
651.44	8.853
651.76	8.899
652.09	8.893
652.41	8.909
652.74	8.893
653.06	8.881
653.39	8.855
653.71	8.850
654.04	8.854
654.36	8.913
654.68	8.891
655.01	8.893
655.33	8.843
655.66	8.786
655.98	8.726
656.30	8.743
656.63	8.772
656.95	8.786
657.28	8.774
657.60	8.742
657.92	8.690
658.25	8.666
658.57	8.663
658.90	8.637
659.22	8.592
659.54	8.562
659.87	8.471
660.19	8.389
660.51	8.296
660.84	8.255
661.16	8.203
661.48	8.139
661.81	8.071
662.13	7.932
662.45	7.866
662.78	7.854
663.10	7.797
663.42	7.839
663.75	7.808
664.07	7.766
664.39	7.691
664.72	7.618
665.04	7.652
665.36	7.653
665.69	7.659
666.01	7.655
666.33	7.648
666.65	7.630
666.98	7.562
667.30	7.528
667.62	7.467
667.94	7.472
668.27	7.454
668.59	7.355
668.91	7.256
669.23	7.208
669.56	7.078
669.88	6.998
670.20	6.936
670.52	6.848
670.85	6.771
671.17	6.751
671.49	6.649
671.81	6.554
672.13	6.482
672.46	6.481
672.78	6.462
673.10	6.468
673.42	6.402
673.74	6.332
674.07	6.336
674.39	6.326
674.71	6.330
675.03	6.341
675.35	6.401
675.67	6.437
676.00	6.462
676.32	6.453
676.64	6.494
676.96	6.517
677.28	6.614
677.60	6.587
677.92	6.640
678.25	6.637
678.57	6.652
678.89	6.634
679.21	6.548
679.53	6.482
679.85	6.450
680.17	6.334
680.49	6.251
680.81	6.128
681.13	6.094
681.46	5.997
681.78	5.950
682.10	5.881
682.42	5.782
682.74	5.791
683.06	5.837
683.38	5.807
683.70	5.863
684.02	5.888
684.34	5.972
684.66	6.052
684.98	6.009
685.30	6.013
685.62	6.047
685.94	6.025
686.26	6.012
686.58	5.919
686.90	5.893
687.22	5.868
687.54	5.836
687.86	5.714
688.18	5.589
688.50	5.524
688.82	5.425
689.14	5.298
689.46	5.348
689.78	5.218
690.10	5.099
690.42	5.010
690.74	4.870
691.06	4.740
691.38	4.646
691.70	4.574
692.02	4.503
692.34	4.458
692.66	4.391
692.98	4.220
693.30	4.251
693.62	4.312
693.94	4.325
694.26	4.374
694.57	4.451
694.89	4.540
695.21	4.577
695.53	4.649
695.85	4.709
696.17	4.777
696.49	4.847
696.81	4.882
697.13	4.914
697.44	4.907
697.76	4.878
698.08	4.816
698.40	4.694
698.72	4.545
699.04	4.353
699.36	4.125
699.67	3.923
699.99	3.627
700.31	3.319
700.63	2.922
700.95	2.562
701.27	2.162
701.58	1.796
701.90	1.461
702.22	1.232
702.54	1.043
702.86	0.782
703.17	0.588
703.49	0.484
703.81	0.392
704.13	0.329
704.45	0.295
704.76	0.288
705.08	0.342
705.40	0.295
705.72	0.292
706.03	0.292
706.35	0.293
706.67	0.262
706.99	0.282
707.30	0.274
707.62	0.202
707.94	0.145
708.26	0.174
708.57	0.182
708.89	0.165
709.21	0.192
709.53	0.096
709.84	0.071
710.16	0.085
710.48	0.037
710.79	-0.099
711.11	-0.008
711.43	0.040
711.74	0.120
712.06	0.236
712.38	0.369
712.69	0.324
713.01	0.549
713.33	0.796
713.64	0.980
713.96	1.202
714.28	1.486
714.59	1.679
714.91	1.910
715.23	2.127
715.54	2.280
715.86	2.401
716.17	2.540
716.49	2.534
716.81	2.457
717.12	2.327
717.44	2.261
717.76	2.107
718.07	1.950
718.39	1.586
718.70	1.117
719.02	0.627
719.33	0.285
719.65	0.079
719.97	-0.251
720.28	-0.465
720.60	-0.618
720.91	-0.775
721.23	-0.829
721.54	-0.915
721.86	-0.847
722.17	-0.714
722.49	-0.501
722.81	-0.264
723.12	-0.244
723.44	-0.025
723.75	0.089
724.07	0.226
724.38	0.049
724.70	0.020
725.01	-0.039
725.33	0.036
725.64	0.097
725.96	0.121
726.27	0.032
726.59	-0.039
726.90	-0.006
727.22	-0.081
727.53	-0.120
727.84	0.019
728.16	0.010
728.47	0.055
728.79	-0.192
729.10	-0.291
729.42	-0.663
729.73	-1.050
730.05	-1.330
730.36	-1.716
730.67	-2.032
730.99	-2.480
731.30	-2.805
731.62	-3.287
731.93	-3.755
732.24	-4.021
732.56	-4.477
732.87	-4.688
733.19	-4.975
733.50	-5.227
733.81	-5.598
734.13	-6.051
734.44	-6.502
734.76	-6.760
735.07	-7.063
735.38	-7.458
735.70	-7.940
736.01	-8.330
736.32	-8.500
736.64	-8.666
736.95	-8.963
737.26	-9.243
737.58	-9.481
737.89	-9.605
738.20	-10.114
738.52	-10.340
738.83	-10.636
739.14	-10.997
739.45	-11.577
739.77	-12.244
740.08	-12.880
740.39	-13.327
740.71	-13.901
741.02	-14.704
741.33	-15.333
741.64	-15.900
741.96	-16.546
742.27	-17.235
742.58	-17.760
742.90	-18.189
743.21	-18.645
743.52	-18.930
743.83	-19.304
744.14	-19.246
744.46	-19.262
744.77	-19.169
745.08	-19.524
745.39	-19.395
745.71	-19.135
746.02	-19.032
746.33	-18.799
746.64	-18.836
746.95	-18.804
747.27	-18.635
747.58	-18.374
747.89	-18.481
748.20	-18.575
748.51	-18.338
748.82	-18.463
749.14	-18.658
749.45	-18.677
749.76	-19.344
750.07	-19.457
750.38	-19.787
750.69	-19.983
751.01	-20.528
751.32	-20.432
751.63	-20.733
751.94	-20.913
752.25	-21.091
752.56	-21.121
752.87	-21.410
753.18	-21.049
753.49	-20.988
753.81	-20.732
754.12	-20.392
754.43	-20.162
754.74	-19.432
755.05	-18.236
755.36	-16.948
755.67	-15.946
755.98	-14.449
756.29	-12.860
756.60	-11.333
756.91	-9.778
757.22	-8.023
757.53	-6.245
757.84	-4.617
758.15	-2.983
758.46	-1.647
758.77	-0.527
759.09	0.779
759.40	1.656
759.71	2.468
760.02	3.078
760.33	3.612
760.64	3.808
760.95	3.689
761.26	3.830
761.57	3.574
761.88	3.209
762.18	2.889
762.49	2.451
762.80	1.775
763.11	1.049
763.42	0.249
763.73	-0.872
764.04	-1.976
764.35	-3.246
764.66	-4.731
764.97	-6.323
765.28	-8.059
765.59	-10.019
765.90	-12.405
766.21	-14.527
766.52	-16.626
766.83	-18.552
767.14	-20.247
767.44	-21.901
767.75	-23.537
768.06	-25.137
768.37	-26.145
768.68	-27.568
768.99	-28.493
769.30	-29.470
769.61	-30.637
769.91	-31.583
770.22	-32.416
770.53	-33.180
770.84	-34.381
771.15	-34.672
771.46	-35.491
771.77	-36.502
772.07	-36.378
772.38	-37.442
772.69	-37.773
773.00	-37.688
773.31	-38.021
773.61	-38.918
773.92	-39.493
774.23	-38.720
774.54	-39.510
774.85	-39.038
775.15	-39.176
775.46	-39.391
775.77	-38.787
776.08	-38.036
776.39	-38.285
776.69	-38.023
777.00	-37.400
777.31	-36.902
777.62	-36.799
777.92	-36.198
778.23	-36.999
778.54	-36.293
778.85	-36.701
779.15	-36.930
779.46	-37.342
779.77	-37.693
780.07	-38.001
780.38	-38.691
780.69	-38.740
781.00	-39.446
781.30	-39.977
781.61	-39.361
781.92	-40.274
782.22	-40.194
782.53	-40.368
782.84	-39.980
783.14	-38.619
783.45	-37.489
783.76	-36.225
784.06	-35.534
784.37	-34.168
784.68	-32.342
784.98	-31.335
785.29	-29.643
785.60	-28.076
785.90	-26.665
786.21	-25.502
786.51	-24.298
786.82	-23.391
787.13	-22.545
787.43	-21.857
787.74	-21.294
788.04	-21.403
788.35	-21.156
788.66	-21.507
788.96	-22.300
789.27	-22.421
789.57	-22.926
789.88	-23.918
790.19	-24.711
790.49	-25.436
790.80	-26.375
791.10	-26.894
791.41	-26.944
791.71	-26.885
792.02	-26.254
792.32	-25.387
792.63	-24.790
792.93	-24.407
793.24	-24.141
793.54	-23.718
793.85	-22.744
794.15	-21.175
794.46	-21.001
794.76	-21.009
795.07	-21.005
795.37	-20.913
795.68	-19.824
795.98	-20.430
796.29	-19.849
796.59	-19.469
796.90	-19.717
797.20	-19.849
797.51	-20.447
797.81	-20.238
798.12	-20.060
798.42	-20.287
798.72	-20.261
799.03	-21.640
799.33	-21.085
799.64	-21.927
799.94	-22.409
800.25	-22.270
800.55	-22.393
800.85	-22.460
801.16	-22.791
801.46	-22.777
801.77	-22.756
802.07	-22.998
802.37	-22.232
802.68	-23.065
802.98	-23.040
803.28	-23.161
803.59	-23.466
803.89	-23.497
804.20	-23.544
804.50	-23.504
804.80	-23.926
805.11	-23.412
805.41	-23.230
805.71	-23.512
806.02	-22.705
806.32	-22.578
806.62	-22.397
806.93	-21.859
807.23	-21.781
807.53	-21.619
807.83	-21.740
808.14	-21.674
808.44	-21.813
808.74	-21.717
809.05	-21.474
809.35	-20.886
809.65	-20.755
809.95	-19.557
810.26	-18.641
810.56	-18.055
810.86	-16.928
811.16	-15.607
811.47	-14.163
811.77	-13.361
812.07	-12.988
812.37	-12.170
812.68	-12.053
812.98	-11.136
813.28	-10.680
813.58	-10.323
813.88	-9.514
814.19	-9.174
814.49	-8.385
814.79	-8.013
815.09	-6.957
815.39	-5.665
815.70	-5.569
816.00	-4.764
816.30	-4.367
816.60	-4.062
816.90	-3.514
817.20	-2.672
817.50	-1.589
817.81	-0.122
818.11	1.457
818.41	2.406
818.71	3.211
819.01	4.179
819.31	4.929
819.61	5.441
819.92	5.977
820.22	6.235
820.52	6.510
820.82	6.772
821.12	6.964
821.42	7.041
821.72	7.038
822.02	7.054
822.32	7.004
822.62	6.850
822.92	6.744
823.22	6.598
823.52	6.512
823.83	6.292
824.13	6.058
824.43	5.798
824.73	5.554
825.03	5.382
825.33	5.151
825.63	4.982
825.93	5.033
826.23	4.794
826.53	4.652
826.83	4.557
827.13	4.658
827.43	4.520
827.73	3.912
828.03	3.382
828.33	3.139
828.63	2.698
828.93	2.036
829.23	1.127
829.53	0.942
829.83	0.091
830.13	-0.646
830.42	-1.441
830.72	-1.467
831.02	-0.700
831.32	-0.083
831.62	-0.037
831.92	0.302
832.22	0.433
832.52	0.573
832.82	0.784
833.12	1.175
833.42	1.445
833.72	1.306
834.01	0.830
834.31	0.636
834.61	-0.138
834.91	-0.798
835.21	-1.242
835.51	-1.656
835.81	-2.538
836.11	-3.787
836.40	-5.932
836.70	-7.214
837.00	-8.081
837.30	-8.733
837.60	-10.651
837.90	-11.369
838.19	-11.468
838.49	-13.218
838.79	-13.963
839.09	-14.505
839.39	-15.532
839.68	-15.411
839.98	-16.426
840.28	-18.501
840.58	-20.020
840.88	-22.149
841.17	-22.328
841.47	-25.895
841.77	-27.431
842.07	-31.848
842.36	-35.447
842.66	-37.332
842.96	-41.454
843.26	-44.726
843.55	-46.627
843.85	-49.909
844.15	-50.839
844.45	-51.949
844.74	-50.496
845.04	-51.790
845.34	-49.371
845.63	-49.025
845.93	-49.765
846.23	-49.587
846.53	-51.529
846.82	-50.948
847.12	-49.384
847.42	-48.251
847.71	-52.296
848.01	-52.143
848.31	-50.282
848.60	-47.257
848.90	-47.499
849.19	-46.050
849.49	-48.748
849.79	-47.912
850.08	-53.536
850.38	-54.792
850.68	-55.441
850.97	-53.996
851.27	-54.172
851.56	-56.385
851.86	-60.876
852.16	-60.348
852.45	-65.818
852.75	-61.868
853.04	-64.057
853.34	-55.618
853.64	-56.461
853.93	-54.427
854.23	-56.050
854.52	-55.840
854.82	-54.570
855.11	-56.100
855.41	-58.999
855.70	-53.308
856.00	-57.500
856.30	-58.603
856.59	-58.061
856.89	-58.614
857.18	-62.030
857.48	-61.813
857.77	-61.589
858.07	-64.289
858.36	-64.353
858.66	-63.506
858.95	-66.163
859.25	-61.108
859.54	-60.940
859.84	-61.710
860.13	-55.460
860.42	-55.351
860.72	-56.604
861.01	-57.969
861.31	-54.919
861.60	-50.319
861.90	-48.650
862.19	-49.713
862.49	-50.765
862.78	-45.866
863.07	-42.482
863.37	-44.878
863.66	-43.375
863.96	-40.516
864.25	-36.327
864.54	-35.899
864.84	-34.250
865.13	-32.227
865.43	-29.203
865.72	-23.708
866.01	-40.459
866.31	-24.573
866.60	-33.988
866.89	-16.034
>>>>>End Spectral Data<<<<<
