OOIBase32 Version 2.0.0.6 Data File
++++++++++++++++++++++++++++++++++++
Date: 01-23-2012, 21:48:47
User: Valued Ocean Optics Customer
Spectrometer Serial Number: USB2E2917
Spectrometer Channel: Master
Integration Time (msec): 5
Spectra Averaged: 10
Boxcar Smoothing: 5
Correct for Electrical Dark: Enabled
Time Normalized: Disabled
Dual-beam Reference: Disabled
Reference Channel: Master
Temperature: Not acquired
Spectrometer Type: S2000
ADC Type: USB2000
Number of Pixels in File: 2048
Graph Title: 
>>>>>Begin Spectral Data<<<<<
180.30	0.000
180.67	0.000
181.03	194.823
181.40	-158.470
181.77	9249.467
182.14	-35.024
182.51	77.303
182.88	1977.278
183.25	83.687
183.62	-100.095
183.99	83.285
184.36	-120.433
184.73	58.020
185.10	35.590
185.46	149.341
185.83	182.318
186.20	49.743
186.57	692.496
186.94	150.973
187.31	47.793
187.68	-32.446
188.05	0.415
188.42	14.977
188.78	24.458
189.15	40.311
189.52	34.429
189.89	29.399
190.26	17.479
190.63	23.063
191.00	16.025
191.37	24.788
191.73	23.520
192.10	28.706
192.47	19.162
192.84	19.624
193.21	16.085
193.58	24.957
193.94	23.550
194.31	23.288
194.68	30.793
195.05	24.824
195.42	12.287
195.79	10.883
196.15	14.113
196.52	20.053
196.89	14.464
197.26	15.977
197.63	1.504
198.00	-0.810
198.36	-4.802
198.73	-13.183
199.10	-4.990
199.47	7.371
199.84	10.951
200.20	12.278
200.57	-1.407
200.94	7.357
201.31	2.497
201.68	25.103
202.04	31.556
202.41	44.354
202.78	41.864
203.15	46.962
203.51	28.069
203.88	22.322
204.25	12.097
204.62	20.821
204.98	26.326
205.35	28.806
205.72	17.633
206.09	21.608
206.46	24.247
206.82	34.059
207.19	19.267
207.56	20.316
207.92	10.419
208.29	25.651
208.66	26.481
209.03	20.200
209.39	7.285
209.76	4.757
210.13	-7.209
210.50	-11.426
210.86	-11.953
211.23	9.921
211.60	22.756
211.96	30.113
212.33	23.552
212.70	24.594
213.07	19.215
213.43	27.740
213.80	29.622
214.17	26.937
214.53	27.897
214.90	24.011
215.27	15.264
215.63	7.970
216.00	4.706
216.37	14.425
216.74	6.563
217.10	15.153
217.47	18.986
217.84	27.009
218.20	45.323
218.57	47.410
218.94	42.568
219.30	43.666
219.67	44.538
220.04	40.602
220.40	23.831
220.77	23.786
221.13	23.255
221.50	11.644
221.87	7.273
222.23	-8.745
222.60	-10.014
222.97	-7.448
223.33	-8.190
223.70	-5.641
224.07	0.065
224.43	4.780
224.80	7.116
225.16	5.635
225.53	8.632
225.90	4.994
226.26	3.900
226.63	4.159
226.99	4.540
227.36	5.221
227.73	2.785
228.09	-1.526
228.46	-2.888
228.82	-1.220
229.19	-1.884
229.56	-5.712
229.92	-3.850
230.29	-2.507
230.65	-1.642
231.02	1.030
231.38	1.416
231.75	3.647
232.12	5.365
232.48	8.354
232.85	6.754
233.21	9.597
233.58	11.543
233.94	13.679
234.31	12.722
234.68	10.867
235.04	9.361
235.41	8.459
235.77	9.988
236.14	10.661
236.50	8.817
236.87	8.369
237.23	6.058
237.60	6.240
237.96	4.389
238.33	5.649
238.69	5.373
239.06	4.420
239.42	3.636
239.79	3.283
240.15	3.354
240.52	3.145
240.88	3.038
241.25	3.628
241.61	3.943
241.98	4.466
242.34	3.751
242.71	4.199
243.07	4.372
243.44	4.623
243.80	4.301
244.17	4.167
244.53	4.474
244.90	4.556
245.26	4.398
245.63	4.065
245.99	4.010
246.36	4.162
246.72	3.554
247.09	3.370
247.45	3.398
247.81	3.477
248.18	3.529
248.54	3.201
248.91	2.967
249.27	3.064
249.64	3.087
250.00	2.939
250.36	3.110
250.73	3.910
251.09	4.413
251.46	4.442
251.82	4.493
252.19	4.860
252.55	4.673
252.91	4.696
253.28	4.311
253.64	4.823
254.01	4.547
254.37	4.104
254.73	4.200
255.10	4.328
255.46	4.040
255.83	3.639
256.19	3.387
256.55	3.339
256.92	3.396
257.28	3.290
257.65	3.181
258.01	3.398
258.37	3.355
258.74	3.228
259.10	3.198
259.46	3.318
259.83	3.455
260.19	3.372
260.55	3.353
260.92	3.427
261.28	3.563
261.64	3.458
262.01	3.313
262.37	3.283
262.73	3.171
263.10	3.400
263.46	3.812
263.82	4.031
264.19	4.026
264.55	4.083
264.91	3.981
265.28	4.251
265.64	4.197
266.00	3.873
266.37	4.020
266.73	4.414
267.09	3.964
267.46	3.925
267.82	3.625
268.18	3.673
268.54	3.563
268.91	3.611
269.27	3.451
269.63	3.583
270.00	3.820
270.36	3.691
270.72	3.392
271.08	3.174
271.45	3.132
271.81	3.314
272.17	3.255
272.53	3.253
272.90	2.940
273.26	2.902
273.62	2.792
273.98	2.578
274.35	2.576
274.71	2.850
275.07	3.237
275.43	3.115
275.80	2.972
276.16	3.306
276.52	3.405
276.88	3.767
277.25	3.633
277.61	3.654
277.97	3.804
278.33	3.921
278.69	3.499
279.06	3.592
279.42	3.426
279.78	3.480
280.14	3.350
280.50	3.409
280.87	3.375
281.23	3.722
281.59	3.706
281.95	3.449
282.31	3.524
282.68	3.844
283.04	3.689
283.40	3.783
283.76	3.792
284.12	3.831
284.48	3.832
284.85	3.745
285.21	3.516
285.57	3.779
285.93	3.990
286.29	4.004
286.65	3.936
287.02	4.000
287.38	3.985
287.74	4.070
288.10	3.930
288.46	3.894
288.82	3.858
289.18	3.817
289.54	3.417
289.91	3.402
290.27	3.351
290.63	3.345
290.99	3.085
291.35	3.186
291.71	3.271
292.07	3.130
292.43	3.091
292.79	3.306
293.16	3.384
293.52	3.559
293.88	3.680
294.24	3.705
294.60	3.684
294.96	3.905
295.32	3.974
295.68	3.779
296.04	4.019
296.40	4.108
296.76	4.046
297.12	4.068
297.49	4.132
297.85	4.171
298.21	4.215
298.57	4.277
298.93	4.374
299.29	4.326
299.65	4.462
300.01	4.506
300.37	4.291
300.73	4.453
301.09	4.463
301.45	4.487
301.81	4.302
302.17	4.143
302.53	4.024
302.89	3.875
303.25	3.756
303.61	3.887
303.97	3.747
304.33	3.844
304.69	3.680
305.05	3.813
305.41	3.745
305.77	3.863
306.13	3.898
306.49	3.987
306.85	4.046
307.21	4.150
307.57	4.041
307.93	4.160
308.29	4.203
308.65	4.196
309.01	4.145
309.37	4.263
309.73	4.274
310.09	4.278
310.45	4.237
310.81	4.321
311.17	4.190
311.53	4.181
311.89	4.152
312.25	4.170
312.61	4.236
312.96	4.181
313.32	4.093
313.68	3.983
314.04	4.119
314.40	4.060
314.76	3.962
315.12	4.068
315.48	4.272
315.84	4.279
316.20	4.353
316.56	4.365
316.92	4.415
317.27	4.392
317.63	4.422
317.99	4.327
318.35	4.324
318.71	4.231
319.07	4.255
319.43	4.233
319.79	4.277
320.15	4.296
320.50	4.132
320.86	4.271
321.22	4.329
321.58	4.353
321.94	4.274
322.30	4.346
322.66	4.509
323.01	4.424
323.37	4.220
323.73	4.211
324.09	4.229
324.45	4.372
324.81	4.306
325.17	4.249
325.52	4.222
325.88	4.214
326.24	4.278
326.60	4.349
326.96	4.546
327.31	4.684
327.67	4.626
328.03	4.596
328.39	4.539
328.75	4.510
329.11	4.678
329.46	4.705
329.82	4.891
330.18	4.943
330.54	4.862
330.90	4.869
331.25	4.830
331.61	4.870
331.97	4.845
332.33	5.016
332.68	5.058
333.04	4.969
333.40	5.156
333.76	5.154
334.11	5.065
334.47	5.089
334.83	5.060
335.19	5.061
335.54	5.117
335.90	5.258
336.26	5.207
336.62	5.294
336.97	5.233
337.33	5.161
337.69	5.160
338.05	5.275
338.40	5.224
338.76	5.246
339.12	5.327
339.48	5.415
339.83	5.285
340.19	5.232
340.55	5.166
340.90	5.202
341.26	5.176
341.62	5.147
341.97	5.191
342.33	5.262
342.69	5.244
343.04	5.249
343.40	5.176
343.76	5.313
344.12	5.398
344.47	5.422
344.83	5.374
345.19	5.380
345.54	5.425
345.90	5.413
346.26	5.326
346.61	5.383
346.97	5.325
347.32	5.409
347.68	5.357
348.04	5.374
348.39	5.403
348.75	5.555
349.11	5.568
349.46	5.614
349.82	5.626
350.18	5.734
350.53	5.648
350.89	5.714
351.24	5.660
351.60	5.665
351.96	5.593
352.31	5.617
352.67	5.533
353.02	5.566
353.38	5.524
353.74	5.511
354.09	5.498
354.45	5.574
354.80	5.495
355.16	5.513
355.52	5.557
355.87	5.627
356.23	5.622
356.58	5.774
356.94	5.797
357.29	5.825
357.65	5.780
358.00	5.784
358.36	5.820
358.72	5.909
359.07	5.909
359.43	5.923
359.78	5.975
360.14	5.958
360.49	5.876
360.85	5.841
361.20	5.892
361.56	5.958
361.91	5.956
362.27	5.939
362.62	5.929
362.98	5.939
363.33	5.918
363.69	5.882
364.04	5.931
364.40	5.972
364.75	6.013
365.11	6.063
365.46	6.079
365.82	6.092
366.17	6.109
366.53	6.175
366.88	6.179
367.24	6.260
367.59	6.291
367.95	6.339
368.30	6.326
368.66	6.410
369.01	6.376
369.37	6.435
369.72	6.508
370.08	6.585
370.43	6.588
370.78	6.597
371.14	6.619
371.49	6.650
371.85	6.656
372.20	6.718
372.56	6.747
372.91	6.791
373.26	6.740
373.62	6.768
373.97	6.747
374.33	6.777
374.68	6.842
375.03	6.860
375.39	6.858
375.74	6.896
376.10	6.897
376.45	6.943
376.80	6.956
377.16	7.030
377.51	7.066
377.87	7.068
378.22	7.083
378.57	7.137
378.93	7.150
379.28	7.244
379.63	7.262
379.99	7.350
380.34	7.341
380.70	7.382
381.05	7.457
381.40	7.499
381.76	7.558
382.11	7.647
382.46	7.618
382.82	7.662
383.17	7.683
383.52	7.746
383.88	7.761
384.23	7.825
384.58	7.867
384.94	7.901
385.29	7.939
385.64	7.992
385.99	7.987
386.35	8.126
386.70	8.202
387.05	8.232
387.41	8.264
387.76	8.311
388.11	8.307
388.47	8.403
388.82	8.385
389.17	8.423
389.52	8.459
389.88	8.493
390.23	8.488
390.58	8.522
390.93	8.546
391.29	8.574
391.64	8.624
391.99	8.688
392.34	8.678
392.70	8.721
393.05	8.744
393.40	8.786
393.75	8.860
394.11	8.915
394.46	8.917
394.81	8.959
395.16	8.963
395.52	8.980
395.87	8.955
396.22	8.982
396.57	9.032
396.92	9.092
397.28	9.140
397.63	9.156
397.98	9.187
398.33	9.254
398.68	9.329
399.04	9.443
399.39	9.474
399.74	9.558
400.09	9.583
400.44	9.634
400.80	9.641
401.15	9.660
401.50	9.696
401.85	9.763
402.20	9.808
402.55	9.819
402.90	9.817
403.26	9.904
403.61	9.948
403.96	9.997
404.31	10.054
404.66	10.101
405.01	10.152
405.36	10.222
405.72	10.255
406.07	10.298
406.42	10.377
406.77	10.446
407.12	10.447
407.47	10.510
407.82	10.548
408.17	10.559
408.53	10.594
408.88	10.648
409.23	10.673
409.58	10.695
409.93	10.715
410.28	10.761
410.63	10.794
410.98	10.881
411.33	10.881
411.68	10.906
412.03	10.972
412.38	11.038
412.73	11.049
413.09	11.066
413.44	11.098
413.79	11.162
414.14	11.140
414.49	11.165
414.84	11.190
415.19	11.240
415.54	11.279
415.89	11.279
416.24	11.283
416.59	11.315
416.94	11.344
417.29	11.376
417.64	11.390
417.99	11.425
418.34	11.440
418.69	11.437
419.04	11.454
419.39	11.493
419.74	11.525
420.09	11.561
420.44	11.593
420.79	11.629
421.14	11.632
421.49	11.648
421.84	11.685
422.19	11.736
422.54	11.780
422.89	11.821
423.24	11.834
423.59	11.879
423.94	11.917
424.29	11.943
424.64	11.980
424.99	12.054
425.34	12.112
425.68	12.165
426.03	12.193
426.38	12.246
426.73	12.300
427.08	12.378
427.43	12.417
427.78	12.463
428.13	12.511
428.48	12.550
428.83	12.570
429.18	12.612
429.53	12.661
429.87	12.679
430.22	12.683
430.57	12.678
430.92	12.675
431.27	12.696
431.62	12.703
431.97	12.710
432.32	12.724
432.67	12.738
433.01	12.744
433.36	12.757
433.71	12.806
434.06	12.841
434.41	12.893
434.76	12.962
435.11	12.987
435.45	13.030
435.80	13.071
436.15	13.093
436.50	13.119
436.85	13.140
437.20	13.143
437.54	13.163
437.89	13.182
438.24	13.202
438.59	13.196
438.94	13.228
439.29	13.240
439.63	13.247
439.98	13.289
440.33	13.330
440.68	13.345
441.03	13.372
441.37	13.375
441.72	13.385
442.07	13.396
442.42	13.417
442.76	13.426
443.11	13.434
443.46	13.440
443.81	13.441
444.16	13.435
444.50	13.456
444.85	13.476
445.20	13.505
445.55	13.523
445.89	13.549
446.24	13.555
446.59	13.575
446.94	13.612
447.28	13.660
447.63	13.692
447.98	13.706
448.32	13.741
448.67	13.754
449.02	13.775
449.37	13.806
449.71	13.811
450.06	13.858
450.41	13.876
450.75	13.883
451.10	13.895
451.45	13.902
451.79	13.936
452.14	13.934
452.49	13.958
452.84	13.964
453.18	13.980
453.53	14.009
453.88	14.029
454.22	14.040
454.57	14.055
454.92	14.103
455.26	14.111
455.61	14.142
455.95	14.157
456.30	14.160
456.65	14.173
456.99	14.188
457.34	14.204
457.69	14.224
458.03	14.238
458.38	14.265
458.73	14.269
459.07	14.313
459.42	14.336
459.76	14.373
460.11	14.407
460.46	14.448
460.80	14.501
461.15	14.532
461.49	14.531
461.84	14.593
462.19	14.636
462.53	14.681
462.88	14.705
463.22	14.746
463.57	14.806
463.91	14.844
464.26	14.880
464.61	14.919
464.95	14.965
465.30	15.010
465.64	15.022
465.99	15.031
466.33	15.048
466.68	15.088
467.02	15.115
467.37	15.118
467.71	15.163
468.06	15.201
468.41	15.214
468.75	15.234
469.10	15.269
469.44	15.293
469.79	15.334
470.13	15.378
470.48	15.381
470.82	15.392
471.17	15.432
471.51	15.422
471.86	15.434
472.20	15.431
472.55	15.450
472.89	15.471
473.23	15.480
473.58	15.494
473.92	15.482
474.27	15.495
474.61	15.512
474.96	15.502
475.30	15.520
475.65	15.509
475.99	15.522
476.34	15.534
476.68	15.553
477.02	15.579
477.37	15.595
477.71	15.622
478.06	15.661
478.40	15.735
478.75	15.843
479.09	15.961
479.43	16.126
479.78	16.327
480.12	16.543
480.47	16.764
480.81	17.012
481.15	17.279
481.50	17.548
481.84	17.873
482.19	18.214
482.53	18.499
482.87	18.666
483.22	18.667
483.56	18.502
483.90	18.240
484.25	17.910
484.59	17.606
484.94	17.365
485.28	17.129
485.62	16.824
485.97	16.488
486.31	16.192
486.65	16.024
487.00	16.001
487.34	16.120
487.68	16.311
488.03	16.550
488.37	16.733
488.71	16.811
489.06	16.854
489.40	16.879
489.74	16.891
490.09	16.919
490.43	16.908
490.77	16.927
491.11	16.940
491.46	16.957
491.80	16.988
492.14	17.004
492.49	17.013
492.83	17.028
493.17	17.051
493.51	17.083
493.86	17.102
494.20	17.163
494.54	17.178
494.88	17.218
495.23	17.267
495.57	17.306
495.91	17.341
496.25	17.375
496.60	17.399
496.94	17.444
497.28	17.501
497.62	17.553
497.97	17.597
498.31	17.659
498.65	17.680
498.99	17.736
499.33	17.805
499.68	17.872
500.02	17.944
500.36	18.012
500.70	18.058
501.04	18.091
501.39	18.125
501.73	18.195
502.07	18.249
502.41	18.324
502.75	18.352
503.09	18.410
503.44	18.481
503.78	18.539
504.12	18.587
504.46	18.648
504.80	18.691
505.14	18.755
505.49	18.782
505.83	18.825
506.17	18.881
506.51	18.932
506.85	18.957
507.19	18.998
507.53	19.041
507.87	19.096
508.22	19.144
508.56	19.205
508.90	19.263
509.24	19.349
509.58	19.430
509.92	19.492
510.26	19.550
510.60	19.627
510.94	19.688
511.28	19.772
511.63	19.860
511.97	19.932
512.31	20.000
512.65	20.085
512.99	20.126
513.33	20.184
513.67	20.269
514.01	20.344
514.35	20.394
514.69	20.451
515.03	20.501
515.37	20.559
515.71	20.621
516.05	20.667
516.39	20.706
516.73	20.740
517.07	20.777
517.41	20.795
517.75	20.831
518.09	20.872
518.43	20.924
518.77	20.968
519.11	21.000
519.45	21.043
519.79	21.086
520.13	21.137
520.47	21.201
520.81	21.292
521.15	21.364
521.49	21.448
521.83	21.525
522.17	21.595
522.51	21.652
522.85	21.732
523.19	21.828
523.53	21.985
523.87	22.145
524.21	22.321
524.55	22.463
524.89	22.607
525.23	22.744
525.57	22.880
525.91	22.989
526.25	23.115
526.58	23.223
526.92	23.314
527.26	23.365
527.60	23.404
527.94	23.405
528.28	23.415
528.62	23.424
528.96	23.424
529.30	23.407
529.64	23.396
529.97	23.378
530.31	23.354
530.65	23.338
530.99	23.340
531.33	23.357
531.67	23.415
532.01	23.434
532.35	23.478
532.68	23.501
533.02	23.528
533.36	23.572
533.70	23.572
534.04	23.598
534.38	23.634
534.71	23.692
535.05	23.728
535.39	23.751
535.73	23.825
536.07	23.866
536.41	23.945
536.74	24.033
537.08	24.119
537.42	24.244
537.76	24.356
538.10	24.447
538.43	24.515
538.77	24.597
539.11	24.680
539.45	24.760
539.79	24.830
540.12	24.877
540.46	24.912
540.80	24.932
541.14	24.945
541.47	24.951
541.81	24.978
542.15	25.000
542.49	25.010
542.82	25.024
543.16	25.021
543.50	25.027
543.84	25.065
544.17	25.120
544.51	25.176
544.85	25.232
545.18	25.292
545.52	25.346
545.86	25.425
546.20	25.479
546.53	25.554
546.87	25.609
547.21	25.678
547.54	25.730
547.88	25.800
548.22	25.889
548.55	25.986
548.89	26.066
549.23	26.145
549.56	26.173
549.90	26.243
550.24	26.288
550.57	26.353
550.91	26.417
551.25	26.462
551.58	26.495
551.92	26.525
552.26	26.560
552.59	26.625
552.93	26.678
553.27	26.775
553.60	26.826
553.94	26.917
554.27	26.986
554.61	27.048
554.95	27.167
555.28	27.283
555.62	27.353
555.95	27.435
556.29	27.479
556.63	27.533
556.96	27.536
557.30	27.615
557.63	27.669
557.97	27.724
558.31	27.777
558.64	27.804
558.98	27.814
559.31	27.878
559.65	27.899
559.98	27.950
560.32	27.998
560.65	28.062
560.99	28.100
561.33	28.142
561.66	28.181
562.00	28.236
562.33	28.269
562.67	28.339
563.00	28.396
563.34	28.438
563.67	28.489
564.01	28.535
564.34	28.574
564.68	28.636
565.01	28.659
565.35	28.706
565.68	28.766
566.02	28.836
566.35	28.885
566.69	28.901
567.02	28.998
567.36	29.047
567.69	29.104
568.03	29.168
568.36	29.209
568.69	29.259
569.03	29.333
569.36	29.348
569.70	29.386
570.03	29.402
570.37	29.467
570.70	29.508
571.04	29.559
571.37	29.604
571.70	29.661
572.04	29.718
572.37	29.793
572.71	29.856
573.04	29.947
573.37	29.994
573.71	30.097
574.04	30.148
574.38	30.218
574.71	30.299
575.04	30.394
575.38	30.484
575.71	30.565
576.05	30.657
576.38	30.715
576.71	30.789
577.05	30.902
577.38	30.980
577.71	31.105
578.05	31.177
578.38	31.233
578.71	31.306
579.05	31.355
579.38	31.439
579.71	31.510
580.05	31.565
580.38	31.621
580.71	31.686
581.05	31.761
581.38	31.804
581.71	31.852
582.05	31.925
582.38	31.980
582.71	32.061
583.04	32.112
583.38	32.180
583.71	32.222
584.04	32.330
584.38	32.390
584.71	32.404
585.04	32.455
585.37	32.519
585.71	32.594
586.04	32.631
586.37	32.652
586.70	32.715
587.04	32.741
587.37	32.816
587.70	32.821
588.03	32.841
588.37	32.923
588.70	32.984
589.03	33.018
589.36	33.070
589.69	33.133
590.03	33.210
590.36	33.227
590.69	33.316
591.02	33.366
591.35	33.438
591.69	33.487
592.02	33.494
592.35	33.501
592.68	33.546
593.01	33.550
593.35	33.611
593.68	33.649
594.01	33.681
594.34	33.692
594.67	33.743
595.00	33.752
595.34	33.783
595.67	33.832
596.00	33.932
596.33	34.005
596.66	34.070
596.99	34.105
597.32	34.195
597.65	34.280
597.99	34.317
598.32	34.373
598.65	34.477
598.98	34.555
599.31	34.634
599.64	34.695
599.97	34.694
600.30	34.716
600.63	34.753
600.96	34.747
601.30	34.753
601.63	34.784
601.96	34.810
602.29	34.820
602.62	34.855
602.95	34.876
603.28	34.898
603.61	34.987
603.94	35.068
604.27	35.104
604.60	35.158
604.93	35.219
605.26	35.240
605.59	35.332
605.92	35.430
606.25	35.510
606.58	35.638
606.91	35.680
607.24	35.712
607.57	35.738
607.90	35.823
608.23	35.897
608.56	35.988
608.89	36.097
609.22	36.135
609.55	36.164
609.88	36.224
610.21	36.264
610.54	36.384
610.87	36.490
611.20	36.596
611.53	36.680
611.86	36.781
612.19	36.874
612.52	36.988
612.85	37.047
613.18	37.118
613.51	37.166
613.84	37.189
614.17	37.223
614.49	37.272
614.82	37.321
615.15	37.340
615.48	37.368
615.81	37.386
616.14	37.395
616.47	37.474
616.80	37.523
617.13	37.598
617.46	37.632
617.78	37.676
618.11	37.728
618.44	37.795
618.77	37.856
619.10	37.914
619.43	37.948
619.76	38.009
620.09	38.065
620.41	38.077
620.74	38.107
621.07	38.140
621.40	38.164
621.73	38.198
622.06	38.184
622.38	38.179
622.71	38.127
623.04	38.179
623.37	38.170
623.70	38.160
624.02	38.177
624.35	38.209
624.68	38.235
625.01	38.290
625.34	38.280
625.66	38.308
625.99	38.404
626.32	38.464
626.65	38.494
626.98	38.531
627.30	38.612
627.63	38.668
627.96	38.723
628.29	38.773
628.61	38.806
628.94	38.875
629.27	38.954
629.60	38.972
629.92	38.981
630.25	39.005
630.58	39.078
630.91	39.058
631.23	39.138
631.56	39.114
631.89	39.193
632.21	39.189
632.54	39.162
632.87	39.170
633.19	39.142
633.52	39.229
633.85	39.263
634.18	39.235
634.50	39.244
634.83	39.268
635.16	39.351
635.48	39.357
635.81	39.398
636.14	39.507
636.46	39.625
636.79	39.706
637.11	39.747
637.44	39.775
637.77	39.861
638.09	39.909
638.42	39.873
638.75	39.854
639.07	39.905
639.40	39.924
639.73	39.920
640.05	39.884
640.38	39.907
640.70	39.951
641.03	39.942
641.36	39.946
641.68	39.963
642.01	40.006
642.33	40.065
642.66	40.077
642.98	40.083
643.31	40.131
643.64	40.133
643.96	40.128
644.29	40.096
644.61	40.142
644.94	40.146
645.26	40.083
645.59	40.091
645.91	40.127
646.24	40.137
646.56	40.107
646.89	40.082
647.22	40.092
647.54	40.116
647.87	40.110
648.19	40.167
648.52	40.180
648.84	40.263
649.17	40.304
649.49	40.305
649.82	40.270
650.14	40.332
650.47	40.290
650.79	40.248
651.11	40.213
651.44	40.271
651.76	40.222
652.09	40.214
652.41	40.233
652.74	40.157
653.06	40.098
653.39	40.128
653.71	40.078
654.04	40.113
654.36	40.134
654.68	40.111
655.01	40.032
655.33	39.953
655.66	39.904
655.98	39.864
656.30	39.889
656.63	39.847
656.95	39.823
657.28	39.811
657.60	39.837
657.92	39.794
658.25	39.764
658.57	39.751
658.90	39.793
659.22	39.785
659.54	39.858
659.87	39.808
660.19	39.829
660.51	39.870
660.84	39.925
661.16	39.898
661.48	40.006
661.81	40.101
662.13	40.162
662.45	40.197
662.78	40.294
663.10	40.219
663.42	40.354
663.75	40.391
664.07	40.388
664.39	40.394
664.72	40.373
665.04	40.318
665.36	40.278
665.69	40.302
666.01	40.277
666.33	40.329
666.65	40.314
666.98	40.316
667.30	40.307
667.62	40.269
667.94	40.309
668.27	40.357
668.59	40.390
668.91	40.398
669.23	40.399
669.56	40.422
669.88	40.342
670.20	40.314
670.52	40.223
670.85	40.275
671.17	40.287
671.49	40.222
671.81	40.233
672.13	40.248
672.46	40.317
672.78	40.298
673.10	40.264
673.42	40.286
673.74	40.426
674.07	40.433
674.39	40.417
674.71	40.414
675.03	40.396
675.35	40.356
675.67	40.299
676.00	40.229
676.32	40.163
676.64	40.179
676.96	40.138
677.28	40.083
677.60	40.086
677.92	40.022
678.25	39.981
678.57	39.994
678.89	39.987
679.21	39.952
679.53	40.018
679.85	40.094
680.17	40.148
680.49	40.143
680.81	40.130
681.13	40.239
681.46	40.337
681.78	40.469
682.10	40.529
682.42	40.608
682.74	40.668
683.06	40.611
683.38	40.566
683.70	40.578
684.02	40.649
684.34	40.656
684.66	40.594
684.98	40.493
685.30	40.456
685.62	40.401
685.94	40.308
686.26	40.265
686.58	40.264
686.90	40.306
687.22	40.286
687.54	40.266
687.86	40.303
688.18	40.226
688.50	40.196
688.82	40.180
689.14	40.186
689.46	40.202
689.78	40.194
690.10	40.140
690.42	40.152
690.74	40.100
691.06	40.044
691.38	39.938
691.70	39.967
692.02	40.015
692.34	39.928
692.66	39.859
692.98	39.807
693.30	39.815
693.62	39.777
693.94	39.670
694.26	39.640
694.57	39.534
694.89	39.465
695.21	39.491
695.53	39.356
695.85	39.306
696.17	39.219
696.49	39.169
696.81	39.119
697.13	39.066
697.44	39.047
697.76	39.005
698.08	39.061
698.40	39.065
698.72	38.904
699.04	38.923
699.36	38.906
699.67	38.979
699.99	38.898
700.31	38.821
700.63	38.907
700.95	38.903
701.27	38.877
701.58	38.792
701.90	38.802
702.22	38.883
702.54	38.805
702.86	38.728
703.17	38.656
703.49	38.671
703.81	38.746
704.13	38.636
704.45	38.530
704.76	38.452
705.08	38.445
705.40	38.399
705.72	38.275
706.03	38.294
706.35	38.384
706.67	38.381
706.99	38.441
707.30	38.329
707.62	38.385
707.94	38.373
708.26	38.262
708.57	38.272
708.89	38.271
709.21	38.317
709.53	38.351
709.84	38.220
710.16	38.157
710.48	38.095
710.79	38.087
711.11	38.032
711.43	37.964
711.74	37.951
712.06	37.963
712.38	37.932
712.69	37.925
713.01	37.876
713.33	37.985
713.64	37.960
713.96	38.019
714.28	38.112
714.59	38.137
714.91	38.161
715.23	38.221
715.54	38.109
715.86	38.042
716.17	38.069
716.49	38.127
716.81	38.020
717.12	38.045
717.44	37.903
717.76	37.776
718.07	37.664
718.39	37.609
718.70	37.633
719.02	37.535
719.33	37.575
719.65	37.449
719.97	37.276
720.28	37.155
720.60	37.195
720.91	37.189
721.23	37.121
721.54	37.143
721.86	37.288
722.17	37.160
722.49	37.222
722.81	37.138
723.12	37.156
723.44	37.186
723.75	37.218
724.07	37.075
724.38	36.962
724.70	36.927
725.01	36.877
725.33	36.733
725.64	36.898
725.96	36.755
726.27	36.699
726.59	36.572
726.90	36.525
727.22	36.402
727.53	36.395
727.84	36.377
728.16	36.351
728.47	36.276
728.79	36.266
729.10	36.134
729.42	36.243
729.73	36.151
730.05	36.142
730.36	36.022
730.67	36.034
730.99	35.815
731.30	35.751
731.62	35.609
731.93	35.520
732.24	35.260
732.56	35.031
732.87	34.748
733.19	34.665
733.50	34.464
733.81	34.383
734.13	34.332
734.44	34.307
734.76	34.344
735.07	34.273
735.38	34.094
735.70	34.145
736.01	34.165
736.32	34.317
736.64	34.322
736.95	34.348
737.26	34.225
737.58	34.082
737.89	34.187
738.20	34.031
738.52	33.955
738.83	33.978
739.14	33.789
739.45	33.714
739.77	33.473
740.08	33.348
740.39	33.191
740.71	33.210
741.02	33.036
741.33	32.926
741.64	32.742
741.96	32.632
742.27	32.410
742.58	32.435
742.90	32.331
743.21	32.193
743.52	31.986
743.83	32.051
744.14	31.919
744.46	31.873
744.77	31.648
745.08	31.578
745.39	31.509
745.71	31.424
746.02	31.333
746.33	31.134
746.64	31.179
746.95	31.307
747.27	31.222
747.58	31.084
747.89	31.075
748.20	30.972
748.51	31.026
748.82	31.066
749.14	31.042
749.45	31.019
749.76	31.054
750.07	30.871
750.38	30.696
750.69	30.748
751.01	30.743
751.32	30.738
751.63	30.621
751.94	30.420
752.25	30.431
752.56	30.398
752.87	30.352
753.18	30.245
753.49	30.479
753.81	30.401
754.12	30.200
754.43	30.199
754.74	30.391
755.05	30.552
755.36	30.830
755.67	30.841
755.98	30.996
756.29	31.192
756.60	31.397
756.91	31.417
757.22	31.701
757.53	31.865
757.84	32.052
758.15	32.073
758.46	32.340
758.77	32.453
759.09	32.614
759.40	32.768
759.71	32.784
760.02	32.798
760.33	32.887
760.64	32.887
760.95	32.848
761.26	32.805
761.57	32.782
761.88	32.621
762.18	32.489
762.49	32.382
762.80	32.230
763.11	32.029
763.42	31.879
763.73	31.595
764.04	31.317
764.35	31.100
764.66	30.831
764.97	30.449
765.28	30.264
765.59	29.975
765.90	29.612
766.21	29.644
766.52	29.243
766.83	29.123
767.14	28.976
767.44	28.744
767.75	28.691
768.06	28.714
768.37	28.581
768.68	28.485
768.99	28.582
769.30	28.421
769.61	27.789
769.91	27.984
770.22	27.656
770.53	27.381
770.84	27.543
771.15	27.333
771.46	27.127
771.77	26.998
772.07	26.881
772.38	26.374
772.69	26.392
773.00	26.148
773.31	26.271
773.61	26.067
773.92	26.113
774.23	25.720
774.54	25.649
774.85	25.554
775.15	25.552
775.46	25.132
775.77	25.386
776.08	25.346
776.39	25.509
776.69	25.177
777.00	25.487
777.31	25.526
777.62	25.512
777.92	25.402
778.23	25.425
778.54	25.430
778.85	25.605
779.15	25.575
779.46	25.413
779.77	25.366
780.07	25.386
780.38	25.368
780.69	25.230
781.00	25.232
781.30	25.087
781.61	25.138
781.92	25.260
782.22	25.266
782.53	25.052
782.84	25.103
783.14	25.165
783.45	25.245
783.76	24.943
784.06	24.991
784.37	25.448
784.68	25.490
784.98	25.592
785.29	25.513
785.60	25.467
785.90	25.609
786.21	25.421
786.51	25.538
786.82	25.530
787.13	25.899
787.43	25.956
787.74	25.483
788.04	25.712
788.35	25.655
788.66	25.636
788.96	25.680
789.27	25.868
789.57	26.224
789.88	26.201
790.19	26.232
790.49	26.164
790.80	26.205
791.10	26.373
791.41	26.257
791.71	26.247
792.02	26.265
792.32	26.176
792.63	25.927
792.93	25.630
793.24	25.283
793.54	24.949
793.85	24.866
794.15	24.823
794.46	24.796
794.76	24.763
795.07	24.484
795.37	24.334
795.68	24.298
795.98	24.305
796.29	24.523
796.59	24.799
796.90	24.756
797.20	24.800
797.51	24.773
797.81	24.857
798.12	24.976
798.42	25.102
798.72	24.951
799.03	25.013
799.33	25.000
799.64	24.827
799.94	24.639
800.25	24.839
800.55	24.773
800.85	24.594
801.16	24.593
801.46	24.459
801.77	24.150
802.07	24.269
802.37	24.052
802.68	24.007
802.98	24.184
803.28	24.539
803.59	24.359
803.89	24.535
804.20	24.696
804.50	24.749
804.80	24.521
805.11	24.925
805.41	25.148
805.71	25.386
806.02	25.017
806.32	25.107
806.62	24.677
806.93	25.126
807.23	24.817
807.53	24.679
807.83	24.668
808.14	24.884
808.44	24.947
808.74	24.792
809.05	24.914
809.35	25.347
809.65	25.093
809.95	25.579
810.26	25.369
810.56	25.266
810.86	25.535
811.16	25.304
811.47	25.419
811.77	25.266
812.07	25.191
812.37	24.788
812.68	24.564
812.98	24.803
813.28	24.658
813.58	24.278
813.88	24.136
814.19	24.369
814.49	24.367
814.79	24.349
815.09	24.422
815.39	24.864
815.70	25.104
816.00	25.182
816.30	24.779
816.60	24.760
816.90	25.065
817.20	25.807
817.50	25.842
817.81	26.279
818.11	26.643
818.41	26.900
818.71	26.860
819.01	27.074
819.31	27.224
819.61	27.361
819.92	27.474
820.22	27.551
820.52	27.559
820.82	27.622
821.12	27.613
821.42	27.600
821.72	27.584
822.02	27.523
822.32	27.385
822.62	27.358
822.92	27.242
823.22	27.205
823.52	27.206
823.83	27.054
824.13	26.885
824.43	26.681
824.73	26.594
825.03	26.564
825.33	26.615
825.63	26.681
825.93	26.511
826.23	26.531
826.53	26.314
826.83	26.232
827.13	26.202
827.43	26.218
827.73	26.418
828.03	26.069
828.33	25.755
828.63	25.609
828.93	25.396
829.23	25.412
829.53	25.351
829.83	25.528
830.13	25.197
830.42	25.336
830.72	25.356
831.02	25.389
831.32	25.637
831.62	25.641
831.92	25.424
832.22	25.631
832.52	25.635
832.82	25.825
833.12	25.703
833.42	25.687
833.72	25.687
834.01	25.549
834.31	25.343
834.61	25.452
834.91	25.589
835.21	25.843
835.51	25.804
835.81	25.913
836.11	25.914
836.40	25.837
836.70	25.907
837.00	25.908
837.30	25.840
837.60	25.963
837.90	25.509
838.19	25.223
838.49	24.963
838.79	24.670
839.09	24.465
839.39	24.153
839.68	23.746
839.98	23.144
840.28	22.293
840.58	22.738
840.88	22.054
841.17	22.001
841.47	21.541
841.77	21.515
842.07	20.800
842.36	20.813
842.66	20.682
842.96	21.516
843.26	21.425
843.55	21.334
843.85	20.046
844.15	19.179
844.45	19.322
844.74	19.574
845.04	19.438
845.34	19.814
845.63	18.249
845.93	18.254
846.23	17.137
846.53	17.980
846.82	16.716
847.12	15.906
847.42	16.395
847.71	16.670
848.01	16.384
848.31	16.736
848.60	16.562
848.90	15.086
849.19	13.433
849.49	13.470
849.79	14.107
850.08	16.897
850.38	17.622
850.68	18.991
850.97	19.034
851.27	19.158
851.56	18.322
851.86	19.077
852.16	22.280
852.45	23.779
852.75	23.708
853.04	22.434
853.34	21.802
853.64	20.895
853.93	20.776
854.23	19.530
854.52	19.088
854.82	19.567
855.11	19.068
855.41	18.032
855.70	18.102
856.00	18.774
856.30	19.816
856.59	19.280
856.89	20.550
857.18	19.019
857.48	19.022
857.77	19.517
858.07	18.340
858.36	16.774
858.66	16.437
858.95	16.605
859.25	15.467
859.54	14.445
859.84	15.460
860.13	16.105
860.42	17.526
860.72	17.393
861.01	16.316
861.31	16.266
861.60	18.688
861.90	17.550
862.19	16.675
862.49	17.393
862.78	18.951
863.07	17.829
863.37	16.198
863.66	15.126
863.96	15.352
864.25	16.568
864.54	17.958
864.84	16.621
865.13	17.067
865.43	16.264
865.72	24.744
866.01	22.869
866.31	11.710
866.60	10.426
866.89	8.812
>>>>>End Spectral Data<<<<<
