OOIBase32 Version 2.0.0.6 Data File
++++++++++++++++++++++++++++++++++++
Date: 01-18-2012, 23:01:30
User: Valued Ocean Optics Customer
Spectrometer Serial Number: USB2E2917
Spectrometer Channel: Master
Integration Time (msec): 5
Spectra Averaged: 10
Boxcar Smoothing: 5
Correct for Electrical Dark: Enabled
Time Normalized: Disabled
Dual-beam Reference: Disabled
Reference Channel: Master
Temperature: Not acquired
Spectrometer Type: S2000
ADC Type: USB2000
Number of Pixels in File: 2048
Graph Title: 
>>>>>Begin Spectral Data<<<<<
180.30	0.000
180.67	0.000
181.03	-98.594
181.40	-8.877
181.77	74.039
182.14	-134.668
182.51	-118.336
182.88	-410.568
183.25	-70.551
183.62	133.323
183.99	243.249
184.36	412.047
184.73	95.321
185.10	114.613
185.46	111.757
185.83	-105.420
186.20	77.087
186.57	-25.890
186.94	75.734
187.31	307.430
187.68	20.067
188.05	11.701
188.42	-2.100
188.78	-13.267
189.15	-57.508
189.52	-317.376
189.89	-534.885
190.26	-173.718
190.63	-90.740
191.00	-69.435
191.37	-26.073
191.73	12.664
192.10	52.042
192.47	32.688
192.84	30.823
193.21	39.996
193.58	47.261
193.94	56.832
194.31	52.144
194.68	41.738
195.05	40.136
195.42	25.945
195.79	17.615
196.15	-5.909
196.52	1.932
196.89	9.061
197.26	15.111
197.63	15.872
198.00	19.741
198.36	20.795
198.73	52.257
199.10	53.104
199.47	70.391
199.84	55.716
200.20	43.888
200.57	25.922
200.94	-6.390
201.31	-24.861
201.68	-37.524
202.04	-46.428
202.41	-88.274
202.78	-60.276
203.15	-82.961
203.51	-82.591
203.88	-50.941
204.25	-1.973
204.62	9.974
204.98	23.069
205.35	16.723
205.72	11.458
206.09	0.075
206.46	19.035
206.82	6.818
207.19	7.813
207.56	3.480
207.92	-7.269
208.29	-6.969
208.66	-11.105
209.03	-10.454
209.39	-1.235
209.76	4.568
210.13	-2.394
210.50	2.159
210.86	-1.468
211.23	15.624
211.60	39.172
211.96	53.031
212.33	16.840
212.70	20.942
213.07	13.535
213.43	8.619
213.80	8.598
214.17	14.164
214.53	4.214
214.90	8.282
215.27	5.660
215.63	-5.941
216.00	-11.850
216.37	-3.464
216.74	-16.821
217.10	-10.914
217.47	-6.831
217.84	-13.227
218.20	-18.495
218.57	-8.699
218.94	-13.041
219.30	-15.977
219.67	-18.453
220.04	-18.927
220.40	-16.837
220.77	-7.691
221.13	-8.959
221.50	-4.097
221.87	-4.006
222.23	-6.426
222.60	-12.144
222.97	-9.572
223.33	-6.719
223.70	-0.752
224.07	5.175
224.43	9.566
224.80	5.687
225.16	2.924
225.53	-1.515
225.90	1.029
226.26	4.201
226.63	6.433
226.99	6.297
227.36	6.684
227.73	5.939
228.09	5.122
228.46	3.511
228.82	4.519
229.19	5.718
229.56	6.721
229.92	6.057
230.29	4.772
230.65	3.279
231.02	1.881
231.38	0.573
231.75	0.884
232.12	-0.399
232.48	-1.634
232.85	-4.847
233.21	-6.938
233.58	-5.787
233.94	-2.619
234.31	0.060
234.68	2.483
235.04	4.457
235.41	5.248
235.77	5.898
236.14	8.622
236.50	10.385
236.87	10.873
237.23	10.498
237.60	10.281
237.96	8.052
238.33	5.247
238.69	4.971
239.06	4.748
239.42	3.677
239.79	2.956
240.15	2.035
240.52	1.768
240.88	1.870
241.25	2.986
241.61	2.840
241.98	3.292
242.34	3.937
242.71	4.044
243.07	3.818
243.44	4.141
243.80	4.041
244.17	4.356
244.53	4.549
244.90	4.697
245.26	4.498
245.63	4.731
245.99	4.294
246.36	4.263
246.72	4.025
247.09	3.776
247.45	3.686
247.81	3.989
248.18	4.420
248.54	4.638
248.91	4.526
249.27	4.811
249.64	4.357
250.00	4.532
250.36	5.341
250.73	5.574
251.09	5.871
251.46	6.170
251.82	6.024
252.19	5.077
252.55	4.167
252.91	4.803
253.28	4.563
253.64	5.646
254.01	6.069
254.37	5.418
254.73	5.540
255.10	5.867
255.46	5.545
255.83	5.548
256.19	5.420
256.55	5.632
256.92	5.233
257.28	5.251
257.65	4.572
258.01	4.378
258.37	4.385
258.74	4.432
259.10	4.171
259.46	4.147
259.83	3.918
260.19	3.828
260.55	3.634
260.92	3.811
261.28	3.604
261.64	3.821
262.01	3.573
262.37	3.147
262.73	2.757
263.10	2.973
263.46	2.864
263.82	3.229
264.19	3.112
264.55	3.525
264.91	3.327
265.28	3.499
265.64	3.793
266.00	4.089
266.37	4.220
266.73	4.596
267.09	4.695
267.46	5.155
267.82	5.208
268.18	5.770
268.54	5.701
268.91	5.830
269.27	5.872
269.63	5.676
270.00	5.633
270.36	5.704
270.72	5.435
271.08	5.353
271.45	5.160
271.81	4.998
272.17	4.482
272.53	4.193
272.90	3.710
273.26	3.221
273.62	3.039
273.98	3.059
274.35	3.521
274.71	3.803
275.07	3.285
275.43	3.141
275.80	3.195
276.16	3.553
276.52	3.717
276.88	4.224
277.25	4.478
277.61	4.647
277.97	4.688
278.33	4.471
278.69	3.919
279.06	4.315
279.42	4.540
279.78	4.523
280.14	4.219
280.50	4.109
280.87	4.271
281.23	4.354
281.59	4.118
281.95	4.064
282.31	4.081
282.68	4.158
283.04	4.205
283.40	4.189
283.76	4.079
284.12	4.147
284.48	4.181
284.85	4.056
285.21	4.008
285.57	4.008
285.93	3.995
286.29	3.873
286.65	3.861
287.02	3.712
287.38	3.767
287.74	3.824
288.10	4.043
288.46	4.158
288.82	4.149
289.18	4.250
289.54	4.448
289.91	4.490
290.27	4.374
290.63	4.615
290.99	4.720
291.35	4.606
291.71	4.452
292.07	4.402
292.43	4.176
292.79	3.919
293.16	3.610
293.52	3.668
293.88	3.700
294.24	3.886
294.60	3.755
294.96	3.776
295.32	3.801
295.68	3.981
296.04	3.904
296.40	3.996
296.76	3.913
297.12	4.181
297.49	4.033
297.85	4.213
298.21	3.911
298.57	4.011
298.93	4.056
299.29	4.116
299.65	3.832
300.01	3.988
300.37	4.056
300.73	4.245
301.09	4.028
301.45	4.333
301.81	4.300
302.17	4.446
302.53	4.360
302.89	4.348
303.25	4.131
303.61	4.316
303.97	4.252
304.33	4.131
304.69	4.088
305.05	4.025
305.41	3.744
305.77	3.559
306.13	3.533
306.49	3.638
306.85	3.594
307.21	3.721
307.57	3.744
307.93	3.634
308.29	3.696
308.65	3.977
309.01	4.231
309.37	4.234
309.73	4.478
310.09	4.503
310.45	4.460
310.81	4.292
311.17	4.246
311.53	4.302
311.89	4.361
312.25	4.604
312.61	4.546
312.96	4.342
313.32	4.346
313.68	4.226
314.04	4.334
314.40	4.408
314.76	4.735
315.12	4.601
315.48	4.546
315.84	4.560
316.20	4.359
316.56	4.272
316.92	4.335
317.27	4.408
317.63	4.205
317.99	4.212
318.35	3.928
318.71	3.737
319.07	3.961
319.43	3.988
319.79	3.954
320.15	3.995
320.50	3.918
320.86	3.927
321.22	3.904
321.58	4.017
321.94	3.876
322.30	4.075
322.66	4.137
323.01	4.179
323.37	4.148
323.73	4.165
324.09	4.203
324.45	4.225
324.81	4.309
325.17	4.360
325.52	4.343
325.88	4.363
326.24	4.321
326.60	4.399
326.96	4.354
327.31	4.377
327.67	4.272
328.03	4.175
328.39	4.032
328.75	4.011
329.11	3.891
329.46	3.811
329.82	3.879
330.18	3.865
330.54	3.725
330.90	3.616
331.25	3.559
331.61	3.802
331.97	3.810
332.33	4.004
332.68	3.956
333.04	4.023
333.40	4.118
333.76	4.260
334.11	4.275
334.47	4.335
334.83	4.416
335.19	4.579
335.54	4.383
335.90	4.390
336.26	4.337
336.62	4.324
336.97	4.347
337.33	4.287
337.69	4.088
338.05	4.165
338.40	4.039
338.76	4.046
339.12	3.943
339.48	3.973
339.83	4.031
340.19	4.217
340.55	4.263
340.90	4.236
341.26	4.187
341.62	4.245
341.97	4.257
342.33	4.319
342.69	4.252
343.04	4.201
343.40	4.217
343.76	4.073
344.12	3.860
344.47	3.938
344.83	3.954
345.19	4.075
345.54	4.102
345.90	3.956
346.26	3.975
346.61	3.973
346.97	4.031
347.32	4.055
347.68	4.190
348.04	4.261
348.39	4.101
348.75	4.085
349.11	4.015
349.46	3.906
349.82	3.986
350.18	4.066
350.53	4.113
350.89	4.072
351.24	4.064
351.60	4.013
351.96	4.023
352.31	4.131
352.67	4.205
353.02	4.207
353.38	4.265
353.74	4.262
354.09	4.214
354.45	4.204
354.80	4.227
355.16	4.149
355.52	4.097
355.87	4.088
356.23	3.985
356.58	3.889
356.94	3.825
357.29	3.834
357.65	3.755
358.00	3.793
358.36	3.765
358.72	3.759
359.07	3.776
359.43	3.852
359.78	3.874
360.14	3.918
360.49	3.946
360.85	4.006
361.20	3.960
361.56	3.968
361.91	3.862
362.27	3.867
362.62	3.824
362.98	3.752
363.33	3.687
363.69	3.635
364.04	3.708
364.40	3.712
364.75	3.710
365.11	3.789
365.46	3.846
365.82	3.880
366.17	3.892
366.53	3.955
366.88	4.064
367.24	4.032
367.59	3.997
367.95	3.895
368.30	3.851
368.66	3.815
369.01	3.767
369.37	3.764
369.72	3.826
370.08	3.844
370.43	3.792
370.78	3.793
371.14	3.823
371.49	3.837
371.85	3.898
372.20	3.905
372.56	3.876
372.91	3.840
373.26	3.811
373.62	3.762
373.97	3.727
374.33	3.745
374.68	3.707
375.03	3.701
375.39	3.657
375.74	3.599
376.10	3.663
376.45	3.660
376.80	3.705
377.16	3.713
377.51	3.722
377.87	3.758
378.22	3.748
378.57	3.753
378.93	3.817
379.28	3.894
379.63	3.915
379.99	3.912
380.34	3.957
380.70	3.903
381.05	3.903
381.40	3.901
381.76	3.912
382.11	3.948
382.46	3.972
382.82	3.942
383.17	3.908
383.52	3.937
383.88	3.844
384.23	3.818
384.58	3.846
384.94	3.869
385.29	3.870
385.64	3.855
385.99	3.793
386.35	3.783
386.70	3.769
387.05	3.802
387.41	3.784
387.76	3.876
388.11	3.908
388.47	3.956
388.82	3.963
389.17	3.964
389.52	3.946
389.88	4.020
390.23	4.077
390.58	4.162
390.93	4.160
391.29	4.161
391.64	4.137
391.99	4.180
392.34	4.151
392.70	4.180
393.05	4.218
393.40	4.268
393.75	4.261
394.11	4.267
394.46	4.217
394.81	4.228
395.16	4.236
395.52	4.259
395.87	4.250
396.22	4.230
396.57	4.216
396.92	4.210
397.28	4.217
397.63	4.219
397.98	4.211
398.33	4.253
398.68	4.263
399.04	4.266
399.39	4.293
399.74	4.320
400.09	4.377
400.44	4.371
400.80	4.362
401.15	4.357
401.50	4.346
401.85	4.331
402.20	4.312
402.55	4.283
402.90	4.299
403.26	4.268
403.61	4.261
403.96	4.247
404.31	4.260
404.66	4.274
405.01	4.215
405.36	4.235
405.72	4.260
406.07	4.299
406.42	4.384
406.77	4.397
407.12	4.427
407.47	4.413
407.82	4.407
408.17	4.400
408.53	4.427
408.88	4.515
409.23	4.516
409.58	4.501
409.93	4.474
410.28	4.472
410.63	4.466
410.98	4.468
411.33	4.492
411.68	4.540
412.03	4.588
412.38	4.588
412.73	4.582
413.09	4.625
413.44	4.684
413.79	4.701
414.14	4.680
414.49	4.712
414.84	4.699
415.19	4.701
415.54	4.732
415.89	4.741
416.24	4.765
416.59	4.778
416.94	4.775
417.29	4.768
417.64	4.784
417.99	4.794
418.34	4.812
418.69	4.842
419.04	4.854
419.39	4.853
419.74	4.867
420.09	4.879
420.44	4.891
420.79	4.907
421.14	4.915
421.49	4.932
421.84	4.957
422.19	4.954
422.54	4.987
422.89	5.023
423.24	5.039
423.59	5.053
423.94	5.060
424.29	5.086
424.64	5.101
424.99	5.129
425.34	5.132
425.68	5.155
426.03	5.190
426.38	5.190
426.73	5.192
427.08	5.222
427.43	5.250
427.78	5.269
428.13	5.289
428.48	5.348
428.83	5.357
429.18	5.382
429.53	5.375
429.87	5.391
430.22	5.398
430.57	5.423
430.92	5.412
431.27	5.426
431.62	5.419
431.97	5.414
432.32	5.391
432.67	5.402
433.01	5.414
433.36	5.444
433.71	5.477
434.06	5.489
434.41	5.503
434.76	5.551
435.11	5.558
435.45	5.603
435.80	5.621
436.15	5.617
436.50	5.629
436.85	5.638
437.20	5.651
437.54	5.647
437.89	5.670
438.24	5.682
438.59	5.678
438.94	5.700
439.29	5.714
439.63	5.720
439.98	5.769
440.33	5.790
440.68	5.812
441.03	5.826
441.37	5.835
441.72	5.843
442.07	5.844
442.42	5.865
442.76	5.869
443.11	5.882
443.46	5.919
443.81	5.915
444.16	5.936
444.50	5.948
444.85	5.935
445.20	5.955
445.55	5.968
445.89	5.986
446.24	5.997
446.59	6.007
446.94	6.024
447.28	6.031
447.63	6.048
447.98	6.067
448.32	6.105
448.67	6.154
449.02	6.187
449.37	6.222
449.71	6.235
450.06	6.246
450.41	6.286
450.75	6.307
451.10	6.310
451.45	6.335
451.79	6.341
452.14	6.329
452.49	6.349
452.84	6.340
453.18	6.371
453.53	6.397
453.88	6.411
454.22	6.424
454.57	6.409
454.92	6.422
455.26	6.431
455.61	6.444
455.95	6.456
456.30	6.464
456.65	6.483
456.99	6.490
457.34	6.493
457.69	6.519
458.03	6.519
458.38	6.553
458.73	6.578
459.07	6.605
459.42	6.621
459.76	6.638
460.11	6.683
460.46	6.709
460.80	6.719
461.15	6.744
461.49	6.758
461.84	6.801
462.19	6.820
462.53	6.864
462.88	6.899
463.22	6.911
463.57	6.922
463.91	6.914
464.26	6.948
464.61	6.964
464.95	6.995
465.30	7.006
465.64	7.006
465.99	7.028
466.33	7.048
466.68	7.048
467.02	7.077
467.37	7.099
467.71	7.107
468.06	7.099
468.41	7.124
468.75	7.149
469.10	7.182
469.44	7.190
469.79	7.183
470.13	7.172
470.48	7.174
470.82	7.213
471.17	7.242
471.51	7.263
471.86	7.272
472.20	7.273
472.55	7.273
472.89	7.290
473.23	7.305
473.58	7.340
473.92	7.360
474.27	7.380
474.61	7.354
474.96	7.367
475.30	7.363
475.65	7.374
475.99	7.393
476.34	7.415
476.68	7.414
477.02	7.426
477.37	7.426
477.71	7.417
478.06	7.422
478.40	7.463
478.75	7.476
479.09	7.514
479.43	7.564
479.78	7.598
480.12	7.645
480.47	7.694
480.81	7.743
481.15	7.790
481.50	7.842
481.84	7.884
482.19	7.920
482.53	7.956
482.87	7.989
483.22	8.004
483.56	8.019
483.90	8.022
484.25	8.022
484.59	8.024
484.94	8.016
485.28	8.007
485.62	7.993
485.97	7.980
486.31	7.973
486.65	7.964
487.00	7.976
487.34	7.984
487.68	7.994
488.03	7.999
488.37	8.002
488.71	8.026
489.06	8.040
489.40	8.054
489.74	8.054
490.09	8.061
490.43	8.070
490.77	8.058
491.11	8.058
491.46	8.058
491.80	8.074
492.14	8.088
492.49	8.084
492.83	8.087
493.17	8.105
493.51	8.138
493.86	8.148
494.20	8.167
494.54	8.211
494.88	8.246
495.23	8.276
495.57	8.296
495.91	8.312
496.25	8.342
496.60	8.367
496.94	8.396
497.28	8.420
497.62	8.480
497.97	8.523
498.31	8.537
498.65	8.563
498.99	8.603
499.33	8.643
499.68	8.665
500.02	8.688
500.36	8.721
500.70	8.759
501.04	8.801
501.39	8.798
501.73	8.823
502.07	8.856
502.41	8.882
502.75	8.884
503.09	8.897
503.44	8.940
503.78	8.959
504.12	8.988
504.46	9.024
504.80	9.026
505.14	9.054
505.49	9.082
505.83	9.117
506.17	9.163
506.51	9.219
506.85	9.248
507.19	9.280
507.53	9.303
507.87	9.335
508.22	9.346
508.56	9.392
508.90	9.437
509.24	9.464
509.58	9.482
509.92	9.496
510.26	9.502
510.60	9.541
510.94	9.576
511.28	9.616
511.63	9.631
511.97	9.652
512.31	9.673
512.65	9.682
512.99	9.710
513.33	9.735
513.67	9.760
514.01	9.790
514.35	9.806
514.69	9.820
515.03	9.843
515.37	9.878
515.71	9.908
516.05	9.948
516.39	9.980
516.73	9.996
517.07	10.007
517.41	10.039
517.75	10.060
518.09	10.082
518.43	10.099
518.77	10.124
519.11	10.140
519.45	10.170
519.79	10.166
520.13	10.176
520.47	10.190
520.81	10.239
521.15	10.244
521.49	10.261
521.83	10.276
522.17	10.292
522.51	10.314
522.85	10.338
523.19	10.366
523.53	10.407
523.87	10.473
524.21	10.542
524.55	10.583
524.89	10.640
525.23	10.695
525.57	10.747
525.91	10.792
526.25	10.829
526.58	10.868
526.92	10.899
527.26	10.932
527.60	10.946
527.94	10.948
528.28	10.960
528.62	10.965
528.96	10.959
529.30	10.960
529.64	10.965
529.97	10.964
530.31	10.953
530.65	10.934
530.99	10.933
531.33	10.943
531.67	10.954
532.01	10.952
532.35	10.951
532.68	10.965
533.02	10.980
533.36	10.971
533.70	10.981
534.04	10.995
534.38	11.020
534.71	11.024
535.05	11.033
535.39	11.045
535.73	11.049
536.07	11.060
536.41	11.071
536.74	11.085
537.08	11.119
537.42	11.144
537.76	11.182
538.10	11.226
538.43	11.262
538.77	11.288
539.11	11.324
539.45	11.362
539.79	11.392
540.12	11.407
540.46	11.421
540.80	11.433
541.14	11.453
541.47	11.442
541.81	11.428
542.15	11.426
542.49	11.416
542.82	11.403
543.16	11.408
543.50	11.425
543.84	11.451
544.17	11.479
544.51	11.483
544.85	11.489
545.18	11.517
545.52	11.527
545.86	11.535
546.20	11.568
546.53	11.579
546.87	11.575
547.21	11.577
547.54	11.589
547.88	11.580
548.22	11.604
548.55	11.603
548.89	11.624
549.23	11.644
549.56	11.679
549.90	11.700
550.24	11.706
550.57	11.737
550.91	11.749
551.25	11.734
551.58	11.745
551.92	11.757
552.26	11.766
552.59	11.783
552.93	11.821
553.27	11.795
553.60	11.787
553.94	11.824
554.27	11.843
554.61	11.854
554.95	11.915
555.28	11.937
555.62	11.934
555.95	11.957
556.29	11.962
556.63	11.950
556.96	11.972
557.30	11.981
557.63	11.999
557.97	12.015
558.31	12.027
558.64	12.028
558.98	12.073
559.31	12.144
559.65	12.166
559.98	12.198
560.32	12.237
560.65	12.297
560.99	12.312
561.33	12.300
561.66	12.308
562.00	12.326
562.33	12.304
562.67	12.292
563.00	12.268
563.34	12.292
563.67	12.312
564.01	12.334
564.34	12.334
564.68	12.352
565.01	12.398
565.35	12.433
565.68	12.453
566.02	12.494
566.35	12.525
566.69	12.529
567.02	12.526
567.36	12.547
567.69	12.554
568.03	12.554
568.36	12.585
568.69	12.598
569.03	12.603
569.36	12.613
569.70	12.634
570.03	12.643
570.37	12.705
570.70	12.739
571.04	12.753
571.37	12.770
571.70	12.814
572.04	12.811
572.37	12.822
572.71	12.833
573.04	12.841
573.37	12.859
573.71	12.860
574.04	12.836
574.38	12.842
574.71	12.832
575.04	12.854
575.38	12.850
575.71	12.885
576.05	12.916
576.38	12.956
576.71	13.001
577.05	13.036
577.38	13.058
577.71	13.085
578.05	13.121
578.38	13.152
578.71	13.154
579.05	13.164
579.38	13.166
579.71	13.158
580.05	13.162
580.38	13.155
580.71	13.164
581.05	13.192
581.38	13.214
581.71	13.216
582.05	13.223
582.38	13.260
582.71	13.291
583.04	13.324
583.38	13.363
583.71	13.369
584.04	13.398
584.38	13.404
584.71	13.426
585.04	13.440
585.37	13.468
585.71	13.509
586.04	13.512
586.37	13.519
586.70	13.542
587.04	13.566
587.37	13.578
587.70	13.589
588.03	13.597
588.37	13.596
588.70	13.621
589.03	13.628
589.36	13.665
589.69	13.660
590.03	13.693
590.36	13.687
590.69	13.678
591.02	13.701
591.35	13.725
591.69	13.749
592.02	13.757
592.35	13.777
592.68	13.779
593.01	13.782
593.35	13.824
593.68	13.835
594.01	13.853
594.34	13.880
594.67	13.889
595.00	13.886
595.34	13.927
595.67	13.963
596.00	13.980
596.33	14.031
596.66	14.038
596.99	14.043
597.32	14.043
597.65	14.063
597.99	14.076
598.32	14.085
598.65	14.098
598.98	14.084
599.31	14.116
599.64	14.125
599.97	14.121
600.30	14.121
600.63	14.156
600.96	14.181
601.30	14.211
601.63	14.234
601.96	14.264
602.29	14.318
602.62	14.337
602.95	14.333
603.28	14.346
603.61	14.367
603.94	14.387
604.27	14.400
604.60	14.418
604.93	14.425
605.26	14.429
605.59	14.438
605.92	14.420
606.25	14.420
606.58	14.428
606.91	14.428
607.24	14.456
607.57	14.477
607.90	14.492
608.23	14.502
608.56	14.506
608.89	14.522
609.22	14.498
609.55	14.527
609.88	14.528
610.21	14.552
610.54	14.603
610.87	14.601
611.20	14.620
611.53	14.608
611.86	14.636
612.19	14.685
612.52	14.682
612.85	14.752
613.18	14.755
613.51	14.784
613.84	14.793
614.17	14.804
614.49	14.807
614.82	14.811
615.15	14.819
615.48	14.804
615.81	14.796
616.14	14.821
616.47	14.840
616.80	14.895
617.13	14.930
617.46	14.921
617.78	14.904
618.11	14.943
618.44	14.937
618.77	14.956
619.10	14.964
619.43	14.981
619.76	14.968
620.09	14.943
620.41	14.886
620.74	14.854
621.07	14.867
621.40	14.872
621.73	14.846
622.06	14.866
622.38	14.890
622.71	14.930
623.04	14.930
623.37	14.965
623.70	14.983
624.02	15.015
624.35	15.056
624.68	15.085
625.01	15.088
625.34	15.086
625.66	15.107
625.99	15.097
626.32	15.103
626.65	15.089
626.98	15.087
627.30	15.122
627.63	15.130
627.96	15.149
628.29	15.159
628.61	15.200
628.94	15.228
629.27	15.205
629.60	15.189
629.92	15.174
630.25	15.209
630.58	15.232
630.91	15.227
631.23	15.241
631.56	15.208
631.89	15.211
632.21	15.160
632.54	15.145
632.87	15.167
633.19	15.218
633.52	15.239
633.85	15.224
634.18	15.194
634.50	15.183
634.83	15.162
635.16	15.185
635.48	15.154
635.81	15.188
636.14	15.244
636.46	15.259
636.79	15.283
637.11	15.274
637.44	15.291
637.77	15.294
638.09	15.274
638.42	15.286
638.75	15.276
639.07	15.309
639.40	15.353
639.73	15.319
640.05	15.301
640.38	15.301
640.70	15.344
641.03	15.346
641.36	15.380
641.68	15.416
642.01	15.391
642.33	15.409
642.66	15.407
642.98	15.445
643.31	15.453
643.64	15.467
643.96	15.450
644.29	15.379
644.61	15.391
644.94	15.401
645.26	15.402
645.59	15.441
645.91	15.463
646.24	15.462
646.56	15.428
646.89	15.443
647.22	15.419
647.54	15.378
647.87	15.403
648.19	15.397
648.52	15.377
648.84	15.406
649.17	15.385
649.49	15.383
649.82	15.388
650.14	15.335
650.47	15.333
650.79	15.382
651.11	15.403
651.44	15.411
651.76	15.419
652.09	15.445
652.41	15.428
652.74	15.430
653.06	15.450
653.39	15.442
653.71	15.502
654.04	15.508
654.36	15.499
654.68	15.512
655.01	15.544
655.33	15.523
655.66	15.573
655.98	15.566
656.30	15.666
656.63	15.641
656.95	15.620
657.28	15.625
657.60	15.637
657.92	15.633
658.25	15.680
658.57	15.675
658.90	15.712
659.22	15.668
659.54	15.660
659.87	15.573
660.19	15.591
660.51	15.573
660.84	15.551
661.16	15.453
661.48	15.440
661.81	15.405
662.13	15.420
662.45	15.390
662.78	15.322
663.10	15.368
663.42	15.373
663.75	15.350
664.07	15.418
664.39	15.386
664.72	15.418
665.04	15.441
665.36	15.432
665.69	15.400
666.01	15.412
666.33	15.497
666.65	15.464
666.98	15.506
667.30	15.452
667.62	15.436
667.94	15.459
668.27	15.485
668.59	15.466
668.91	15.430
669.23	15.419
669.56	15.438
669.88	15.432
670.20	15.440
670.52	15.388
670.85	15.461
671.17	15.494
671.49	15.486
671.81	15.513
672.13	15.470
672.46	15.511
672.78	15.511
673.10	15.509
673.42	15.481
673.74	15.489
674.07	15.487
674.39	15.529
674.71	15.472
675.03	15.473
675.35	15.453
675.67	15.492
676.00	15.504
676.32	15.554
676.64	15.496
676.96	15.538
677.28	15.504
677.60	15.485
677.92	15.434
678.25	15.450
678.57	15.446
678.89	15.446
679.21	15.465
679.53	15.444
679.85	15.377
680.17	15.390
680.49	15.311
680.81	15.353
681.13	15.340
681.46	15.325
681.78	15.335
682.10	15.375
682.42	15.350
682.74	15.381
683.06	15.401
683.38	15.472
683.70	15.427
684.02	15.463
684.34	15.382
684.66	15.470
684.98	15.464
685.30	15.390
685.62	15.349
685.94	15.411
686.26	15.369
686.58	15.310
686.90	15.261
687.22	15.318
687.54	15.355
687.86	15.413
688.18	15.358
688.50	15.407
688.82	15.519
689.14	15.509
689.46	15.464
689.78	15.462
690.10	15.491
690.42	15.473
690.74	15.429
691.06	15.383
691.38	15.370
691.70	15.407
692.02	15.378
692.34	15.286
692.66	15.336
692.98	15.330
693.30	15.326
693.62	15.335
693.94	15.381
694.26	15.380
694.57	15.388
694.89	15.413
695.21	15.373
695.53	15.363
695.85	15.415
696.17	15.350
696.49	15.305
696.81	15.268
697.13	15.178
697.44	15.185
697.76	15.209
698.08	15.211
698.40	15.157
698.72	15.196
699.04	15.178
699.36	15.139
699.67	15.204
699.99	15.243
700.31	15.169
700.63	15.225
700.95	15.142
701.27	15.107
701.58	15.004
701.90	14.974
702.22	14.898
702.54	14.849
702.86	14.869
703.17	14.790
703.49	14.726
703.81	14.906
704.13	14.835
704.45	14.834
704.76	14.819
705.08	14.931
705.40	14.928
705.72	14.978
706.03	15.032
706.35	15.043
706.67	14.965
706.99	15.070
707.30	15.017
707.62	15.088
707.94	15.095
708.26	15.140
708.57	15.092
708.89	15.142
709.21	15.063
709.53	15.005
709.84	14.946
710.16	15.028
710.48	15.081
710.79	15.102
711.11	15.071
711.43	15.096
711.74	15.125
712.06	15.163
712.38	15.051
712.69	15.087
713.01	15.074
713.33	15.061
713.64	15.032
713.96	14.919
714.28	14.853
714.59	14.840
714.91	14.864
715.23	14.837
715.54	14.788
715.86	14.920
716.17	14.933
716.49	14.968
716.81	14.922
717.12	14.939
717.44	14.877
717.76	14.843
718.07	14.911
718.39	14.897
718.70	14.831
719.02	14.886
719.33	14.909
719.65	14.839
719.97	14.825
720.28	14.895
720.60	14.864
720.91	14.969
721.23	15.067
721.54	15.086
721.86	14.995
722.17	14.961
722.49	14.994
722.81	14.870
723.12	14.943
723.44	14.861
723.75	14.904
724.07	14.821
724.38	14.766
724.70	14.707
725.01	14.592
725.33	14.475
725.64	14.454
725.96	14.325
726.27	14.388
726.59	14.384
726.90	14.422
727.22	14.219
727.53	14.343
727.84	14.245
728.16	14.190
728.47	14.226
728.79	14.305
729.10	14.357
729.42	14.467
729.73	14.521
730.05	14.430
730.36	14.505
730.67	14.608
730.99	14.547
731.30	14.637
731.62	14.652
731.93	14.648
732.24	14.748
732.56	14.765
732.87	14.657
733.19	14.360
733.50	14.293
733.81	14.207
734.13	14.283
734.44	14.195
734.76	14.080
735.07	14.019
735.38	14.053
735.70	13.861
736.01	13.714
736.32	13.681
736.64	13.838
736.95	13.822
737.26	13.743
737.58	13.673
737.89	13.774
738.20	13.823
738.52	13.772
738.83	13.713
739.14	13.892
739.45	14.058
739.77	14.092
740.08	14.000
740.39	14.040
740.71	14.134
741.02	14.085
741.33	14.025
741.64	13.978
741.96	14.080
742.27	14.044
742.58	13.980
742.90	13.939
743.21	13.941
743.52	13.912
743.83	14.146
744.14	14.162
744.46	14.119
744.77	14.073
745.08	14.043
745.39	14.005
745.71	14.111
746.02	13.994
746.33	14.009
746.64	14.003
746.95	14.073
747.27	13.827
747.58	13.835
747.89	13.931
748.20	13.905
748.51	14.001
748.82	14.019
749.14	13.973
749.45	14.068
749.76	14.035
750.07	13.972
750.38	13.994
750.69	14.080
751.01	13.982
751.32	13.882
751.63	13.868
751.94	13.813
752.25	13.767
752.56	13.716
752.87	13.659
753.18	13.590
753.49	13.659
753.81	13.718
754.12	13.650
754.43	13.696
754.74	13.691
755.05	13.722
755.36	13.750
755.67	13.724
755.98	13.637
756.29	13.821
756.60	13.956
756.91	14.081
757.22	14.146
757.53	14.238
757.84	14.340
758.15	14.489
758.46	14.535
758.77	14.640
759.09	14.774
759.40	14.852
759.71	14.767
760.02	14.642
760.33	14.462
760.64	14.540
760.95	14.570
761.26	14.659
761.57	14.608
761.88	14.604
762.18	14.575
762.49	14.512
762.80	14.444
763.11	14.381
763.42	14.437
763.73	14.505
764.04	14.371
764.35	14.285
764.66	14.038
764.97	13.982
765.28	14.046
765.59	13.816
765.90	13.726
766.21	13.797
766.52	13.843
766.83	13.613
767.14	13.301
767.44	13.222
767.75	13.016
768.06	13.049
768.37	13.098
768.68	12.820
768.99	13.071
769.30	13.023
769.61	12.935
769.91	12.736
770.22	12.845
770.53	12.791
770.84	12.839
771.15	13.097
771.46	13.139
771.77	13.022
772.07	13.124
772.38	13.018
772.69	13.076
773.00	12.635
773.31	12.680
773.61	12.721
773.92	12.929
774.23	12.722
774.54	12.788
774.85	12.580
775.15	12.673
775.46	12.636
775.77	12.441
776.08	12.364
776.39	12.939
776.69	12.689
777.00	12.625
777.31	12.735
777.62	12.762
777.92	12.450
778.23	12.715
778.54	12.675
778.85	12.595
779.15	13.082
779.46	13.357
779.77	13.116
780.07	13.438
780.38	13.424
780.69	13.713
781.00	13.823
781.30	13.843
781.61	13.625
781.92	13.705
782.22	13.774
782.53	13.210
782.84	12.963
783.14	13.047
783.45	13.137
783.76	13.054
784.06	12.682
784.37	12.616
784.68	12.688
784.98	12.802
785.29	12.741
785.60	12.879
785.90	13.283
786.21	13.160
786.51	12.968
786.82	12.930
787.13	12.836
787.43	12.757
787.74	12.828
788.04	13.052
788.35	12.739
788.66	12.598
788.96	12.699
789.27	12.532
789.57	12.754
789.88	12.938
790.19	12.756
790.49	12.983
790.80	13.195
791.10	12.965
791.41	12.942
791.71	13.340
792.02	13.360
792.32	13.098
792.63	13.051
792.93	13.248
793.24	13.495
793.54	13.486
793.85	13.295
794.15	13.131
794.46	13.533
794.76	13.353
795.07	13.231
795.37	13.439
795.68	13.473
795.98	13.372
796.29	13.238
796.59	13.111
796.90	13.317
797.20	13.818
797.51	13.780
797.81	13.899
798.12	14.000
798.42	14.287
798.72	14.282
799.03	14.432
799.33	14.487
799.64	14.646
799.94	14.685
800.25	14.498
800.55	14.393
800.85	14.717
801.16	14.257
801.46	14.071
801.77	13.857
802.07	13.825
802.37	13.623
802.68	13.782
802.98	13.493
803.28	13.495
803.59	13.379
803.89	13.427
804.20	13.214
804.50	13.521
804.80	13.473
805.11	13.445
805.41	13.295
805.71	13.390
806.02	13.505
806.32	13.822
806.62	13.732
806.93	13.902
807.23	13.712
807.53	13.491
807.83	13.008
808.14	13.077
808.44	12.764
808.74	13.025
809.05	13.103
809.35	13.195
809.65	12.649
809.95	13.261
810.26	13.413
810.56	13.290
810.86	13.229
811.16	13.869
811.47	13.654
811.77	14.249
812.07	13.794
812.37	13.243
812.68	13.176
812.98	13.263
813.28	12.854
813.58	12.886
813.88	13.128
814.19	13.746
814.49	13.362
814.79	13.818
815.09	13.546
815.39	14.144
815.70	14.369
816.00	14.121
816.30	14.575
816.60	14.000
816.90	14.186
817.20	13.991
817.50	13.871
817.81	13.839
818.11	13.778
818.41	13.813
818.71	13.866
819.01	13.966
819.31	14.056
819.61	14.036
819.92	14.170
820.22	14.103
820.52	14.048
820.82	14.070
821.12	14.089
821.42	14.166
821.72	14.164
822.02	14.089
822.32	14.100
822.62	14.117
822.92	14.045
823.22	14.077
823.52	14.085
823.83	14.078
824.13	14.053
824.43	14.038
824.73	13.946
825.03	14.009
825.33	14.053
825.63	14.011
825.93	13.793
826.23	13.832
826.53	13.715
826.83	13.726
827.13	13.776
827.43	13.891
827.73	13.874
828.03	13.958
828.33	13.812
828.63	13.591
828.93	13.680
829.23	13.933
829.53	13.849
829.83	13.774
830.13	13.831
830.42	13.801
830.72	13.697
831.02	13.815
831.32	13.671
831.62	13.781
831.92	14.125
832.22	13.960
832.52	13.974
832.82	13.814
833.12	13.956
833.42	13.879
833.72	13.854
834.01	13.685
834.31	13.791
834.61	13.779
834.91	13.741
835.21	13.634
835.51	13.914
835.81	14.217
836.11	14.735
836.40	15.004
836.70	14.829
837.00	15.192
837.30	14.829
837.60	14.561
837.90	14.462
838.19	14.916
838.49	15.093
838.79	14.946
839.09	13.978
839.39	13.863
839.68	13.319
839.98	14.188
840.28	14.418
840.58	15.179
840.88	15.256
841.17	15.854
841.47	14.921
841.77	14.635
842.07	14.372
842.36	15.510
842.66	16.111
842.96	16.554
843.26	15.724
843.55	15.673
843.85	15.544
844.15	15.504
844.45	14.375
844.74	15.239
845.04	15.756
845.34	14.661
845.63	14.092
845.93	14.341
846.23	14.237
846.53	13.860
846.82	14.316
847.12	14.343
847.42	14.803
847.71	15.340
848.01	14.582
848.31	14.262
848.60	14.575
848.90	13.451
849.19	13.093
849.49	12.410
849.79	11.940
850.08	10.047
850.38	9.562
850.68	9.109
850.97	8.836
851.27	11.816
851.56	12.084
851.86	12.587
852.16	13.542
852.45	14.011
852.75	13.934
853.04	16.317
853.34	16.920
853.64	16.014
853.93	16.912
854.23	17.834
854.52	14.647
854.82	14.145
855.11	15.707
855.41	15.486
855.70	13.620
856.00	15.180
856.30	13.807
856.59	14.213
856.89	15.269
857.18	13.204
857.48	12.229
857.77	12.687
858.07	12.354
858.36	11.655
858.66	11.871
858.95	12.514
859.25	11.071
859.54	11.037
859.84	10.688
860.13	11.047
860.42	12.834
860.72	12.814
861.01	12.237
861.31	12.639
861.60	12.832
861.90	11.414
862.19	11.851
862.49	12.930
862.78	12.649
863.07	13.911
863.37	14.441
863.66	15.500
863.96	16.423
864.25	16.608
864.54	16.791
864.84	16.266
865.13	17.528
865.43	16.620
865.72	8.268
866.01	17.567
866.31	15.955
866.60	13.272
866.89	9.115
>>>>>End Spectral Data<<<<<
