OOIBase32 Version 2.0.0.6 Data File
++++++++++++++++++++++++++++++++++++
Date: 01-18-2012, 23:02:26
User: Valued Ocean Optics Customer
Spectrometer Serial Number: USB2E2917
Spectrometer Channel: Master
Integration Time (msec): 5
Spectra Averaged: 10
Boxcar Smoothing: 5
Correct for Electrical Dark: Enabled
Time Normalized: Disabled
Dual-beam Reference: Disabled
Reference Channel: Master
Temperature: Not acquired
Spectrometer Type: S2000
ADC Type: USB2000
Number of Pixels in File: 2048
Graph Title: 
>>>>>Begin Spectral Data<<<<<
180.30	0.000
180.67	0.000
181.03	-38.168
181.40	-25.116
181.77	48.439
182.14	-5.414
182.51	-93.260
182.88	-172.968
183.25	21.526
183.62	90.338
183.99	43.093
184.36	76.412
184.73	-31.763
185.10	149.583
185.46	124.058
185.83	529.326
186.20	29.228
186.57	53.973
186.94	135.567
187.31	-564.565
187.68	33.509
188.05	59.725
188.42	82.025
188.78	77.084
189.15	71.333
189.52	100.641
189.89	-97.619
190.26	-104.584
190.63	-28.877
191.00	-54.228
191.37	-58.679
191.73	-45.420
192.10	2.875
192.47	18.178
192.84	-5.316
193.21	2.080
193.58	22.172
193.94	35.123
194.31	33.580
194.68	36.052
195.05	40.184
195.42	32.019
195.79	12.169
196.15	-12.213
196.52	-19.387
196.89	-4.104
197.26	-17.006
197.63	-18.233
198.00	-25.622
198.36	-48.538
198.73	-80.862
199.10	-75.309
199.47	-105.871
199.84	-91.160
200.20	-79.147
200.57	-97.680
200.94	-108.770
201.31	-86.279
201.68	-83.264
202.04	-74.535
202.41	-94.570
202.78	-56.396
203.15	-87.675
203.51	-88.576
203.88	-76.361
204.25	-45.944
204.62	-26.580
204.98	-19.331
205.35	-48.890
205.72	-48.094
206.09	-43.239
206.46	-27.310
206.82	-43.603
207.19	5.626
207.56	27.466
207.92	27.944
208.29	29.792
208.66	15.182
209.03	1.015
209.39	11.246
209.76	-3.459
210.13	-24.756
210.50	-44.589
210.86	-27.490
211.23	-34.273
211.60	-33.447
211.96	-32.814
212.33	-86.619
212.70	-56.917
213.07	-44.331
213.43	-24.158
213.80	0.267
214.17	13.124
214.53	12.069
214.90	7.810
215.27	13.319
215.63	9.072
216.00	3.907
216.37	22.889
216.74	13.114
217.10	18.157
217.47	0.274
217.84	-22.254
218.20	-24.621
218.57	-10.521
218.94	-7.300
219.30	5.900
219.67	5.663
220.04	0.499
220.40	-4.701
220.77	-1.097
221.13	2.258
221.50	14.140
221.87	17.480
222.23	9.081
222.60	7.132
222.97	7.168
223.33	2.983
223.70	5.181
224.07	7.907
224.43	10.193
224.80	10.358
225.16	9.248
225.53	5.557
225.90	6.134
226.26	8.666
226.63	9.453
226.99	10.605
227.36	10.119
227.73	9.750
228.09	9.444
228.46	8.627
228.82	9.117
229.19	9.494
229.56	11.258
229.92	10.642
230.29	10.958
230.65	10.377
231.02	7.905
231.38	5.125
231.75	4.289
232.12	6.360
232.48	5.887
232.85	4.104
233.21	2.129
233.58	1.270
233.94	2.169
234.31	3.122
234.68	5.079
235.04	7.744
235.41	9.869
235.77	10.220
236.14	10.566
236.50	10.469
236.87	10.267
237.23	8.447
237.60	6.837
237.96	6.287
238.33	4.864
238.69	4.494
239.06	4.105
239.42	3.266
239.79	2.912
240.15	1.404
240.52	2.191
240.88	2.750
241.25	3.715
241.61	4.029
241.98	4.264
242.34	5.217
242.71	5.519
243.07	5.688
243.44	5.914
243.80	5.939
244.17	6.285
244.53	6.312
244.90	6.531
245.26	6.891
245.63	7.175
245.99	6.881
246.36	6.490
246.72	6.699
247.09	6.255
247.45	6.161
247.81	6.379
248.18	6.838
248.54	6.844
248.91	6.864
249.27	6.918
249.64	6.923
250.00	7.021
250.36	8.157
250.73	7.622
251.09	7.709
251.46	7.974
251.82	8.065
252.19	7.245
252.55	6.963
252.91	6.853
253.28	6.143
253.64	6.268
254.01	6.302
254.37	5.388
254.73	5.537
255.10	6.016
255.46	6.257
255.83	5.907
256.19	6.081
256.55	6.139
256.92	5.498
257.28	5.675
257.65	5.711
258.01	5.872
258.37	5.705
258.74	5.718
259.10	5.460
259.46	5.150
259.83	5.321
260.19	5.510
260.55	5.385
260.92	5.790
261.28	5.753
261.64	5.870
262.01	5.732
262.37	5.550
262.73	5.629
263.10	5.969
263.46	6.141
263.82	6.144
264.19	5.745
264.55	5.580
264.91	5.436
265.28	5.600
265.64	5.512
266.00	5.683
266.37	5.901
266.73	5.954
267.09	6.069
267.46	6.111
267.82	6.115
268.18	6.201
268.54	6.390
268.91	6.442
269.27	6.126
269.63	5.931
270.00	6.012
270.36	6.064
270.72	5.755
271.08	5.577
271.45	5.790
271.81	5.754
272.17	5.788
272.53	5.333
272.90	5.304
273.26	5.183
273.62	5.136
273.98	4.901
274.35	5.155
274.71	5.479
275.07	5.301
275.43	5.070
275.80	5.090
276.16	5.259
276.52	5.757
276.88	5.758
277.25	6.053
277.61	6.134
277.97	6.473
278.33	6.213
278.69	5.946
279.06	6.198
279.42	6.297
279.78	6.364
280.14	6.262
280.50	6.613
280.87	6.673
281.23	6.711
281.59	6.354
281.95	6.064
282.31	6.386
282.68	6.287
283.04	6.273
283.40	6.272
283.76	5.974
284.12	5.990
284.48	5.738
284.85	6.079
285.21	6.031
285.57	6.205
285.93	6.299
286.29	5.962
286.65	6.188
287.02	5.955
287.38	5.823
287.74	5.990
288.10	6.112
288.46	6.437
288.82	5.893
289.18	5.943
289.54	6.185
289.91	6.247
290.27	6.414
290.63	6.442
290.99	6.635
291.35	7.068
291.71	7.066
292.07	6.907
292.43	6.709
292.79	6.956
293.16	6.867
293.52	6.710
293.88	6.807
294.24	6.911
294.60	7.101
294.96	7.368
295.32	7.515
295.68	7.854
296.04	8.014
296.40	8.268
296.76	8.478
297.12	8.821
297.49	9.067
297.85	9.525
298.21	9.639
298.57	9.750
298.93	10.054
299.29	10.273
299.65	10.202
300.01	10.569
300.37	10.858
300.73	10.841
301.09	10.795
301.45	11.093
301.81	11.250
302.17	11.436
302.53	11.591
302.89	11.870
303.25	12.105
303.61	12.428
303.97	12.461
304.33	12.470
304.69	12.824
305.05	13.240
305.41	13.455
305.77	13.382
306.13	13.407
306.49	13.533
306.85	13.406
307.21	13.079
307.57	13.280
307.93	13.395
308.29	13.438
308.65	13.616
309.01	13.640
309.37	13.598
309.73	13.771
310.09	14.003
310.45	14.209
310.81	14.291
311.17	14.519
311.53	14.556
311.89	14.641
312.25	14.906
312.61	14.981
312.96	15.059
313.32	15.131
313.68	15.109
314.04	15.123
314.40	15.036
314.76	15.065
315.12	15.014
315.48	14.965
315.84	14.944
316.20	14.809
316.56	14.655
316.92	14.566
317.27	14.540
317.63	14.446
317.99	14.351
318.35	14.311
318.71	14.271
319.07	14.383
319.43	14.192
319.79	14.164
320.15	14.024
320.50	13.957
320.86	13.882
321.22	13.877
321.58	13.905
321.94	13.962
322.30	13.968
322.66	13.969
323.01	13.960
323.37	14.078
323.73	14.205
324.09	14.335
324.45	14.299
324.81	14.419
325.17	14.462
325.52	14.433
325.88	14.348
326.24	14.336
326.60	14.324
326.96	14.229
327.31	14.277
327.67	14.071
328.03	14.012
328.39	14.013
328.75	14.068
329.11	13.884
329.46	13.811
329.82	13.909
330.18	13.877
330.54	13.812
330.90	13.770
331.25	13.698
331.61	13.764
331.97	13.731
332.33	13.728
332.68	13.538
333.04	13.626
333.40	13.572
333.76	13.543
334.11	13.481
334.47	13.494
334.83	13.524
335.19	13.568
335.54	13.516
335.90	13.442
336.26	13.480
336.62	13.481
336.97	13.515
337.33	13.661
337.69	13.712
338.05	13.812
338.40	13.871
338.76	13.875
339.12	13.700
339.48	13.614
339.83	13.647
340.19	13.703
340.55	13.760
340.90	13.681
341.26	13.539
341.62	13.383
341.97	13.247
342.33	13.122
342.69	13.087
343.04	13.181
343.40	13.211
343.76	13.203
344.12	13.126
344.47	13.161
344.83	13.207
345.19	13.291
345.54	13.304
345.90	13.282
346.26	13.258
346.61	13.240
346.97	13.259
347.32	13.291
347.68	13.310
348.04	13.303
348.39	13.208
348.75	13.143
349.11	13.073
349.46	13.074
349.82	13.105
350.18	13.182
350.53	13.191
350.89	13.114
351.24	13.079
351.60	13.035
351.96	12.941
352.31	13.041
352.67	13.149
353.02	13.061
353.38	12.978
353.74	12.962
354.09	12.872
354.45	12.806
354.80	12.863
355.16	12.856
355.52	12.816
355.87	12.825
356.23	12.746
356.58	12.579
356.94	12.569
357.29	12.531
357.65	12.415
358.00	12.438
358.36	12.393
358.72	12.309
359.07	12.208
359.43	12.140
359.78	12.142
360.14	12.123
360.49	12.105
360.85	12.143
361.20	12.135
361.56	12.116
361.91	12.038
362.27	12.048
362.62	11.966
362.98	11.920
363.33	11.912
363.69	11.872
364.04	11.887
364.40	11.871
364.75	11.876
365.11	11.912
365.46	11.959
365.82	11.951
366.17	11.889
366.53	11.955
366.88	12.011
367.24	11.996
367.59	11.922
367.95	11.831
368.30	11.847
368.66	11.736
369.01	11.700
369.37	11.654
369.72	11.627
370.08	11.687
370.43	11.683
370.78	11.721
371.14	11.716
371.49	11.748
371.85	11.757
372.20	11.674
372.56	11.665
372.91	11.617
373.26	11.623
373.62	11.628
373.97	11.533
374.33	11.454
374.68	11.348
375.03	11.349
375.39	11.306
375.74	11.258
376.10	11.281
376.45	11.273
376.80	11.282
377.16	11.267
377.51	11.286
377.87	11.293
378.22	11.252
378.57	11.247
378.93	11.201
379.28	11.176
379.63	11.139
379.99	11.125
380.34	11.088
380.70	11.013
381.05	11.005
381.40	10.913
381.76	10.853
382.11	10.841
382.46	10.829
382.82	10.815
383.17	10.772
383.52	10.779
383.88	10.751
384.23	10.708
384.58	10.756
384.94	10.747
385.29	10.715
385.64	10.707
385.99	10.734
386.35	10.713
386.70	10.685
387.05	10.687
387.41	10.687
387.76	10.655
388.11	10.694
388.47	10.681
388.82	10.613
389.17	10.624
389.52	10.602
389.88	10.573
390.23	10.582
390.58	10.622
390.93	10.569
391.29	10.494
391.64	10.433
391.99	10.427
392.34	10.361
392.70	10.378
393.05	10.314
393.40	10.337
393.75	10.307
394.11	10.278
394.46	10.217
394.81	10.258
395.16	10.251
395.52	10.243
395.87	10.188
396.22	10.193
396.57	10.131
396.92	10.146
397.28	10.096
397.63	10.066
397.98	10.027
398.33	9.976
398.68	9.911
399.04	9.866
399.39	9.873
399.74	9.865
400.09	9.831
400.44	9.823
400.80	9.811
401.15	9.789
401.50	9.736
401.85	9.709
402.20	9.702
402.55	9.672
402.90	9.649
403.26	9.637
403.61	9.587
403.96	9.524
404.31	9.512
404.66	9.491
405.01	9.484
405.36	9.470
405.72	9.454
406.07	9.406
406.42	9.415
406.77	9.429
407.12	9.384
407.47	9.351
407.82	9.364
408.17	9.345
408.53	9.330
408.88	9.300
409.23	9.311
409.58	9.271
409.93	9.233
410.28	9.206
410.63	9.155
410.98	9.118
411.33	9.111
411.68	9.119
412.03	9.083
412.38	9.069
412.73	9.050
413.09	9.035
413.44	9.035
413.79	9.019
414.14	9.023
414.49	9.017
414.84	8.997
415.19	8.972
415.54	8.930
415.89	8.914
416.24	8.878
416.59	8.845
416.94	8.788
417.29	8.770
417.64	8.799
417.99	8.780
418.34	8.770
418.69	8.768
419.04	8.770
419.39	8.783
419.74	8.759
420.09	8.755
420.44	8.756
420.79	8.780
421.14	8.772
421.49	8.773
421.84	8.765
422.19	8.751
422.54	8.751
422.89	8.762
423.24	8.751
423.59	8.756
423.94	8.759
424.29	8.755
424.64	8.741
424.99	8.735
425.34	8.706
425.68	8.718
426.03	8.741
426.38	8.727
426.73	8.706
427.08	8.691
427.43	8.714
427.78	8.703
428.13	8.715
428.48	8.725
428.83	8.739
429.18	8.737
429.53	8.730
429.87	8.714
430.22	8.748
430.57	8.746
430.92	8.751
431.27	8.728
431.62	8.713
431.97	8.700
432.32	8.708
432.67	8.720
433.01	8.728
433.36	8.722
433.71	8.734
434.06	8.706
434.41	8.687
434.76	8.698
435.11	8.714
435.45	8.738
435.80	8.755
436.15	8.723
436.50	8.707
436.85	8.694
437.20	8.659
437.54	8.666
437.89	8.676
438.24	8.690
438.59	8.664
438.94	8.665
439.29	8.649
439.63	8.624
439.98	8.642
440.33	8.631
440.68	8.619
441.03	8.634
441.37	8.617
441.72	8.600
442.07	8.593
442.42	8.580
442.76	8.562
443.11	8.564
443.46	8.594
443.81	8.590
444.16	8.589
444.50	8.593
444.85	8.592
445.20	8.588
445.55	8.585
445.89	8.570
446.24	8.587
446.59	8.593
446.94	8.591
447.28	8.560
447.63	8.553
447.98	8.538
448.32	8.540
448.67	8.537
449.02	8.520
449.37	8.517
449.71	8.527
450.06	8.506
450.41	8.505
450.75	8.505
451.10	8.489
451.45	8.485
451.79	8.492
452.14	8.486
452.49	8.472
452.84	8.463
453.18	8.459
453.53	8.449
453.88	8.450
454.22	8.414
454.57	8.379
454.92	8.395
455.26	8.359
455.61	8.347
455.95	8.313
456.30	8.320
456.65	8.317
456.99	8.312
457.34	8.298
457.69	8.277
458.03	8.277
458.38	8.268
458.73	8.232
459.07	8.253
459.42	8.247
459.76	8.245
460.11	8.251
460.46	8.247
460.80	8.241
461.15	8.225
461.49	8.205
461.84	8.193
462.19	8.206
462.53	8.224
462.88	8.209
463.22	8.185
463.57	8.155
463.91	8.114
464.26	8.108
464.61	8.087
464.95	8.089
465.30	8.098
465.64	8.114
465.99	8.107
466.33	8.093
466.68	8.075
467.02	8.083
467.37	8.085
467.71	8.072
468.06	8.054
468.41	8.070
468.75	8.073
469.10	8.082
469.44	8.058
469.79	8.059
470.13	8.064
470.48	8.075
470.82	8.074
471.17	8.082
471.51	8.083
471.86	8.106
472.20	8.089
472.55	8.079
472.89	8.060
473.23	8.065
473.58	8.042
473.92	8.048
474.27	8.029
474.61	8.011
474.96	8.011
475.30	7.999
475.65	7.980
475.99	7.967
476.34	7.959
476.68	7.956
477.02	7.933
477.37	7.923
477.71	7.892
478.06	7.902
478.40	7.896
478.75	7.920
479.09	7.939
479.43	7.976
479.78	8.008
480.12	8.045
480.47	8.067
480.81	8.105
481.15	8.140
481.50	8.172
481.84	8.183
482.19	8.223
482.53	8.232
482.87	8.249
483.22	8.241
483.56	8.230
483.90	8.215
484.25	8.205
484.59	8.187
484.94	8.160
485.28	8.135
485.62	8.122
485.97	8.085
486.31	8.051
486.65	8.015
487.00	7.997
487.34	7.989
487.68	7.978
488.03	7.953
488.37	7.932
488.71	7.924
489.06	7.907
489.40	7.874
489.74	7.854
490.09	7.840
490.43	7.820
490.77	7.800
491.11	7.769
491.46	7.740
491.80	7.735
492.14	7.724
492.49	7.699
492.83	7.678
493.17	7.667
493.51	7.624
493.86	7.607
494.20	7.592
494.54	7.578
494.88	7.589
495.23	7.588
495.57	7.579
495.91	7.575
496.25	7.575
496.60	7.569
496.94	7.560
497.28	7.595
497.62	7.586
497.97	7.589
498.31	7.587
498.65	7.567
498.99	7.566
499.33	7.569
499.68	7.568
500.02	7.575
500.36	7.567
500.70	7.578
501.04	7.556
501.39	7.551
501.73	7.564
502.07	7.542
502.41	7.535
502.75	7.544
503.09	7.536
503.44	7.537
503.78	7.509
504.12	7.514
504.46	7.518
504.80	7.503
505.14	7.511
505.49	7.501
505.83	7.533
506.17	7.558
506.51	7.534
506.85	7.510
507.19	7.495
507.53	7.489
507.87	7.493
508.22	7.484
508.56	7.505
508.90	7.512
509.24	7.515
509.58	7.482
509.92	7.468
510.26	7.472
510.60	7.477
510.94	7.486
511.28	7.496
511.63	7.478
511.97	7.463
512.31	7.456
512.65	7.430
512.99	7.425
513.33	7.418
513.67	7.390
514.01	7.370
514.35	7.381
514.69	7.361
515.03	7.357
515.37	7.364
515.71	7.344
516.05	7.333
516.39	7.340
516.73	7.324
517.07	7.335
517.41	7.345
517.75	7.374
518.09	7.369
518.43	7.361
518.77	7.354
519.11	7.348
519.45	7.373
519.79	7.355
520.13	7.346
520.47	7.340
520.81	7.326
521.15	7.313
521.49	7.297
521.83	7.281
522.17	7.276
522.51	7.271
522.85	7.269
523.19	7.258
523.53	7.266
523.87	7.283
524.21	7.296
524.55	7.305
524.89	7.322
525.23	7.327
525.57	7.340
525.91	7.361
526.25	7.379
526.58	7.388
526.92	7.403
527.26	7.419
527.60	7.415
527.94	7.421
528.28	7.425
528.62	7.419
528.96	7.403
529.30	7.393
529.64	7.377
529.97	7.357
530.31	7.336
530.65	7.303
530.99	7.273
531.33	7.263
531.67	7.238
532.01	7.205
532.35	7.187
532.68	7.182
533.02	7.172
533.36	7.163
533.70	7.141
534.04	7.142
534.38	7.139
534.71	7.138
535.05	7.115
535.39	7.095
535.73	7.095
536.07	7.083
536.41	7.072
536.74	7.055
537.08	7.054
537.42	7.063
537.76	7.043
538.10	7.050
538.43	7.048
538.77	7.070
539.11	7.086
539.45	7.084
539.79	7.096
540.12	7.105
540.46	7.104
540.80	7.091
541.14	7.086
541.47	7.087
541.81	7.073
542.15	7.052
542.49	7.025
542.82	7.003
543.16	6.988
543.50	6.953
543.84	6.931
544.17	6.939
544.51	6.931
544.85	6.921
545.18	6.920
545.52	6.909
545.86	6.917
546.20	6.928
546.53	6.916
546.87	6.923
547.21	6.923
547.54	6.917
547.88	6.916
548.22	6.926
548.55	6.909
548.89	6.881
549.23	6.868
549.56	6.874
549.90	6.835
550.24	6.829
550.57	6.816
550.91	6.830
551.25	6.818
551.58	6.776
551.92	6.760
552.26	6.787
552.59	6.794
552.93	6.816
553.27	6.793
553.60	6.805
553.94	6.826
554.27	6.830
554.61	6.819
554.95	6.823
555.28	6.849
555.62	6.851
555.95	6.833
556.29	6.844
556.63	6.813
556.96	6.810
557.30	6.802
557.63	6.808
557.97	6.794
558.31	6.773
558.64	6.760
558.98	6.757
559.31	6.754
559.65	6.757
559.98	6.756
560.32	6.782
560.65	6.775
560.99	6.755
561.33	6.731
561.66	6.729
562.00	6.746
562.33	6.736
562.67	6.703
563.00	6.682
563.34	6.669
563.67	6.661
564.01	6.652
564.34	6.654
564.68	6.656
565.01	6.631
565.35	6.613
565.68	6.622
566.02	6.634
566.35	6.650
566.69	6.647
567.02	6.645
567.36	6.647
567.69	6.639
568.03	6.626
568.36	6.628
568.69	6.637
569.03	6.655
569.36	6.647
569.70	6.641
570.03	6.632
570.37	6.647
570.70	6.634
571.04	6.633
571.37	6.631
571.70	6.637
572.04	6.640
572.37	6.633
572.71	6.625
573.04	6.608
573.37	6.590
573.71	6.594
574.04	6.555
574.38	6.576
574.71	6.570
575.04	6.568
575.38	6.559
575.71	6.544
576.05	6.559
576.38	6.584
576.71	6.576
577.05	6.580
577.38	6.574
577.71	6.612
578.05	6.584
578.38	6.575
578.71	6.558
579.05	6.563
579.38	6.572
579.71	6.585
580.05	6.563
580.38	6.573
580.71	6.590
581.05	6.595
581.38	6.596
581.71	6.582
582.05	6.566
582.38	6.559
582.71	6.542
583.04	6.553
583.38	6.528
583.71	6.524
584.04	6.538
584.38	6.551
584.71	6.551
585.04	6.526
585.37	6.555
585.71	6.577
586.04	6.589
586.37	6.577
586.70	6.577
587.04	6.596
587.37	6.601
587.70	6.596
588.03	6.570
588.37	6.562
588.70	6.561
589.03	6.553
589.36	6.527
589.69	6.543
590.03	6.560
590.36	6.536
590.69	6.499
591.02	6.500
591.35	6.467
591.69	6.464
592.02	6.469
592.35	6.467
592.68	6.441
593.01	6.478
593.35	6.450
593.68	6.461
594.01	6.458
594.34	6.476
594.67	6.478
595.00	6.480
595.34	6.494
595.67	6.496
596.00	6.502
596.33	6.530
596.66	6.501
596.99	6.531
597.32	6.534
597.65	6.558
597.99	6.520
598.32	6.509
598.65	6.506
598.98	6.478
599.31	6.478
599.64	6.495
599.97	6.481
600.30	6.480
600.63	6.463
600.96	6.465
601.30	6.461
601.63	6.483
601.96	6.486
602.29	6.520
602.62	6.513
602.95	6.498
603.28	6.496
603.61	6.493
603.94	6.483
604.27	6.482
604.60	6.462
604.93	6.443
605.26	6.464
605.59	6.475
605.92	6.459
606.25	6.487
606.58	6.496
606.91	6.493
607.24	6.511
607.57	6.534
607.90	6.522
608.23	6.538
608.56	6.553
608.89	6.546
609.22	6.526
609.55	6.542
609.88	6.531
610.21	6.548
610.54	6.558
610.87	6.553
611.20	6.558
611.53	6.547
611.86	6.547
612.19	6.553
612.52	6.550
612.85	6.561
613.18	6.522
613.51	6.531
613.84	6.508
614.17	6.511
614.49	6.513
614.82	6.499
615.15	6.555
615.48	6.544
615.81	6.529
616.14	6.547
616.47	6.548
616.80	6.586
617.13	6.563
617.46	6.561
617.78	6.527
618.11	6.539
618.44	6.543
618.77	6.482
619.10	6.487
619.43	6.534
619.76	6.489
620.09	6.503
620.41	6.486
620.74	6.505
621.07	6.512
621.40	6.519
621.73	6.515
622.06	6.520
622.38	6.517
622.71	6.510
623.04	6.487
623.37	6.509
623.70	6.511
624.02	6.531
624.35	6.517
624.68	6.513
625.01	6.495
625.34	6.483
625.66	6.476
625.99	6.483
626.32	6.478
626.65	6.470
626.98	6.473
627.30	6.441
627.63	6.414
627.96	6.438
628.29	6.457
628.61	6.488
628.94	6.496
629.27	6.506
629.60	6.505
629.92	6.533
630.25	6.558
630.58	6.549
630.91	6.553
631.23	6.553
631.56	6.545
631.89	6.520
632.21	6.506
632.54	6.471
632.87	6.435
633.19	6.456
633.52	6.471
633.85	6.427
634.18	6.437
634.50	6.444
634.83	6.439
635.16	6.472
635.48	6.448
635.81	6.450
636.14	6.460
636.46	6.489
636.79	6.502
637.11	6.470
637.44	6.485
637.77	6.453
638.09	6.441
638.42	6.423
638.75	6.395
639.07	6.417
639.40	6.444
639.73	6.421
640.05	6.436
640.38	6.458
640.70	6.466
641.03	6.464
641.36	6.452
641.68	6.475
642.01	6.493
642.33	6.515
642.66	6.531
642.98	6.527
643.31	6.563
643.64	6.565
643.96	6.525
644.29	6.497
644.61	6.491
644.94	6.540
645.26	6.528
645.59	6.528
645.91	6.484
646.24	6.487
646.56	6.493
646.89	6.539
647.22	6.521
647.54	6.525
647.87	6.535
648.19	6.553
648.52	6.543
648.84	6.532
649.17	6.532
649.49	6.592
649.82	6.544
650.14	6.477
650.47	6.388
650.79	6.394
651.11	6.425
651.44	6.408
651.76	6.340
652.09	6.329
652.41	6.348
652.74	6.333
653.06	6.288
653.39	6.328
653.71	6.376
654.04	6.408
654.36	6.423
654.68	6.398
655.01	6.422
655.33	6.465
655.66	6.481
655.98	6.471
656.30	6.506
656.63	6.501
656.95	6.502
657.28	6.525
657.60	6.569
657.92	6.563
658.25	6.562
658.57	6.582
658.90	6.603
659.22	6.618
659.54	6.627
659.87	6.605
660.19	6.606
660.51	6.598
660.84	6.575
661.16	6.534
661.48	6.518
661.81	6.491
662.13	6.450
662.45	6.432
662.78	6.372
663.10	6.376
663.42	6.356
663.75	6.371
664.07	6.376
664.39	6.379
664.72	6.375
665.04	6.375
665.36	6.393
665.69	6.374
666.01	6.394
666.33	6.495
666.65	6.548
666.98	6.583
667.30	6.565
667.62	6.585
667.94	6.559
668.27	6.586
668.59	6.600
668.91	6.622
669.23	6.705
669.56	6.714
669.88	6.664
670.20	6.560
670.52	6.561
670.85	6.555
671.17	6.527
671.49	6.556
671.81	6.526
672.13	6.478
672.46	6.471
672.78	6.398
673.10	6.399
673.42	6.425
673.74	6.482
674.07	6.501
674.39	6.516
674.71	6.551
675.03	6.533
675.35	6.548
675.67	6.528
676.00	6.545
676.32	6.576
676.64	6.540
676.96	6.506
677.28	6.517
677.60	6.471
677.92	6.497
678.25	6.464
678.57	6.483
678.89	6.470
679.21	6.518
679.53	6.528
679.85	6.541
680.17	6.582
680.49	6.585
680.81	6.543
681.13	6.561
681.46	6.488
681.78	6.526
682.10	6.470
682.42	6.457
682.74	6.497
683.06	6.508
683.38	6.494
683.70	6.484
684.02	6.493
684.34	6.493
684.66	6.529
684.98	6.575
685.30	6.511
685.62	6.596
685.94	6.658
686.26	6.631
686.58	6.542
686.90	6.533
687.22	6.515
687.54	6.497
687.86	6.510
688.18	6.443
688.50	6.459
688.82	6.519
689.14	6.456
689.46	6.394
689.78	6.360
690.10	6.458
690.42	6.498
690.74	6.463
691.06	6.456
691.38	6.448
691.70	6.492
692.02	6.420
692.34	6.432
692.66	6.428
692.98	6.432
693.30	6.489
693.62	6.482
693.94	6.495
694.26	6.544
694.57	6.566
694.89	6.607
695.21	6.606
695.53	6.650
695.85	6.681
696.17	6.702
696.49	6.746
696.81	6.744
697.13	6.667
697.44	6.650
697.76	6.613
698.08	6.587
698.40	6.578
698.72	6.576
699.04	6.537
699.36	6.441
699.67	6.429
699.99	6.355
700.31	6.319
700.63	6.347
700.95	6.314
701.27	6.365
701.58	6.368
701.90	6.340
702.22	6.281
702.54	6.357
702.86	6.405
703.17	6.428
703.49	6.456
703.81	6.484
704.13	6.498
704.45	6.459
704.76	6.440
705.08	6.439
705.40	6.447
705.72	6.519
706.03	6.487
706.35	6.489
706.67	6.480
706.99	6.502
707.30	6.476
707.62	6.487
707.94	6.476
708.26	6.502
708.57	6.511
708.89	6.494
709.21	6.460
709.53	6.466
709.84	6.416
710.16	6.351
710.48	6.341
710.79	6.271
711.11	6.205
711.43	6.225
711.74	6.205
712.06	6.174
712.38	6.214
712.69	6.261
713.01	6.263
713.33	6.305
713.64	6.373
713.96	6.412
714.28	6.443
714.59	6.492
714.91	6.503
715.23	6.496
715.54	6.513
715.86	6.553
716.17	6.510
716.49	6.491
716.81	6.489
717.12	6.544
717.44	6.564
717.76	6.564
718.07	6.574
718.39	6.659
718.70	6.580
719.02	6.618
719.33	6.576
719.65	6.596
719.97	6.508
720.28	6.466
720.60	6.408
720.91	6.311
721.23	6.286
721.54	6.282
721.86	6.191
722.17	6.272
722.49	6.232
722.81	6.159
723.12	6.216
723.44	6.306
723.75	6.300
724.07	6.179
724.38	6.204
724.70	6.338
725.01	6.275
725.33	6.209
725.64	6.186
725.96	6.108
726.27	6.129
726.59	6.012
726.90	6.062
727.22	6.013
727.53	6.166
727.84	6.111
728.16	5.899
728.47	5.972
728.79	6.093
729.10	6.167
729.42	6.276
729.73	6.328
730.05	6.365
730.36	6.285
730.67	6.363
730.99	6.317
731.30	6.387
731.62	6.506
731.93	6.434
732.24	6.470
732.56	6.478
732.87	6.509
733.19	6.362
733.50	6.335
733.81	6.460
734.13	6.459
734.44	6.399
734.76	6.398
735.07	6.390
735.38	6.425
735.70	6.244
736.01	6.114
736.32	6.132
736.64	6.212
736.95	6.244
737.26	6.104
737.58	6.167
737.89	6.202
738.20	6.199
738.52	6.158
738.83	6.211
739.14	6.412
739.45	6.494
739.77	6.429
740.08	6.482
740.39	6.579
740.71	6.555
741.02	6.431
741.33	6.551
741.64	6.515
741.96	6.615
742.27	6.619
742.58	6.626
742.90	6.612
743.21	6.585
743.52	6.505
743.83	6.340
744.14	6.457
744.46	6.468
744.77	6.228
745.08	6.280
745.39	6.270
745.71	6.256
746.02	5.974
746.33	5.921
746.64	5.964
746.95	5.946
747.27	5.958
747.58	5.838
747.89	5.871
748.20	5.947
748.51	6.081
748.82	6.091
749.14	5.990
749.45	6.127
749.76	6.265
750.07	6.196
750.38	6.277
750.69	6.321
751.01	6.437
751.32	6.515
751.63	6.605
751.94	6.556
752.25	6.422
752.56	6.379
752.87	6.218
753.18	6.083
753.49	6.172
753.81	6.277
754.12	6.243
754.43	6.336
754.74	6.205
755.05	6.253
755.36	6.077
755.67	6.282
755.98	6.415
756.29	6.548
756.60	6.522
756.91	6.729
757.22	6.684
757.53	6.840
757.84	6.846
758.15	7.071
758.46	6.926
758.77	7.044
759.09	7.108
759.40	7.094
759.71	7.177
760.02	7.239
760.33	7.082
760.64	7.167
760.95	7.097
761.26	7.029
761.57	6.846
761.88	6.892
762.18	6.939
762.49	6.817
762.80	6.912
763.11	6.944
763.42	6.935
763.73	6.790
764.04	6.673
764.35	6.722
764.66	6.644
764.97	6.656
765.28	6.678
765.59	6.475
765.90	6.526
766.21	6.495
766.52	6.273
766.83	6.209
767.14	6.274
767.44	6.294
767.75	6.238
768.06	6.240
768.37	6.300
768.68	6.129
768.99	6.254
769.30	6.148
769.61	5.776
769.91	5.652
770.22	5.563
770.53	5.564
770.84	5.649
771.15	5.550
771.46	5.595
771.77	5.551
772.07	5.744
772.38	5.574
772.69	5.440
773.00	5.447
773.31	5.631
773.61	5.674
773.92	5.671
774.23	5.473
774.54	5.452
774.85	5.666
775.15	5.589
775.46	5.512
775.77	5.666
776.08	5.620
776.39	5.927
776.69	6.068
777.00	6.157
777.31	6.341
777.62	6.354
777.92	6.272
778.23	5.976
778.54	6.075
778.85	6.091
779.15	6.300
779.46	6.685
779.77	6.472
780.07	6.177
780.38	6.196
780.69	6.283
781.00	6.383
781.30	6.395
781.61	6.510
781.92	6.444
782.22	6.680
782.53	6.538
782.84	6.246
783.14	6.300
783.45	6.671
783.76	6.585
784.06	6.714
784.37	6.491
784.68	6.228
784.98	6.260
785.29	6.489
785.60	6.351
785.90	6.501
786.21	6.628
786.51	6.731
786.82	6.703
787.13	6.656
787.43	6.323
787.74	6.307
788.04	6.706
788.35	6.498
788.66	6.441
788.96	6.381
789.27	6.183
789.57	6.324
789.88	6.365
790.19	6.323
790.49	6.564
790.80	6.495
791.10	6.531
791.41	6.827
791.71	7.151
792.02	7.020
792.32	7.047
792.63	7.073
792.93	6.823
793.24	6.852
793.54	6.492
793.85	6.398
794.15	6.493
794.46	6.614
794.76	6.388
795.07	6.484
795.37	6.628
795.68	6.611
795.98	6.513
796.29	6.574
796.59	6.252
796.90	6.668
797.20	6.794
797.51	6.795
797.81	7.063
798.12	7.038
798.42	6.979
798.72	6.902
799.03	6.908
799.33	6.955
799.64	7.076
799.94	7.376
800.25	7.189
800.55	6.709
800.85	6.791
801.16	6.409
801.46	6.462
801.77	6.597
802.07	6.657
802.37	6.952
802.68	7.194
802.98	7.331
803.28	6.922
803.59	7.072
803.89	7.578
804.20	7.617
804.50	7.728
804.80	7.708
805.11	7.438
805.41	7.239
805.71	6.912
806.02	6.565
806.32	6.376
806.62	6.895
806.93	6.679
807.23	6.752
807.53	6.531
807.83	6.397
808.14	6.448
808.44	6.469
808.74	7.017
809.05	7.282
809.35	7.548
809.65	7.376
809.95	7.306
810.26	7.313
810.56	7.000
810.86	7.391
811.16	7.571
811.47	7.016
811.77	6.920
812.07	6.391
812.37	6.248
812.68	6.215
812.98	6.037
813.28	6.189
813.58	6.330
813.88	6.557
814.19	6.234
814.49	6.171
814.79	6.524
815.09	6.766
815.39	7.281
815.70	7.485
816.00	7.268
816.30	7.893
816.60	7.296
816.90	7.284
817.20	7.419
817.50	7.450
817.81	7.598
818.11	7.335
818.41	7.364
818.71	7.340
819.01	7.344
819.31	7.405
819.61	7.390
819.92	7.541
820.22	7.535
820.52	7.544
820.82	7.681
821.12	7.740
821.42	7.856
821.72	7.907
822.02	7.959
822.32	7.999
822.62	8.096
822.92	8.071
823.22	8.185
823.52	8.207
823.83	8.208
824.13	8.147
824.43	8.184
824.73	8.238
825.03	8.181
825.33	8.123
825.63	8.036
825.93	7.881
826.23	7.855
826.53	7.685
826.83	7.818
827.13	7.767
827.43	7.964
827.73	7.846
828.03	7.892
828.33	7.907
828.63	7.782
828.93	7.741
829.23	7.754
829.53	7.836
829.83	7.711
830.13	7.416
830.42	7.466
830.72	7.336
831.02	6.956
831.32	7.000
831.62	7.037
831.92	7.313
832.22	7.503
832.52	7.727
832.82	7.760
833.12	7.919
833.42	7.983
833.72	8.232
834.01	7.960
834.31	8.259
834.61	7.941
834.91	7.946
835.21	7.779
835.51	7.759
835.81	7.596
836.11	7.818
836.40	8.269
836.70	8.108
837.00	7.446
837.30	7.185
837.60	7.517
837.90	7.987
838.19	8.130
838.49	8.299
838.79	8.178
839.09	7.802
839.39	7.643
839.68	7.018
839.98	7.692
840.28	8.133
840.58	8.214
840.88	7.602
841.17	7.465
841.47	6.484
841.77	6.811
842.07	6.320
842.36	7.389
842.66	7.816
842.96	7.806
843.26	7.869
843.55	8.204
843.85	8.508
844.15	8.933
844.45	8.872
844.74	10.202
845.04	9.265
845.34	9.406
845.63	8.641
845.93	9.386
846.23	9.109
846.53	7.796
846.82	7.726
847.12	7.831
847.42	7.033
847.71	5.981
848.01	5.026
848.31	5.739
848.60	6.684
848.90	5.754
849.19	4.515
849.49	3.526
849.79	4.020
850.08	3.031
850.38	3.205
850.68	3.667
850.97	4.539
851.27	4.359
851.56	4.286
851.86	3.376
852.16	3.142
852.45	3.325
852.75	2.524
853.04	3.957
853.34	3.638
853.64	2.773
853.93	3.704
854.23	4.121
854.52	4.563
854.82	4.568
855.11	6.488
855.41	8.300
855.70	8.451
856.00	11.685
856.30	10.966
856.59	12.753
856.89	12.062
857.18	10.726
857.48	11.449
857.77	12.463
858.07	11.416
858.36	8.300
858.66	7.146
858.95	5.885
859.25	2.771
859.54	1.588
859.84	1.364
860.13	3.900
860.42	5.165
860.72	4.796
861.01	5.082
861.31	5.754
861.60	7.722
861.90	7.975
862.19	9.481
862.49	10.669
862.78	11.365
863.07	11.182
863.37	11.325
863.66	10.820
863.96	9.709
864.25	8.993
864.54	8.864
864.84	9.358
865.13	8.888
865.43	6.627
865.72	6.446
866.01	6.632
866.31	15.664
866.60	-0.319
866.89	-5.304
>>>>>End Spectral Data<<<<<
