OOIBase32 Version 2.0.0.6 Data File
++++++++++++++++++++++++++++++++++++
Date: 01-18-2012, 23:01:10
User: Valued Ocean Optics Customer
Spectrometer Serial Number: USB2E2917
Spectrometer Channel: Master
Integration Time (msec): 5
Spectra Averaged: 10
Boxcar Smoothing: 5
Correct for Electrical Dark: Enabled
Time Normalized: Disabled
Dual-beam Reference: Disabled
Reference Channel: Master
Temperature: Not acquired
Spectrometer Type: S2000
ADC Type: USB2000
Number of Pixels in File: 2048
Graph Title: 
>>>>>Begin Spectral Data<<<<<
180.30	0.000
180.67	0.000
181.03	-88.081
181.40	-18.471
181.77	37.793
182.14	-4.886
182.51	-4.865
182.88	477.540
183.25	10.246
183.62	161.597
183.99	-115.430
184.36	106.230
184.73	100.718
185.10	125.795
185.46	91.009
185.83	418.182
186.20	-52.484
186.57	63.853
186.94	275.736
187.31	-175.182
187.68	43.783
188.05	60.461
188.42	116.805
188.78	95.677
189.15	43.233
189.52	-98.458
189.89	-391.895
190.26	-113.830
190.63	-110.060
191.00	-73.039
191.37	-63.047
191.73	-35.806
192.10	-11.334
192.47	-22.260
192.84	-36.791
193.21	-7.829
193.58	32.799
193.94	44.426
194.31	33.225
194.68	27.591
195.05	23.995
195.42	20.015
195.79	4.114
196.15	-14.412
196.52	-11.635
196.89	1.804
197.26	-16.094
197.63	-40.291
198.00	-42.784
198.36	-54.563
198.73	-67.172
199.10	-62.871
199.47	-84.495
199.84	-78.748
200.20	-56.799
200.57	-59.881
200.94	-79.799
201.31	-72.908
201.68	-57.016
202.04	-49.377
202.41	-45.478
202.78	-30.009
203.15	-36.723
203.51	-41.144
203.88	-29.241
204.25	-15.246
204.62	-6.492
204.98	-1.592
205.35	-6.023
205.72	-9.245
206.09	-3.543
206.46	-9.357
206.82	2.795
207.19	27.918
207.56	26.895
207.92	32.911
208.29	36.297
208.66	25.462
209.03	11.825
209.39	22.537
209.76	9.443
210.13	11.510
210.50	-4.694
210.86	4.877
211.23	8.593
211.60	15.572
211.96	15.477
212.33	-5.112
212.70	13.713
213.07	39.964
213.43	28.905
213.80	45.061
214.17	31.231
214.53	29.108
214.90	28.591
215.27	28.452
215.63	23.037
216.00	14.540
216.37	21.913
216.74	18.302
217.10	8.054
217.47	1.235
217.84	-6.647
218.20	-2.348
218.57	9.676
218.94	1.679
219.30	-1.703
219.67	0.407
220.04	-0.220
220.40	-1.261
220.77	0.961
221.13	6.997
221.50	12.192
221.87	12.171
222.23	4.350
222.60	3.294
222.97	2.628
223.33	4.550
223.70	9.636
224.07	9.394
224.43	9.651
224.80	11.165
225.16	7.360
225.53	5.626
225.90	5.412
226.26	8.719
226.63	7.177
226.99	7.892
227.36	7.248
227.73	5.554
228.09	4.755
228.46	3.618
228.82	1.984
229.19	4.013
229.56	4.246
229.92	4.752
230.29	4.279
230.65	4.882
231.02	1.725
231.38	1.855
231.75	2.354
232.12	2.283
232.48	2.053
232.85	2.197
233.21	-0.063
233.58	0.231
233.94	-0.061
234.31	0.899
234.68	1.855
235.04	3.397
235.41	4.244
235.77	5.028
236.14	7.114
236.50	8.258
236.87	9.245
237.23	8.322
237.60	8.473
237.96	8.500
238.33	7.086
238.69	7.580
239.06	8.382
239.42	6.535
239.79	5.214
240.15	4.420
240.52	4.390
240.88	3.331
241.25	3.269
241.61	2.600
241.98	2.337
242.34	3.026
242.71	2.428
243.07	2.483
243.44	2.982
243.80	3.696
244.17	4.151
244.53	4.401
244.90	4.790
245.26	5.049
245.63	5.359
245.99	5.139
246.36	4.705
246.72	4.748
247.09	4.345
247.45	4.392
247.81	4.081
248.18	4.017
248.54	4.011
248.91	4.033
249.27	4.321
249.64	4.155
250.00	4.212
250.36	5.009
250.73	4.964
251.09	5.429
251.46	5.816
251.82	6.224
252.19	5.704
252.55	5.464
252.91	6.025
253.28	5.127
253.64	5.454
254.01	4.932
254.37	4.805
254.73	4.861
255.10	4.946
255.46	4.576
255.83	4.130
256.19	4.466
256.55	4.223
256.92	3.546
257.28	3.909
257.65	3.665
258.01	4.011
258.37	3.908
258.74	3.889
259.10	3.710
259.46	3.814
259.83	4.048
260.19	4.095
260.55	4.097
260.92	4.300
261.28	4.023
261.64	4.268
262.01	3.814
262.37	3.652
262.73	3.672
263.10	4.069
263.46	3.726
263.82	3.597
264.19	3.165
264.55	3.318
264.91	3.693
265.28	3.899
265.64	4.041
266.00	4.491
266.37	4.380
266.73	4.228
267.09	4.126
267.46	4.154
267.82	4.288
268.18	4.380
268.54	4.448
268.91	4.214
269.27	4.425
269.63	4.151
270.00	4.117
270.36	4.424
270.72	4.636
271.08	4.484
271.45	4.612
271.81	4.612
272.17	4.456
272.53	4.025
272.90	3.876
273.26	3.554
273.62	3.312
273.98	3.150
274.35	3.183
274.71	2.729
275.07	2.725
275.43	2.810
275.80	2.772
276.16	3.274
276.52	3.813
276.88	4.089
277.25	4.239
277.61	4.689
277.97	4.915
278.33	4.879
278.69	4.898
279.06	4.744
279.42	4.609
279.78	4.343
280.14	4.042
280.50	3.909
280.87	4.090
281.23	4.332
281.59	4.204
281.95	4.030
282.31	3.932
282.68	3.963
283.04	4.222
283.40	4.254
283.76	4.235
284.12	4.324
284.48	4.276
284.85	4.287
285.21	4.035
285.57	3.945
285.93	3.954
286.29	3.957
286.65	4.147
287.02	3.978
287.38	4.011
287.74	4.151
288.10	4.070
288.46	4.198
288.82	3.833
289.18	3.822
289.54	4.018
289.91	3.946
290.27	3.946
290.63	4.033
290.99	3.956
291.35	4.091
291.71	4.075
292.07	4.142
292.43	3.956
292.79	3.948
293.16	3.842
293.52	3.720
293.88	3.862
294.24	3.782
294.60	3.758
294.96	3.863
295.32	3.734
295.68	3.839
296.04	3.985
296.40	4.152
296.76	4.307
297.12	4.510
297.49	4.569
297.85	4.639
298.21	4.672
298.57	4.601
298.93	4.634
299.29	4.545
299.65	4.193
300.01	4.141
300.37	3.889
300.73	3.911
301.09	3.831
301.45	3.952
301.81	4.015
302.17	4.044
302.53	4.153
302.89	4.322
303.25	4.522
303.61	4.802
303.97	4.755
304.33	4.924
304.69	4.943
305.05	4.918
305.41	4.798
305.77	4.799
306.13	4.651
306.49	4.536
306.85	4.265
307.21	4.040
307.57	3.938
307.93	3.799
308.29	3.824
308.65	3.766
309.01	3.920
309.37	3.856
309.73	3.889
310.09	4.062
310.45	4.063
310.81	3.958
311.17	4.010
311.53	4.108
311.89	4.201
312.25	4.300
312.61	4.541
312.96	4.415
313.32	4.505
313.68	4.489
314.04	4.432
314.40	4.451
314.76	4.730
315.12	4.556
315.48	4.414
315.84	4.374
316.20	4.228
316.56	4.080
316.92	4.229
317.27	4.334
317.63	4.323
317.99	4.376
318.35	4.321
318.71	4.316
319.07	4.587
319.43	4.602
319.79	4.606
320.15	4.751
320.50	4.602
320.86	4.384
321.22	4.240
321.58	4.238
321.94	4.211
322.30	4.331
322.66	4.254
323.01	4.249
323.37	4.296
323.73	4.390
324.09	4.367
324.45	4.401
324.81	4.578
325.17	4.602
325.52	4.585
325.88	4.403
326.24	4.355
326.60	4.445
326.96	4.501
327.31	4.633
327.67	4.541
328.03	4.578
328.39	4.517
328.75	4.567
329.11	4.599
329.46	4.492
329.82	4.693
330.18	4.637
330.54	4.582
330.90	4.473
331.25	4.300
331.61	4.396
331.97	4.338
332.33	4.449
332.68	4.391
333.04	4.408
333.40	4.445
333.76	4.569
334.11	4.632
334.47	4.644
334.83	4.576
335.19	4.699
335.54	4.691
335.90	4.642
336.26	4.610
336.62	4.573
336.97	4.649
337.33	4.681
337.69	4.474
338.05	4.613
338.40	4.548
338.76	4.569
339.12	4.525
339.48	4.420
339.83	4.525
340.19	4.573
340.55	4.534
340.90	4.410
341.26	4.384
341.62	4.440
341.97	4.352
342.33	4.287
342.69	4.350
343.04	4.303
343.40	4.385
343.76	4.292
344.12	4.298
344.47	4.409
344.83	4.381
345.19	4.399
345.54	4.397
345.90	4.337
346.26	4.336
346.61	4.287
346.97	4.339
347.32	4.214
347.68	4.196
348.04	4.152
348.39	4.071
348.75	4.139
349.11	4.152
349.46	4.100
349.82	4.057
350.18	4.215
350.53	4.313
350.89	4.326
351.24	4.427
351.60	4.418
351.96	4.381
352.31	4.438
352.67	4.480
353.02	4.410
353.38	4.417
353.74	4.388
354.09	4.331
354.45	4.293
354.80	4.256
355.16	4.193
355.52	4.213
355.87	4.270
356.23	4.192
356.58	4.071
356.94	4.135
357.29	4.125
357.65	4.147
358.00	4.197
358.36	4.139
358.72	4.127
359.07	4.161
359.43	4.177
359.78	4.149
360.14	4.158
360.49	4.234
360.85	4.204
361.20	4.185
361.56	4.126
361.91	4.034
362.27	4.033
362.62	4.010
362.98	3.974
363.33	3.959
363.69	3.964
364.04	3.955
364.40	3.910
364.75	3.936
365.11	3.977
365.46	4.112
365.82	4.119
366.17	4.115
366.53	4.189
366.88	4.230
367.24	4.183
367.59	4.169
367.95	4.204
368.30	4.228
368.66	4.196
369.01	4.202
369.37	4.100
369.72	4.143
370.08	4.178
370.43	4.162
370.78	4.161
371.14	4.200
371.49	4.193
371.85	4.195
372.20	4.172
372.56	4.166
372.91	4.129
373.26	4.217
373.62	4.226
373.97	4.185
374.33	4.138
374.68	4.139
375.03	4.124
375.39	4.170
375.74	4.147
376.10	4.154
376.45	4.143
376.80	4.167
377.16	4.185
377.51	4.175
377.87	4.217
378.22	4.279
378.57	4.248
378.93	4.280
379.28	4.286
379.63	4.318
379.99	4.340
380.34	4.385
380.70	4.382
381.05	4.363
381.40	4.367
381.76	4.390
382.11	4.389
382.46	4.459
382.82	4.437
383.17	4.431
383.52	4.458
383.88	4.459
384.23	4.466
384.58	4.531
384.94	4.554
385.29	4.569
385.64	4.563
385.99	4.538
386.35	4.532
386.70	4.582
387.05	4.645
387.41	4.673
387.76	4.759
388.11	4.801
388.47	4.824
388.82	4.872
389.17	4.946
389.52	4.958
389.88	5.008
390.23	5.113
390.58	5.194
390.93	5.173
391.29	5.188
391.64	5.139
391.99	5.184
392.34	5.207
392.70	5.220
393.05	5.215
393.40	5.330
393.75	5.386
394.11	5.386
394.46	5.393
394.81	5.437
395.16	5.480
395.52	5.570
395.87	5.565
396.22	5.595
396.57	5.633
396.92	5.643
397.28	5.619
397.63	5.671
397.98	5.673
398.33	5.701
398.68	5.757
399.04	5.770
399.39	5.820
399.74	5.890
400.09	5.948
400.44	5.948
400.80	5.999
401.15	6.029
401.50	6.051
401.85	6.078
402.20	6.108
402.55	6.111
402.90	6.138
403.26	6.141
403.61	6.166
403.96	6.177
404.31	6.236
404.66	6.300
405.01	6.319
405.36	6.359
405.72	6.437
406.07	6.496
406.42	6.600
406.77	6.689
407.12	6.741
407.47	6.779
407.82	6.794
408.17	6.803
408.53	6.838
408.88	6.909
409.23	6.940
409.58	6.944
409.93	6.984
410.28	6.996
410.63	7.033
410.98	7.070
411.33	7.115
411.68	7.199
412.03	7.277
412.38	7.315
412.73	7.360
413.09	7.416
413.44	7.496
413.79	7.525
414.14	7.555
414.49	7.564
414.84	7.619
415.19	7.631
415.54	7.675
415.89	7.677
416.24	7.709
416.59	7.717
416.94	7.710
417.29	7.702
417.64	7.725
417.99	7.756
418.34	7.805
418.69	7.810
419.04	7.844
419.39	7.870
419.74	7.908
420.09	7.927
420.44	7.955
420.79	7.997
421.14	8.021
421.49	8.040
421.84	8.052
422.19	8.062
422.54	8.090
422.89	8.125
423.24	8.133
423.59	8.171
423.94	8.188
424.29	8.213
424.64	8.242
424.99	8.276
425.34	8.336
425.68	8.392
426.03	8.440
426.38	8.468
426.73	8.481
427.08	8.524
427.43	8.580
427.78	8.611
428.13	8.663
428.48	8.733
428.83	8.790
429.18	8.790
429.53	8.798
429.87	8.828
430.22	8.873
430.57	8.943
430.92	8.980
431.27	8.988
431.62	9.014
431.97	9.046
432.32	9.055
432.67	9.081
433.01	9.132
433.36	9.182
433.71	9.238
434.06	9.262
434.41	9.260
434.76	9.290
435.11	9.330
435.45	9.386
435.80	9.427
436.15	9.451
436.50	9.477
436.85	9.498
437.20	9.499
437.54	9.476
437.89	9.503
438.24	9.528
438.59	9.544
438.94	9.553
439.29	9.555
439.63	9.546
439.98	9.565
440.33	9.557
440.68	9.548
441.03	9.561
441.37	9.569
441.72	9.536
442.07	9.516
442.42	9.485
442.76	9.480
443.11	9.464
443.46	9.478
443.81	9.459
444.16	9.466
444.50	9.468
444.85	9.459
445.20	9.463
445.55	9.480
445.89	9.495
446.24	9.518
446.59	9.508
446.94	9.513
447.28	9.485
447.63	9.489
447.98	9.480
448.32	9.472
448.67	9.474
449.02	9.471
449.37	9.465
449.71	9.485
450.06	9.477
450.41	9.497
450.75	9.516
451.10	9.522
451.45	9.516
451.79	9.515
452.14	9.511
452.49	9.527
452.84	9.538
453.18	9.556
453.53	9.549
453.88	9.572
454.22	9.566
454.57	9.558
454.92	9.587
455.26	9.621
455.61	9.655
455.95	9.672
456.30	9.697
456.65	9.730
456.99	9.771
457.34	9.789
457.69	9.790
458.03	9.835
458.38	9.871
458.73	9.908
459.07	9.952
459.42	9.977
459.76	10.022
460.11	10.060
460.46	10.088
460.80	10.121
461.15	10.163
461.49	10.239
461.84	10.304
462.19	10.390
462.53	10.450
462.88	10.497
463.22	10.568
463.57	10.634
463.91	10.680
464.26	10.736
464.61	10.792
464.95	10.865
465.30	10.909
465.64	10.956
465.99	10.985
466.33	11.046
466.68	11.099
467.02	11.148
467.37	11.190
467.71	11.222
468.06	11.276
468.41	11.313
468.75	11.357
469.10	11.413
469.44	11.434
469.79	11.460
470.13	11.496
470.48	11.505
470.82	11.549
471.17	11.583
471.51	11.609
471.86	11.607
472.20	11.607
472.55	11.605
472.89	11.622
473.23	11.633
473.58	11.642
473.92	11.623
474.27	11.624
474.61	11.573
474.96	11.568
475.30	11.552
475.65	11.531
475.99	11.538
476.34	11.524
476.68	11.481
477.02	11.463
477.37	11.428
477.71	11.399
478.06	11.381
478.40	11.395
478.75	11.405
479.09	11.423
479.43	11.467
479.78	11.512
480.12	11.571
480.47	11.616
480.81	11.652
481.15	11.691
481.50	11.738
481.84	11.794
482.19	11.851
482.53	11.888
482.87	11.924
483.22	11.945
483.56	11.953
483.90	11.952
484.25	11.954
484.59	11.956
484.94	11.955
485.28	11.958
485.62	11.939
485.97	11.917
486.31	11.915
486.65	11.919
487.00	11.947
487.34	11.981
487.68	12.022
488.03	12.069
488.37	12.119
488.71	12.193
489.06	12.255
489.40	12.326
489.74	12.387
490.09	12.441
490.43	12.522
490.77	12.571
491.11	12.627
491.46	12.703
491.80	12.782
492.14	12.875
492.49	12.957
492.83	13.050
493.17	13.155
493.51	13.297
493.86	13.457
494.20	13.596
494.54	13.780
494.88	13.942
495.23	14.096
495.57	14.261
495.91	14.400
496.25	14.549
496.60	14.715
496.94	14.908
497.28	15.091
497.62	15.257
497.97	15.452
498.31	15.635
498.65	15.832
498.99	16.046
499.33	16.258
499.68	16.481
500.02	16.747
500.36	16.968
500.70	17.201
501.04	17.435
501.39	17.693
501.73	17.928
502.07	18.161
502.41	18.404
502.75	18.611
503.09	18.852
503.44	19.136
503.78	19.368
504.12	19.632
504.46	19.883
504.80	20.114
505.14	20.354
505.49	20.629
505.83	20.872
506.17	21.132
506.51	21.417
506.85	21.643
507.19	21.864
507.53	22.137
507.87	22.396
508.22	22.620
508.56	22.876
508.90	23.127
509.24	23.339
509.58	23.606
509.92	23.859
510.26	24.075
510.60	24.329
510.94	24.589
511.28	24.788
511.63	24.970
511.97	25.171
512.31	25.384
512.65	25.618
512.99	25.845
513.33	26.053
513.67	26.253
514.01	26.489
514.35	26.718
514.69	26.895
515.03	27.109
515.37	27.350
515.71	27.573
516.05	27.766
516.39	27.949
516.73	28.117
517.07	28.280
517.41	28.451
517.75	28.589
518.09	28.737
518.43	28.897
518.77	29.015
519.11	29.153
519.45	29.291
519.79	29.446
520.13	29.578
520.47	29.729
520.81	29.885
521.15	30.026
521.49	30.243
521.83	30.418
522.17	30.575
522.51	30.774
522.85	30.925
523.19	31.120
523.53	31.341
523.87	31.627
524.21	31.889
524.55	32.139
524.89	32.410
525.23	32.606
525.57	32.835
525.91	33.042
526.25	33.204
526.58	33.373
526.92	33.525
527.26	33.649
527.60	33.722
527.94	33.776
528.28	33.815
528.62	33.818
528.96	33.834
529.30	33.830
529.64	33.830
529.97	33.850
530.31	33.836
530.65	33.821
530.99	33.841
531.33	33.871
531.67	33.931
532.01	33.988
532.35	34.050
532.68	34.107
533.02	34.135
533.36	34.146
533.70	34.147
534.04	34.192
534.38	34.240
534.71	34.260
535.05	34.288
535.39	34.308
535.73	34.334
536.07	34.396
536.41	34.472
536.74	34.568
537.08	34.707
537.42	34.846
537.76	34.958
538.10	35.076
538.43	35.186
538.77	35.277
539.11	35.371
539.45	35.507
539.79	35.602
540.12	35.668
540.46	35.717
540.80	35.738
541.14	35.765
541.47	35.778
541.81	35.771
542.15	35.778
542.49	35.785
542.82	35.794
543.16	35.769
543.50	35.747
543.84	35.719
544.17	35.723
544.51	35.742
544.85	35.750
545.18	35.793
545.52	35.834
545.86	35.836
546.20	35.888
546.53	35.922
546.87	35.912
547.21	35.950
547.54	36.003
547.88	36.058
548.22	36.094
548.55	36.132
548.89	36.163
549.23	36.191
549.56	36.256
549.90	36.288
550.24	36.332
550.57	36.396
550.91	36.417
551.25	36.447
551.58	36.467
551.92	36.539
552.26	36.604
552.59	36.622
552.93	36.656
553.27	36.664
553.60	36.657
553.94	36.712
554.27	36.767
554.61	36.819
554.95	36.850
555.28	36.883
555.62	36.869
555.95	36.909
556.29	36.965
556.63	37.011
556.96	37.065
557.30	37.119
557.63	37.156
557.97	37.166
558.31	37.170
558.64	37.168
558.98	37.226
559.31	37.269
559.65	37.276
559.98	37.321
560.32	37.324
560.65	37.347
560.99	37.365
561.33	37.352
561.66	37.396
562.00	37.432
562.33	37.465
562.67	37.465
563.00	37.487
563.34	37.530
563.67	37.538
564.01	37.605
564.34	37.657
564.68	37.687
565.01	37.718
565.35	37.734
565.68	37.779
566.02	37.830
566.35	37.845
566.69	37.859
567.02	37.846
567.36	37.871
567.69	37.914
568.03	37.905
568.36	37.924
568.69	37.944
569.03	37.973
569.36	37.977
569.70	38.001
570.03	38.022
570.37	38.064
570.70	38.097
571.04	38.109
571.37	38.093
571.70	38.137
572.04	38.151
572.37	38.160
572.71	38.154
573.04	38.149
573.37	38.173
573.71	38.219
574.04	38.198
574.38	38.207
574.71	38.196
575.04	38.253
575.38	38.228
575.71	38.235
576.05	38.273
576.38	38.305
576.71	38.312
577.05	38.331
577.38	38.309
577.71	38.370
578.05	38.381
578.38	38.418
578.71	38.355
579.05	38.372
579.38	38.419
579.71	38.394
580.05	38.409
580.38	38.433
580.71	38.456
581.05	38.457
581.38	38.428
581.71	38.443
582.05	38.444
582.38	38.483
582.71	38.494
583.04	38.469
583.38	38.483
583.71	38.463
584.04	38.501
584.38	38.514
584.71	38.523
585.04	38.532
585.37	38.558
585.71	38.597
586.04	38.631
586.37	38.593
586.70	38.593
587.04	38.606
587.37	38.639
587.70	38.643
588.03	38.577
588.37	38.612
588.70	38.629
589.03	38.624
589.36	38.552
589.69	38.484
590.03	38.521
590.36	38.488
590.69	38.494
591.02	38.494
591.35	38.477
591.69	38.534
592.02	38.493
592.35	38.529
592.68	38.521
593.01	38.581
593.35	38.611
593.68	38.614
594.01	38.667
594.34	38.682
594.67	38.663
595.00	38.689
595.34	38.674
595.67	38.708
596.00	38.681
596.33	38.712
596.66	38.712
596.99	38.712
597.32	38.716
597.65	38.705
597.99	38.692
598.32	38.697
598.65	38.624
598.98	38.585
599.31	38.550
599.64	38.485
599.97	38.420
600.30	38.422
600.63	38.404
600.96	38.400
601.30	38.399
601.63	38.396
601.96	38.379
602.29	38.433
602.62	38.437
602.95	38.444
603.28	38.481
603.61	38.471
603.94	38.447
604.27	38.455
604.60	38.420
604.93	38.396
605.26	38.362
605.59	38.306
605.92	38.273
606.25	38.301
606.58	38.256
606.91	38.222
607.24	38.223
607.57	38.181
607.90	38.136
608.23	38.230
608.56	38.201
608.89	38.168
609.22	38.187
609.55	38.157
609.88	38.142
610.21	38.157
610.54	38.162
610.87	38.114
611.20	38.109
611.53	38.083
611.86	37.969
612.19	38.002
612.52	38.035
612.85	38.012
613.18	38.007
613.51	37.965
613.84	37.937
614.17	37.932
614.49	37.906
614.82	37.948
615.15	37.984
615.48	37.939
615.81	37.872
616.14	37.853
616.47	37.832
616.80	37.810
617.13	37.793
617.46	37.757
617.78	37.707
618.11	37.744
618.44	37.649
618.77	37.600
619.10	37.581
619.43	37.572
619.76	37.547
620.09	37.522
620.41	37.453
620.74	37.376
621.07	37.333
621.40	37.295
621.73	37.227
622.06	37.248
622.38	37.223
622.71	37.195
623.04	37.207
623.37	37.143
623.70	37.162
624.02	37.133
624.35	37.105
624.68	37.102
625.01	37.061
625.34	37.048
625.66	36.999
625.99	36.957
626.32	36.900
626.65	36.851
626.98	36.806
627.30	36.763
627.63	36.757
627.96	36.758
628.29	36.770
628.61	36.740
628.94	36.719
629.27	36.697
629.60	36.735
629.92	36.760
630.25	36.723
630.58	36.705
630.91	36.619
631.23	36.573
631.56	36.536
631.89	36.419
632.21	36.381
632.54	36.346
632.87	36.283
633.19	36.227
633.52	36.206
633.85	36.152
634.18	36.095
634.50	36.112
634.83	36.113
635.16	36.060
635.48	36.033
635.81	36.054
636.14	36.032
636.46	36.095
636.79	36.020
637.11	35.955
637.44	35.992
637.77	35.992
638.09	35.956
638.42	35.862
638.75	35.839
639.07	35.817
639.40	35.738
639.73	35.736
640.05	35.668
640.38	35.616
640.70	35.575
641.03	35.526
641.36	35.479
641.68	35.443
642.01	35.460
642.33	35.476
642.66	35.444
642.98	35.469
643.31	35.400
643.64	35.298
643.96	35.275
644.29	35.204
644.61	35.098
644.94	35.095
645.26	35.088
645.59	35.026
645.91	34.893
646.24	34.863
646.56	34.745
646.89	34.687
647.22	34.660
647.54	34.591
647.87	34.515
648.19	34.483
648.52	34.465
648.84	34.351
649.17	34.305
649.49	34.316
649.82	34.212
650.14	34.175
650.47	34.075
650.79	34.055
651.11	34.055
651.44	34.065
651.76	33.976
652.09	33.879
652.41	33.880
652.74	33.811
653.06	33.762
653.39	33.765
653.71	33.763
654.04	33.767
654.36	33.689
654.68	33.687
655.01	33.640
655.33	33.625
655.66	33.565
655.98	33.515
656.30	33.530
656.63	33.469
656.95	33.428
657.28	33.413
657.60	33.361
657.92	33.318
658.25	33.214
658.57	33.164
658.90	33.177
659.22	33.193
659.54	33.149
659.87	33.114
660.19	33.132
660.51	33.093
660.84	32.960
661.16	32.947
661.48	32.934
661.81	32.905
662.13	32.914
662.45	32.807
662.78	32.658
663.10	32.602
663.42	32.487
663.75	32.401
664.07	32.343
664.39	32.343
664.72	32.276
665.04	32.214
665.36	32.173
665.69	32.108
666.01	32.085
666.33	32.148
666.65	32.117
666.98	32.055
667.30	32.005
667.62	31.986
667.94	31.961
668.27	31.936
668.59	31.835
668.91	31.780
669.23	31.711
669.56	31.658
669.88	31.565
670.20	31.551
670.52	31.504
670.85	31.450
671.17	31.425
671.49	31.346
671.81	31.305
672.13	31.292
672.46	31.283
672.78	31.273
673.10	31.293
673.42	31.255
673.74	31.213
674.07	31.209
674.39	31.207
674.71	31.133
675.03	31.114
675.35	31.039
675.67	31.066
676.00	31.030
676.32	30.932
676.64	30.811
676.96	30.803
677.28	30.746
677.60	30.748
677.92	30.668
678.25	30.683
678.57	30.676
678.89	30.640
679.21	30.573
679.53	30.492
679.85	30.497
680.17	30.462
680.49	30.373
680.81	30.230
681.13	30.155
681.46	30.173
681.78	30.111
682.10	30.075
682.42	30.014
682.74	29.970
683.06	29.988
683.38	29.987
683.70	29.999
684.02	29.994
684.34	30.021
684.66	30.027
684.98	29.993
685.30	29.921
685.62	29.820
685.94	29.818
686.26	29.784
686.58	29.689
686.90	29.597
687.22	29.529
687.54	29.491
687.86	29.511
688.18	29.428
688.50	29.360
688.82	29.342
689.14	29.282
689.46	29.181
689.78	29.143
690.10	29.193
690.42	29.210
690.74	29.130
691.06	29.027
691.38	28.932
691.70	28.916
692.02	28.853
692.34	28.793
692.66	28.808
692.98	28.844
693.30	28.883
693.62	28.796
693.94	28.723
694.26	28.747
694.57	28.754
694.89	28.812
695.21	28.745
695.53	28.705
695.85	28.736
696.17	28.694
696.49	28.684
696.81	28.613
697.13	28.539
697.44	28.515
697.76	28.498
698.08	28.490
698.40	28.369
698.72	28.390
699.04	28.355
699.36	28.241
699.67	28.261
699.99	28.202
700.31	28.127
700.63	28.083
700.95	27.984
701.27	27.931
701.58	27.809
701.90	27.760
702.22	27.650
702.54	27.622
702.86	27.641
703.17	27.573
703.49	27.495
703.81	27.536
704.13	27.500
704.45	27.555
704.76	27.416
705.08	27.430
705.40	27.405
705.72	27.431
706.03	27.487
706.35	27.442
706.67	27.302
706.99	27.365
707.30	27.323
707.62	27.351
707.94	27.252
708.26	27.294
708.57	27.266
708.89	27.263
709.21	27.142
709.53	26.953
709.84	26.882
710.16	26.905
710.48	26.768
710.79	26.604
711.11	26.535
711.43	26.520
711.74	26.507
712.06	26.462
712.38	26.453
712.69	26.495
713.01	26.554
713.33	26.528
713.64	26.580
713.96	26.656
714.28	26.653
714.59	26.551
714.91	26.518
715.23	26.600
715.54	26.605
715.86	26.546
716.17	26.476
716.49	26.460
716.81	26.451
717.12	26.354
717.44	26.277
717.76	26.284
718.07	26.370
718.39	26.396
718.70	26.262
719.02	26.089
719.33	26.030
719.65	25.995
719.97	25.819
720.28	25.736
720.60	25.698
720.91	25.650
721.23	25.630
721.54	25.590
721.86	25.528
722.17	25.447
722.49	25.717
722.81	25.715
723.12	25.728
723.44	25.856
723.75	25.895
724.07	25.844
724.38	25.774
724.70	25.766
725.01	25.750
725.33	25.581
725.64	25.580
725.96	25.412
726.27	25.345
726.59	25.329
726.90	25.242
727.22	25.143
727.53	25.146
727.84	25.030
728.16	24.924
728.47	24.875
728.79	24.905
729.10	24.857
729.42	24.951
729.73	24.953
730.05	24.893
730.36	24.961
730.67	24.901
730.99	24.857
731.30	24.856
731.62	24.851
731.93	24.796
732.24	24.854
732.56	24.803
732.87	24.718
733.19	24.567
733.50	24.422
733.81	24.221
734.13	24.271
734.44	24.270
734.76	24.412
735.07	24.316
735.38	24.397
735.70	24.332
736.01	24.242
736.32	24.208
736.64	24.336
736.95	24.448
737.26	24.362
737.58	24.274
737.89	24.181
738.20	24.073
738.52	24.099
738.83	24.039
739.14	23.988
739.45	24.069
739.77	23.942
740.08	23.820
740.39	23.803
740.71	23.855
741.02	23.861
741.33	23.919
741.64	23.870
741.96	23.978
742.27	23.897
742.58	23.842
742.90	23.767
743.21	23.708
743.52	23.697
743.83	23.782
744.14	24.009
744.46	24.010
744.77	23.939
745.08	23.918
745.39	23.817
745.71	23.709
746.02	23.732
746.33	23.742
746.64	23.733
746.95	23.693
747.27	23.401
747.58	23.211
747.89	23.110
748.20	23.117
748.51	23.265
748.82	23.197
749.14	23.444
749.45	23.452
749.76	23.603
750.07	23.587
750.38	23.724
750.69	23.870
751.01	23.942
751.32	23.935
751.63	23.798
751.94	23.631
752.25	23.626
752.56	23.417
752.87	23.426
753.18	23.215
753.49	23.228
753.81	23.174
754.12	23.109
754.43	23.031
754.74	23.004
755.05	23.021
755.36	22.912
755.67	22.919
755.98	22.783
756.29	22.790
756.60	22.907
756.91	22.920
757.22	22.813
757.53	22.686
757.84	22.778
758.15	22.998
758.46	23.002
758.77	23.192
759.09	23.298
759.40	23.321
759.71	23.153
760.02	23.037
760.33	23.166
760.64	23.291
760.95	23.347
761.26	23.234
761.57	23.099
761.88	23.051
762.18	22.978
762.49	22.919
762.80	22.973
763.11	23.133
763.42	23.146
763.73	23.034
764.04	22.931
764.35	22.937
764.66	22.873
764.97	22.738
765.28	22.766
765.59	22.546
765.90	22.526
766.21	22.496
766.52	22.227
766.83	22.164
767.14	22.082
767.44	22.022
767.75	22.035
768.06	21.984
768.37	22.039
768.68	21.812
768.99	21.927
769.30	21.726
769.61	21.587
769.91	21.762
770.22	21.474
770.53	21.330
770.84	21.383
771.15	21.208
771.46	21.245
771.77	21.241
772.07	21.640
772.38	21.619
772.69	21.697
773.00	21.696
773.31	21.387
773.61	21.608
773.92	21.813
774.23	21.689
774.54	21.743
774.85	21.838
775.15	21.818
775.46	21.533
775.77	21.339
776.08	21.223
776.39	21.177
776.69	21.175
777.00	21.277
777.31	21.039
777.62	20.958
777.92	20.649
778.23	20.282
778.54	20.393
778.85	20.387
779.15	20.680
779.46	20.963
779.77	20.820
780.07	20.894
780.38	20.846
780.69	21.257
781.00	21.423
781.30	21.466
781.61	21.694
781.92	21.632
782.22	21.759
782.53	21.470
782.84	21.101
783.14	21.253
783.45	21.479
783.76	21.237
784.06	20.915
784.37	20.811
784.68	20.769
784.98	20.921
785.29	21.003
785.60	20.971
785.90	21.297
786.21	21.383
786.51	21.194
786.82	20.974
787.13	21.012
787.43	20.942
787.74	21.017
788.04	21.270
788.35	20.834
788.66	20.675
788.96	20.674
789.27	20.554
789.57	20.710
789.88	20.962
790.19	21.251
790.49	21.600
790.80	21.544
791.10	21.132
791.41	21.250
791.71	21.533
792.02	21.352
792.32	21.032
792.63	20.942
792.93	20.825
793.24	20.838
793.54	20.364
793.85	20.115
794.15	20.196
794.46	20.470
794.76	20.095
795.07	20.008
795.37	20.111
795.68	20.244
795.98	20.170
796.29	20.041
796.59	19.733
796.90	20.011
797.20	20.149
797.51	19.840
797.81	19.931
798.12	20.213
798.42	20.534
798.72	20.570
799.03	20.827
799.33	20.800
799.64	21.153
799.94	21.450
800.25	21.429
800.55	21.195
800.85	21.309
801.16	21.184
801.46	20.868
801.77	20.707
802.07	20.792
802.37	20.671
802.68	20.997
802.98	20.725
803.28	20.306
803.59	20.251
803.89	20.346
804.20	20.613
804.50	20.918
804.80	21.281
805.11	20.853
805.41	21.010
805.71	20.958
806.02	20.760
806.32	20.618
806.62	20.889
806.93	20.958
807.23	21.211
807.53	21.166
807.83	20.923
808.14	20.960
808.44	20.974
808.74	20.805
809.05	20.441
809.35	20.419
809.65	20.710
809.95	20.710
810.26	20.745
810.56	20.760
810.86	20.639
811.16	20.443
811.47	20.132
811.77	20.677
812.07	20.412
812.37	20.332
812.68	20.435
812.98	20.081
813.28	19.820
813.58	19.706
813.88	19.433
814.19	19.819
814.49	19.697
814.79	19.981
815.09	19.827
815.39	20.289
815.70	20.623
816.00	20.405
816.30	20.775
816.60	20.903
816.90	20.813
817.20	20.953
817.50	20.516
817.81	20.787
818.11	20.534
818.41	20.600
818.71	20.680
819.01	20.722
819.31	20.719
819.61	20.673
819.92	20.746
820.22	20.770
820.52	20.749
820.82	20.862
821.12	20.847
821.42	20.966
821.72	20.976
822.02	20.938
822.32	20.950
822.62	20.938
822.92	20.869
823.22	20.915
823.52	20.875
823.83	20.894
824.13	20.885
824.43	20.839
824.73	20.808
825.03	20.764
825.33	20.702
825.63	20.647
825.93	20.614
826.23	20.615
826.53	20.554
826.83	20.617
827.13	20.378
827.43	20.332
827.73	20.537
828.03	20.512
828.33	20.597
828.63	20.574
828.93	20.501
829.23	20.590
829.53	20.811
829.83	20.734
830.13	20.853
830.42	20.989
830.72	21.019
831.02	20.987
831.32	20.735
831.62	20.796
831.92	20.989
832.22	21.173
832.52	21.357
832.82	21.207
833.12	20.996
833.42	21.017
833.72	20.912
834.01	20.676
834.31	20.569
834.61	20.511
834.91	20.316
835.21	20.099
835.51	19.922
835.81	19.859
836.11	20.025
836.40	20.579
836.70	20.338
837.00	20.881
837.30	20.802
837.60	20.463
837.90	20.357
838.19	20.222
838.49	20.343
838.79	20.380
839.09	20.078
839.39	20.041
839.68	19.229
839.98	19.306
840.28	19.378
840.58	19.827
840.88	19.901
841.17	19.854
841.47	20.150
841.77	20.468
842.07	20.246
842.36	20.956
842.66	20.929
842.96	21.078
843.26	20.929
843.55	20.659
843.85	20.032
844.15	19.858
844.45	20.221
844.74	20.137
845.04	20.197
845.34	20.891
845.63	19.619
845.93	19.448
846.23	19.807
846.53	19.833
846.82	19.368
847.12	20.265
847.42	20.317
847.71	19.766
848.01	19.092
848.31	18.000
848.60	18.218
848.90	18.112
849.19	18.475
849.49	17.814
849.79	17.263
850.08	16.958
850.38	15.938
850.68	16.952
850.97	17.588
851.27	17.861
851.56	18.458
851.86	17.299
852.16	17.362
852.45	16.979
852.75	16.680
853.04	19.308
853.34	20.401
853.64	21.173
853.93	20.611
854.23	23.137
854.52	21.939
854.82	21.954
855.11	23.450
855.41	23.180
855.70	21.908
856.00	24.472
856.30	21.701
856.59	22.199
856.89	22.454
857.18	21.853
857.48	19.817
857.77	21.174
858.07	21.055
858.36	19.584
858.66	20.327
858.95	21.928
859.25	20.409
859.54	21.156
859.84	21.834
860.13	22.432
860.42	23.358
860.72	23.030
861.01	22.907
861.31	22.930
861.60	23.596
861.90	22.624
862.19	22.928
862.49	22.182
862.78	21.233
863.07	21.237
863.37	20.229
863.66	19.764
863.96	20.718
864.25	20.111
864.54	20.703
864.84	20.249
865.13	20.032
865.43	18.806
865.72	13.368
866.01	29.377
866.31	18.874
866.60	8.802
866.89	12.499
>>>>>End Spectral Data<<<<<
