OOIBase32 Version 2.0.0.6 Data File
++++++++++++++++++++++++++++++++++++
Date: 01-18-2012, 23:02:02
User: Valued Ocean Optics Customer
Spectrometer Serial Number: USB2E2917
Spectrometer Channel: Master
Integration Time (msec): 5
Spectra Averaged: 10
Boxcar Smoothing: 5
Correct for Electrical Dark: Enabled
Time Normalized: Disabled
Dual-beam Reference: Disabled
Reference Channel: Master
Temperature: Not acquired
Spectrometer Type: S2000
ADC Type: USB2000
Number of Pixels in File: 2048
Graph Title: 
>>>>>Begin Spectral Data<<<<<
180.30	0.000
180.67	0.000
181.03	429.162
181.40	0.318
181.77	83.701
182.14	-170.787
182.51	-175.144
182.88	264.114
183.25	64.849
183.62	-0.546
183.99	96.822
184.36	200.515
184.73	-47.194
185.10	55.773
185.46	117.851
185.83	88.494
186.20	-7.096
186.57	-143.736
186.94	100.950
187.31	3.018
187.68	8.169
188.05	84.743
188.42	137.651
188.78	86.127
189.15	99.107
189.52	233.905
189.89	215.034
190.26	27.494
190.63	-6.809
191.00	-31.960
191.37	-54.551
191.73	-61.619
192.10	-24.401
192.47	-19.359
192.84	-24.506
193.21	-7.295
193.58	4.096
193.94	22.554
194.31	36.516
194.68	37.124
195.05	42.737
195.42	43.224
195.79	51.998
196.15	49.594
196.52	49.458
196.89	55.208
197.26	52.490
197.63	48.337
198.00	27.013
198.36	17.090
198.73	12.965
199.10	16.167
199.47	10.704
199.84	17.704
200.20	17.349
200.57	5.992
200.94	-21.173
201.31	-33.815
201.68	-16.832
202.04	12.889
202.41	0.870
202.78	8.486
203.15	-1.590
203.51	-5.258
203.88	-7.782
204.25	-4.378
204.62	-7.874
204.98	1.899
205.35	-21.577
205.72	-19.653
206.09	-41.704
206.46	-31.324
206.82	-17.199
207.19	-14.001
207.56	6.559
207.92	17.274
208.29	24.733
208.66	32.567
209.03	33.904
209.39	69.986
209.76	70.830
210.13	82.759
210.50	77.724
210.86	59.319
211.23	54.618
211.60	57.294
211.96	53.635
212.33	39.231
212.70	50.152
213.07	59.177
213.43	39.748
213.80	43.548
214.17	42.741
214.53	41.276
214.90	47.752
215.27	47.831
215.63	38.711
216.00	32.565
216.37	34.299
216.74	21.743
217.10	3.662
217.47	-8.144
217.84	-22.589
218.20	-42.687
218.57	-26.437
218.94	-24.655
219.30	-12.772
219.67	-1.590
220.04	5.032
220.40	5.080
220.77	16.473
221.13	22.338
221.50	21.533
221.87	21.364
222.23	21.826
222.60	17.485
222.97	14.139
223.33	13.888
223.70	10.455
224.07	11.604
224.43	14.363
224.80	10.917
225.16	9.817
225.53	10.200
225.90	11.678
226.26	13.490
226.63	16.131
226.99	17.413
227.36	17.370
227.73	17.978
228.09	16.680
228.46	15.967
228.82	16.472
229.19	18.332
229.56	19.148
229.92	20.087
230.29	20.182
230.65	17.401
231.02	15.155
231.38	13.742
231.75	12.669
232.12	12.913
232.48	13.811
232.85	12.589
233.21	8.520
233.58	9.205
233.94	8.205
234.31	10.191
234.68	12.336
235.04	11.603
235.41	11.496
235.77	12.850
236.14	13.230
236.50	10.759
236.87	10.225
237.23	9.925
237.60	9.791
237.96	9.035
238.33	6.969
238.69	7.793
239.06	9.201
239.42	9.862
239.79	9.175
240.15	9.230
240.52	10.406
240.88	10.831
241.25	11.383
241.61	11.482
241.98	12.038
242.34	12.598
242.71	11.518
243.07	11.190
243.44	10.993
243.80	10.957
244.17	11.246
244.53	11.008
244.90	11.069
245.26	11.159
245.63	11.120
245.99	11.033
246.36	10.761
246.72	11.338
247.09	11.027
247.45	11.196
247.81	11.208
248.18	11.357
248.54	11.856
248.91	12.001
249.27	12.016
249.64	12.380
250.00	11.952
250.36	12.659
250.73	11.786
251.09	12.420
251.46	12.265
251.82	12.346
252.19	11.625
252.55	11.050
252.91	11.033
253.28	10.898
253.64	10.794
254.01	11.206
254.37	10.425
254.73	11.189
255.10	11.254
255.46	11.235
255.83	10.799
256.19	10.637
256.55	10.712
256.92	10.260
257.28	10.056
257.65	9.835
258.01	9.998
258.37	10.029
258.74	9.848
259.10	9.613
259.46	9.357
259.83	9.400
260.19	9.460
260.55	9.134
260.92	9.271
261.28	9.367
261.64	9.407
262.01	8.985
262.37	8.540
262.73	8.441
263.10	8.731
263.46	8.659
263.82	8.778
264.19	8.626
264.55	8.726
264.91	8.754
265.28	8.615
265.64	8.997
266.00	9.192
266.37	9.596
266.73	9.843
267.09	9.697
267.46	9.807
267.82	10.080
268.18	10.295
268.54	10.416
268.91	10.204
269.27	10.401
269.63	9.762
270.00	9.503
270.36	9.560
270.72	9.380
271.08	9.520
271.45	9.695
271.81	9.533
272.17	9.459
272.53	9.153
272.90	9.438
273.26	9.228
273.62	9.217
273.98	9.420
274.35	9.512
274.71	9.604
275.07	9.091
275.43	8.826
275.80	8.724
276.16	8.857
276.52	9.323
276.88	9.153
277.25	9.314
277.61	9.424
277.97	9.673
278.33	9.737
278.69	9.643
279.06	9.904
279.42	10.133
279.78	10.146
280.14	9.989
280.50	10.125
280.87	10.080
281.23	9.990
281.59	9.860
281.95	9.581
282.31	9.604
282.68	9.386
283.04	9.560
283.40	9.581
283.76	9.451
284.12	9.670
284.48	9.527
284.85	9.621
285.21	9.615
285.57	9.618
285.93	9.588
286.29	9.558
286.65	9.739
287.02	9.672
287.38	9.596
287.74	9.761
288.10	9.743
288.46	9.908
288.82	9.669
289.18	9.526
289.54	9.675
289.91	9.608
290.27	9.397
290.63	9.499
290.99	9.320
291.35	9.345
291.71	9.391
292.07	9.190
292.43	8.820
292.79	8.835
293.16	8.957
293.52	9.084
293.88	9.275
294.24	9.274
294.60	9.225
294.96	9.323
295.32	9.324
295.68	9.381
296.04	9.455
296.40	9.675
296.76	9.803
297.12	10.146
297.49	10.211
297.85	10.483
298.21	10.617
298.57	10.816
298.93	11.081
299.29	11.294
299.65	11.233
300.01	11.262
300.37	11.252
300.73	11.238
301.09	11.123
301.45	11.286
301.81	11.303
302.17	11.553
302.53	11.713
302.89	11.895
303.25	12.086
303.61	12.217
303.97	12.540
304.33	12.826
304.69	13.386
305.05	13.608
305.41	13.815
305.77	13.986
306.13	14.136
306.49	14.223
306.85	14.241
307.21	14.216
307.57	14.358
307.93	14.385
308.29	14.324
308.65	14.193
309.01	14.283
309.37	14.292
309.73	14.558
310.09	14.609
310.45	14.738
310.81	14.740
311.17	14.903
311.53	15.261
311.89	15.360
312.25	15.622
312.61	15.840
312.96	15.887
313.32	15.910
313.68	15.742
314.04	15.860
314.40	15.748
314.76	15.855
315.12	15.767
315.48	15.522
315.84	15.398
316.20	15.186
316.56	15.144
316.92	15.119
317.27	15.172
317.63	15.124
317.99	14.853
318.35	14.870
318.71	14.828
319.07	14.894
319.43	14.904
319.79	14.896
320.15	14.884
320.50	14.741
320.86	14.792
321.22	14.638
321.58	14.596
321.94	14.724
322.30	14.601
322.66	14.672
323.01	14.684
323.37	14.586
323.73	14.619
324.09	14.750
324.45	14.642
324.81	14.711
325.17	14.838
325.52	14.830
325.88	14.755
326.24	14.796
326.60	14.686
326.96	14.520
327.31	14.571
327.67	14.408
328.03	14.219
328.39	14.306
328.75	14.078
329.11	13.878
329.46	13.802
329.82	13.834
330.18	13.861
330.54	13.782
330.90	13.755
331.25	13.576
331.61	13.809
331.97	13.859
332.33	13.935
332.68	13.841
333.04	13.888
333.40	13.898
333.76	13.944
334.11	13.894
334.47	13.815
334.83	13.818
335.19	13.873
335.54	13.711
335.90	13.750
336.26	13.569
336.62	13.633
336.97	13.663
337.33	13.615
337.69	13.518
338.05	13.594
338.40	13.605
338.76	13.565
339.12	13.484
339.48	13.371
339.83	13.248
340.19	13.362
340.55	13.312
340.90	13.195
341.26	13.025
341.62	12.964
341.97	12.816
342.33	12.769
342.69	12.750
343.04	12.787
343.40	12.903
343.76	12.782
344.12	12.592
344.47	12.680
344.83	12.620
345.19	12.765
345.54	12.736
345.90	12.673
346.26	12.621
346.61	12.551
346.97	12.520
347.32	12.364
347.68	12.357
348.04	12.443
348.39	12.244
348.75	12.243
349.11	12.132
349.46	12.074
349.82	12.212
350.18	12.265
350.53	12.326
350.89	12.283
351.24	12.297
351.60	12.347
351.96	12.223
352.31	12.271
352.67	12.421
353.02	12.366
353.38	12.309
353.74	12.180
354.09	12.097
354.45	12.006
354.80	11.951
355.16	11.936
355.52	11.917
355.87	12.039
356.23	11.993
356.58	11.794
356.94	11.852
357.29	11.865
357.65	11.810
358.00	11.801
358.36	11.788
358.72	11.712
359.07	11.688
359.43	11.594
359.78	11.460
360.14	11.399
360.49	11.339
360.85	11.263
361.20	11.136
361.56	11.090
361.91	11.003
362.27	11.005
362.62	11.061
362.98	11.031
363.33	11.085
363.69	11.105
364.04	11.113
364.40	11.130
364.75	11.141
365.11	11.234
365.46	11.310
365.82	11.261
366.17	11.218
366.53	11.149
366.88	11.098
367.24	11.043
367.59	10.963
367.95	10.935
368.30	10.888
368.66	10.871
369.01	10.819
369.37	10.692
369.72	10.755
370.08	10.792
370.43	10.794
370.78	10.809
371.14	10.839
371.49	10.788
371.85	10.797
372.20	10.844
372.56	10.759
372.91	10.730
373.26	10.715
373.62	10.700
373.97	10.589
374.33	10.572
374.68	10.493
375.03	10.410
375.39	10.477
375.74	10.408
376.10	10.379
376.45	10.326
376.80	10.250
377.16	10.258
377.51	10.233
377.87	10.249
378.22	10.224
378.57	10.231
378.93	10.253
379.28	10.209
379.63	10.219
379.99	10.176
380.34	10.192
380.70	10.160
381.05	10.133
381.40	10.087
381.76	10.085
382.11	10.015
382.46	10.031
382.82	9.949
383.17	9.955
383.52	9.932
383.88	9.858
384.23	9.860
384.58	9.929
384.94	9.921
385.29	9.914
385.64	9.820
385.99	9.820
386.35	9.795
386.70	9.770
387.05	9.751
387.41	9.707
387.76	9.757
388.11	9.731
388.47	9.725
388.82	9.706
389.17	9.688
389.52	9.669
389.88	9.690
390.23	9.692
390.58	9.725
390.93	9.689
391.29	9.693
391.64	9.598
391.99	9.600
392.34	9.554
392.70	9.502
393.05	9.469
393.40	9.492
393.75	9.421
394.11	9.401
394.46	9.362
394.81	9.311
395.16	9.282
395.52	9.325
395.87	9.266
396.22	9.225
396.57	9.248
396.92	9.251
397.28	9.189
397.63	9.204
397.98	9.120
398.33	9.064
398.68	9.048
399.04	9.004
399.39	8.957
399.74	8.892
400.09	8.875
400.44	8.791
400.80	8.750
401.15	8.741
401.50	8.667
401.85	8.651
402.20	8.647
402.55	8.609
402.90	8.563
403.26	8.508
403.61	8.543
403.96	8.501
404.31	8.494
404.66	8.466
405.01	8.443
405.36	8.452
405.72	8.427
406.07	8.405
406.42	8.426
406.77	8.474
407.12	8.498
407.47	8.460
407.82	8.440
408.17	8.412
408.53	8.418
408.88	8.422
409.23	8.379
409.58	8.383
409.93	8.338
410.28	8.299
410.63	8.257
410.98	8.225
411.33	8.224
411.68	8.238
412.03	8.211
412.38	8.193
412.73	8.151
413.09	8.168
413.44	8.163
413.79	8.144
414.14	8.116
414.49	8.102
414.84	8.042
415.19	8.001
415.54	7.990
415.89	7.980
416.24	7.949
416.59	7.947
416.94	7.915
417.29	7.893
417.64	7.900
417.99	7.890
418.34	7.852
418.69	7.864
419.04	7.850
419.39	7.828
419.74	7.826
420.09	7.835
420.44	7.827
420.79	7.833
421.14	7.817
421.49	7.822
421.84	7.822
422.19	7.835
422.54	7.845
422.89	7.850
423.24	7.858
423.59	7.874
423.94	7.873
424.29	7.898
424.64	7.911
424.99	7.931
425.34	7.935
425.68	7.950
426.03	7.949
426.38	7.940
426.73	7.962
427.08	7.971
427.43	7.961
427.78	7.931
428.13	7.900
428.48	7.898
428.83	7.882
429.18	7.839
429.53	7.814
429.87	7.823
430.22	7.836
430.57	7.829
430.92	7.822
431.27	7.826
431.62	7.827
431.97	7.817
432.32	7.809
432.67	7.828
433.01	7.860
433.36	7.854
433.71	7.869
434.06	7.862
434.41	7.855
434.76	7.864
435.11	7.862
435.45	7.898
435.80	7.910
436.15	7.895
436.50	7.898
436.85	7.901
437.20	7.916
437.54	7.914
437.89	7.924
438.24	7.929
438.59	7.918
438.94	7.931
439.29	7.915
439.63	7.907
439.98	7.934
440.33	7.922
440.68	7.926
441.03	7.959
441.37	7.955
441.72	7.961
442.07	7.972
442.42	7.991
442.76	7.987
443.11	7.984
443.46	8.008
443.81	8.012
444.16	8.034
444.50	8.032
444.85	8.033
445.20	8.057
445.55	8.064
445.89	8.080
446.24	8.098
446.59	8.116
446.94	8.140
447.28	8.158
447.63	8.185
447.98	8.203
448.32	8.250
448.67	8.252
449.02	8.238
449.37	8.257
449.71	8.278
450.06	8.275
450.41	8.298
450.75	8.303
451.10	8.291
451.45	8.268
451.79	8.248
452.14	8.232
452.49	8.252
452.84	8.273
453.18	8.293
453.53	8.294
453.88	8.301
454.22	8.283
454.57	8.270
454.92	8.276
455.26	8.304
455.61	8.329
455.95	8.347
456.30	8.360
456.65	8.367
456.99	8.374
457.34	8.374
457.69	8.368
458.03	8.388
458.38	8.426
458.73	8.456
459.07	8.473
459.42	8.485
459.76	8.484
460.11	8.488
460.46	8.514
460.80	8.533
461.15	8.551
461.49	8.592
461.84	8.611
462.19	8.634
462.53	8.648
462.88	8.637
463.22	8.637
463.57	8.657
463.91	8.686
464.26	8.688
464.61	8.677
464.95	8.694
465.30	8.699
465.64	8.724
465.99	8.725
466.33	8.760
466.68	8.803
467.02	8.852
467.37	8.857
467.71	8.855
468.06	8.872
468.41	8.892
468.75	8.926
469.10	8.961
469.44	8.956
469.79	8.960
470.13	8.938
470.48	8.935
470.82	8.923
471.17	8.946
471.51	8.929
471.86	8.918
472.20	8.922
472.55	8.900
472.89	8.892
473.23	8.891
473.58	8.884
473.92	8.890
474.27	8.890
474.61	8.875
474.96	8.880
475.30	8.884
475.65	8.886
475.99	8.872
476.34	8.884
476.68	8.854
477.02	8.834
477.37	8.820
477.71	8.799
478.06	8.774
478.40	8.778
478.75	8.752
479.09	8.744
479.43	8.744
479.78	8.768
480.12	8.781
480.47	8.807
480.81	8.823
481.15	8.850
481.50	8.876
481.84	8.893
482.19	8.915
482.53	8.923
482.87	8.941
483.22	8.955
483.56	8.948
483.90	8.935
484.25	8.918
484.59	8.914
484.94	8.893
485.28	8.880
485.62	8.863
485.97	8.829
486.31	8.814
486.65	8.787
487.00	8.764
487.34	8.757
487.68	8.751
488.03	8.753
488.37	8.749
488.71	8.748
489.06	8.737
489.40	8.735
489.74	8.738
490.09	8.743
490.43	8.751
490.77	8.754
491.11	8.759
491.46	8.765
491.80	8.760
492.14	8.769
492.49	8.777
492.83	8.770
493.17	8.782
493.51	8.775
493.86	8.787
494.20	8.803
494.54	8.813
494.88	8.844
495.23	8.869
495.57	8.898
495.91	8.921
496.25	8.936
496.60	8.969
496.94	8.987
497.28	9.041
497.62	9.040
497.97	9.063
498.31	9.077
498.65	9.067
498.99	9.089
499.33	9.122
499.68	9.119
500.02	9.147
500.36	9.166
500.70	9.190
501.04	9.210
501.39	9.250
501.73	9.270
502.07	9.302
502.41	9.338
502.75	9.341
503.09	9.338
503.44	9.376
503.78	9.382
504.12	9.400
504.46	9.432
504.80	9.435
505.14	9.445
505.49	9.475
505.83	9.488
506.17	9.517
506.51	9.539
506.85	9.571
507.19	9.582
507.53	9.609
507.87	9.624
508.22	9.613
508.56	9.632
508.90	9.665
509.24	9.671
509.58	9.684
509.92	9.686
510.26	9.711
510.60	9.712
510.94	9.730
511.28	9.733
511.63	9.737
511.97	9.755
512.31	9.762
512.65	9.753
512.99	9.748
513.33	9.759
513.67	9.748
514.01	9.729
514.35	9.729
514.69	9.718
515.03	9.722
515.37	9.725
515.71	9.717
516.05	9.728
516.39	9.727
516.73	9.715
517.07	9.730
517.41	9.748
517.75	9.764
518.09	9.777
518.43	9.781
518.77	9.792
519.11	9.799
519.45	9.804
519.79	9.797
520.13	9.784
520.47	9.789
520.81	9.767
521.15	9.737
521.49	9.713
521.83	9.690
522.17	9.672
522.51	9.654
522.85	9.652
523.19	9.638
523.53	9.613
523.87	9.623
524.21	9.630
524.55	9.636
524.89	9.656
525.23	9.660
525.57	9.671
525.91	9.687
526.25	9.704
526.58	9.707
526.92	9.724
527.26	9.737
527.60	9.741
527.94	9.746
528.28	9.736
528.62	9.715
528.96	9.709
529.30	9.693
529.64	9.669
529.97	9.634
530.31	9.603
530.65	9.560
530.99	9.536
531.33	9.514
531.67	9.479
532.01	9.449
532.35	9.437
532.68	9.416
533.02	9.401
533.36	9.380
533.70	9.356
534.04	9.331
534.38	9.320
534.71	9.296
535.05	9.269
535.39	9.229
535.73	9.204
536.07	9.175
536.41	9.135
536.74	9.099
537.08	9.080
537.42	9.074
537.76	9.059
538.10	9.056
538.43	9.038
538.77	9.024
539.11	9.035
539.45	9.050
539.79	9.051
540.12	9.056
540.46	9.051
540.80	9.037
541.14	9.035
541.47	9.039
541.81	9.014
542.15	9.002
542.49	8.988
542.82	8.977
543.16	8.945
543.50	8.920
543.84	8.903
544.17	8.900
544.51	8.880
544.85	8.848
545.18	8.823
545.52	8.824
545.86	8.826
546.20	8.821
546.53	8.802
546.87	8.801
547.21	8.784
547.54	8.788
547.88	8.776
548.22	8.784
548.55	8.781
548.89	8.787
549.23	8.779
549.56	8.781
549.90	8.769
550.24	8.766
550.57	8.755
550.91	8.763
551.25	8.737
551.58	8.729
551.92	8.732
552.26	8.749
552.59	8.746
552.93	8.752
553.27	8.729
553.60	8.732
553.94	8.730
554.27	8.728
554.61	8.716
554.95	8.727
555.28	8.726
555.62	8.714
555.95	8.696
556.29	8.686
556.63	8.674
556.96	8.661
557.30	8.666
557.63	8.675
557.97	8.672
558.31	8.677
558.64	8.679
558.98	8.708
559.31	8.746
559.65	8.758
559.98	8.762
560.32	8.751
560.65	8.779
560.99	8.760
561.33	8.755
561.66	8.750
562.00	8.743
562.33	8.730
562.67	8.704
563.00	8.686
563.34	8.678
563.67	8.676
564.01	8.692
564.34	8.690
564.68	8.679
565.01	8.684
565.35	8.684
565.68	8.699
566.02	8.703
566.35	8.701
566.69	8.699
567.02	8.691
567.36	8.679
567.69	8.698
568.03	8.681
568.36	8.693
568.69	8.703
569.03	8.725
569.36	8.723
569.70	8.737
570.03	8.750
570.37	8.761
570.70	8.782
571.04	8.819
571.37	8.797
571.70	8.827
572.04	8.851
572.37	8.843
572.71	8.846
573.04	8.856
573.37	8.873
573.71	8.885
574.04	8.894
574.38	8.902
574.71	8.897
575.04	8.933
575.38	8.927
575.71	8.935
576.05	8.959
576.38	8.996
576.71	9.002
577.05	9.022
577.38	9.035
577.71	9.047
578.05	9.050
578.38	9.067
578.71	9.054
579.05	9.079
579.38	9.103
579.71	9.115
580.05	9.125
580.38	9.163
580.71	9.158
581.05	9.158
581.38	9.143
581.71	9.169
582.05	9.175
582.38	9.196
582.71	9.184
583.04	9.202
583.38	9.223
583.71	9.232
584.04	9.248
584.38	9.260
584.71	9.287
585.04	9.314
585.37	9.345
585.71	9.384
586.04	9.414
586.37	9.433
586.70	9.449
587.04	9.454
587.37	9.451
587.70	9.468
588.03	9.500
588.37	9.508
588.70	9.532
589.03	9.514
589.36	9.497
589.69	9.516
590.03	9.548
590.36	9.527
590.69	9.550
591.02	9.593
591.35	9.612
591.69	9.630
592.02	9.664
592.35	9.690
592.68	9.728
593.01	9.785
593.35	9.801
593.68	9.822
594.01	9.872
594.34	9.916
594.67	9.931
595.00	9.959
595.34	9.984
595.67	10.046
596.00	10.078
596.33	10.128
596.66	10.164
596.99	10.228
597.32	10.271
597.65	10.310
597.99	10.341
598.32	10.361
598.65	10.387
598.98	10.419
599.31	10.412
599.64	10.453
599.97	10.466
600.30	10.490
600.63	10.477
600.96	10.497
601.30	10.542
601.63	10.559
601.96	10.614
602.29	10.657
602.62	10.674
602.95	10.716
603.28	10.750
603.61	10.780
603.94	10.792
604.27	10.855
604.60	10.885
604.93	10.920
605.26	10.943
605.59	10.948
605.92	10.947
606.25	10.998
606.58	10.998
606.91	10.999
607.24	11.021
607.57	11.062
607.90	11.052
608.23	11.075
608.56	11.063
608.89	11.076
609.22	11.087
609.55	11.140
609.88	11.144
610.21	11.183
610.54	11.222
610.87	11.234
611.20	11.248
611.53	11.281
611.86	11.295
612.19	11.328
612.52	11.352
612.85	11.391
613.18	11.357
613.51	11.350
613.84	11.360
614.17	11.383
614.49	11.393
614.82	11.373
615.15	11.388
615.48	11.396
615.81	11.398
616.14	11.415
616.47	11.420
616.80	11.442
617.13	11.446
617.46	11.426
617.78	11.396
618.11	11.405
618.44	11.416
618.77	11.410
619.10	11.390
619.43	11.403
619.76	11.370
620.09	11.367
620.41	11.371
620.74	11.407
621.07	11.422
621.40	11.424
621.73	11.472
622.06	11.494
622.38	11.497
622.71	11.555
623.04	11.552
623.37	11.545
623.70	11.548
624.02	11.543
624.35	11.524
624.68	11.544
625.01	11.567
625.34	11.544
625.66	11.535
625.99	11.524
626.32	11.495
626.65	11.513
626.98	11.539
627.30	11.538
627.63	11.574
627.96	11.614
628.29	11.617
628.61	11.637
628.94	11.649
629.27	11.654
629.60	11.668
629.92	11.635
630.25	11.658
630.58	11.665
630.91	11.643
631.23	11.601
631.56	11.573
631.89	11.567
632.21	11.530
632.54	11.482
632.87	11.491
633.19	11.508
633.52	11.551
633.85	11.526
634.18	11.532
634.50	11.520
634.83	11.548
635.16	11.548
635.48	11.535
635.81	11.520
636.14	11.580
636.46	11.575
636.79	11.569
637.11	11.568
637.44	11.580
637.77	11.563
638.09	11.579
638.42	11.544
638.75	11.522
639.07	11.532
639.40	11.586
639.73	11.560
640.05	11.559
640.38	11.545
640.70	11.560
641.03	11.546
641.36	11.545
641.68	11.528
642.01	11.497
642.33	11.509
642.66	11.492
642.98	11.463
643.31	11.469
643.64	11.460
643.96	11.469
644.29	11.480
644.61	11.511
644.94	11.533
645.26	11.562
645.59	11.632
645.91	11.677
646.24	11.674
646.56	11.682
646.89	11.690
647.22	11.709
647.54	11.690
647.87	11.642
648.19	11.589
648.52	11.590
648.84	11.577
649.17	11.558
649.49	11.542
649.82	11.525
650.14	11.488
650.47	11.446
650.79	11.443
651.11	11.462
651.44	11.486
651.76	11.460
652.09	11.429
652.41	11.428
652.74	11.410
653.06	11.360
653.39	11.365
653.71	11.376
654.04	11.399
654.36	11.364
654.68	11.331
655.01	11.328
655.33	11.345
655.66	11.400
655.98	11.427
656.30	11.501
656.63	11.505
656.95	11.460
657.28	11.514
657.60	11.531
657.92	11.535
658.25	11.539
658.57	11.537
658.90	11.557
659.22	11.541
659.54	11.491
659.87	11.427
660.19	11.425
660.51	11.472
660.84	11.466
661.16	11.395
661.48	11.407
661.81	11.423
662.13	11.407
662.45	11.364
662.78	11.351
663.10	11.434
663.42	11.392
663.75	11.416
664.07	11.419
664.39	11.304
664.72	11.327
665.04	11.293
665.36	11.274
665.69	11.284
666.01	11.297
666.33	11.278
666.65	11.300
666.98	11.289
667.30	11.251
667.62	11.202
667.94	11.243
668.27	11.224
668.59	11.231
668.91	11.227
669.23	11.225
669.56	11.246
669.88	11.258
670.20	11.192
670.52	11.226
670.85	11.271
671.17	11.315
671.49	11.277
671.81	11.260
672.13	11.258
672.46	11.246
672.78	11.205
673.10	11.174
673.42	11.170
673.74	11.127
674.07	11.126
674.39	11.092
674.71	11.086
675.03	11.126
675.35	11.164
675.67	11.153
676.00	11.185
676.32	11.216
676.64	11.189
676.96	11.188
677.28	11.206
677.60	11.220
677.92	11.191
678.25	11.200
678.57	11.215
678.89	11.183
679.21	11.234
679.53	11.222
679.85	11.195
680.17	11.219
680.49	11.232
680.81	11.216
681.13	11.180
681.46	11.221
681.78	11.236
682.10	11.244
682.42	11.236
682.74	11.187
683.06	11.178
683.38	11.252
683.70	11.227
684.02	11.185
684.34	11.193
684.66	11.227
684.98	11.265
685.30	11.205
685.62	11.190
685.94	11.248
686.26	11.295
686.58	11.234
686.90	11.150
687.22	11.180
687.54	11.183
687.86	11.191
688.18	11.174
688.50	11.118
688.82	11.224
689.14	11.169
689.46	11.120
689.78	11.099
690.10	11.177
690.42	11.140
690.74	11.099
691.06	11.066
691.38	11.048
691.70	11.103
692.02	11.037
692.34	10.931
692.66	11.039
692.98	11.088
693.30	11.102
693.62	11.087
693.94	11.145
694.26	11.191
694.57	11.276
694.89	11.259
695.21	11.193
695.53	11.242
695.85	11.259
696.17	11.207
696.49	11.213
696.81	11.205
697.13	11.170
697.44	11.169
697.76	11.152
698.08	11.094
698.40	11.066
698.72	11.100
699.04	11.039
699.36	11.056
699.67	11.022
699.99	10.925
700.31	10.837
700.63	10.826
700.95	10.804
701.27	10.797
701.58	10.785
701.90	10.807
702.22	10.772
702.54	10.780
702.86	10.831
703.17	10.921
703.49	11.034
703.81	11.097
704.13	11.125
704.45	11.110
704.76	11.075
705.08	11.098
705.40	11.115
705.72	11.094
706.03	11.120
706.35	11.028
706.67	10.892
706.99	10.837
707.30	10.842
707.62	10.863
707.94	10.858
708.26	10.848
708.57	10.797
708.89	10.838
709.21	10.873
709.53	10.919
709.84	10.874
710.16	10.875
710.48	10.843
710.79	10.793
711.11	10.732
711.43	10.709
711.74	10.753
712.06	10.677
712.38	10.626
712.69	10.687
713.01	10.722
713.33	10.803
713.64	10.938
713.96	10.962
714.28	10.940
714.59	10.993
714.91	10.934
715.23	10.933
715.54	11.103
715.86	11.184
716.17	11.059
716.49	10.987
716.81	10.902
717.12	10.815
717.44	10.819
717.76	10.936
718.07	10.886
718.39	11.040
718.70	11.007
719.02	10.857
719.33	10.765
719.65	10.720
719.97	10.712
720.28	10.741
720.60	10.769
720.91	10.813
721.23	10.738
721.54	10.800
721.86	10.734
722.17	10.708
722.49	10.897
722.81	10.937
723.12	11.040
723.44	11.087
723.75	11.163
724.07	11.124
724.38	10.981
724.70	11.027
725.01	10.996
725.33	11.024
725.64	11.025
725.96	10.969
726.27	10.967
726.59	10.941
726.90	10.938
727.22	10.794
727.53	10.826
727.84	10.871
728.16	10.797
728.47	10.824
728.79	10.818
729.10	10.838
729.42	10.804
729.73	10.841
730.05	10.765
730.36	10.684
730.67	10.765
730.99	10.762
731.30	10.786
731.62	10.810
731.93	10.792
732.24	10.838
732.56	10.811
732.87	10.844
733.19	10.674
733.50	10.685
733.81	10.737
734.13	10.718
734.44	10.688
734.76	10.734
735.07	10.670
735.38	10.658
735.70	10.494
736.01	10.367
736.32	10.332
736.64	10.461
736.95	10.491
737.26	10.478
737.58	10.470
737.89	10.447
738.20	10.435
738.52	10.441
738.83	10.406
739.14	10.472
739.45	10.635
739.77	10.587
740.08	10.524
740.39	10.552
740.71	10.593
741.02	10.546
741.33	10.510
741.64	10.459
741.96	10.562
742.27	10.703
742.58	10.864
742.90	10.929
743.21	10.772
743.52	10.684
743.83	10.657
744.14	10.668
744.46	10.757
744.77	10.652
745.08	10.580
745.39	10.427
745.71	10.268
746.02	10.087
746.33	10.068
746.64	10.241
746.95	10.307
747.27	10.288
747.58	10.239
747.89	10.276
748.20	10.421
748.51	10.542
748.82	10.623
749.14	10.675
749.45	10.656
749.76	10.638
750.07	10.687
750.38	10.754
750.69	10.767
751.01	10.850
751.32	10.836
751.63	10.862
751.94	10.849
752.25	10.827
752.56	10.699
752.87	10.737
753.18	10.710
753.49	10.603
753.81	10.531
754.12	10.562
754.43	10.483
754.74	10.355
755.05	10.411
755.36	10.337
755.67	10.379
755.98	10.512
756.29	10.573
756.60	10.494
756.91	10.672
757.22	10.678
757.53	10.700
757.84	10.719
758.15	10.777
758.46	10.685
758.77	10.691
759.09	10.782
759.40	10.787
759.71	10.647
760.02	10.724
760.33	10.570
760.64	10.752
760.95	10.707
761.26	10.673
761.57	10.664
761.88	10.619
762.18	10.664
762.49	10.642
762.80	10.660
763.11	10.781
763.42	10.781
763.73	10.853
764.04	10.657
764.35	10.624
764.66	10.530
764.97	10.475
765.28	10.554
765.59	10.522
765.90	10.493
766.21	10.507
766.52	10.446
766.83	10.521
767.14	10.382
767.44	10.395
767.75	10.403
768.06	10.545
768.37	10.752
768.68	10.703
768.99	10.627
769.30	10.567
769.61	10.334
769.91	10.257
770.22	9.918
770.53	9.824
770.84	9.885
771.15	9.787
771.46	9.731
771.77	9.549
772.07	9.720
772.38	9.775
772.69	9.738
773.00	9.661
773.31	9.675
773.61	9.988
773.92	10.015
774.23	10.112
774.54	10.226
774.85	10.196
775.15	10.110
775.46	10.053
775.77	9.936
776.08	9.800
776.39	10.094
776.69	10.081
777.00	10.051
777.31	10.313
777.62	10.275
777.92	10.240
778.23	10.243
778.54	10.479
778.85	10.337
779.15	10.659
779.46	11.027
779.77	10.757
780.07	10.729
780.38	10.733
780.69	10.951
781.00	10.990
781.30	10.890
781.61	11.201
781.92	11.182
782.22	11.324
782.53	11.089
782.84	10.808
783.14	11.039
783.45	11.250
783.76	11.013
784.06	10.735
784.37	10.786
784.68	10.634
784.98	10.311
785.29	10.380
785.60	10.304
785.90	10.494
786.21	10.431
786.51	10.177
786.82	10.088
787.13	10.057
787.43	9.793
787.74	9.488
788.04	9.730
788.35	9.671
788.66	9.514
788.96	9.499
789.27	9.389
789.57	9.527
789.88	9.795
790.19	9.913
790.49	10.171
790.80	10.492
791.10	10.625
791.41	10.833
791.71	10.907
792.02	10.805
792.32	10.699
792.63	10.745
792.93	10.719
793.24	10.740
793.54	10.543
793.85	10.575
794.15	10.659
794.46	10.755
794.76	10.559
795.07	10.581
795.37	10.709
795.68	10.905
795.98	10.834
796.29	10.923
796.59	10.760
796.90	10.723
797.20	10.684
797.51	10.440
797.81	10.440
798.12	10.534
798.42	10.677
798.72	10.586
799.03	10.693
799.33	10.505
799.64	10.327
799.94	10.306
800.25	10.229
800.55	9.728
800.85	9.764
801.16	9.706
801.46	9.558
801.77	9.654
802.07	9.961
802.37	9.883
802.68	10.017
802.98	10.183
803.28	10.127
803.59	10.292
803.89	10.934
804.20	11.132
804.50	11.432
804.80	11.956
805.11	11.758
805.41	11.453
805.71	11.515
806.02	11.727
806.32	11.771
806.62	12.071
806.93	12.054
807.23	11.968
807.53	11.658
807.83	11.378
808.14	10.878
808.44	10.648
808.74	10.856
809.05	10.365
809.35	10.073
809.65	9.729
809.95	9.651
810.26	9.592
810.56	9.411
810.86	9.385
811.16	9.484
811.47	9.264
811.77	9.498
812.07	9.033
812.37	9.183
812.68	9.582
812.98	9.903
813.28	9.806
813.58	10.052
813.88	10.229
814.19	10.881
814.49	10.979
814.79	11.222
815.09	10.863
815.39	11.303
815.70	11.582
816.00	11.406
816.30	11.514
816.60	11.297
816.90	11.186
817.20	11.205
817.50	11.042
817.81	10.701
818.11	10.666
818.41	10.787
818.71	10.814
819.01	10.753
819.31	10.555
819.61	10.509
819.92	10.592
820.22	10.655
820.52	10.652
820.82	10.645
821.12	10.762
821.42	10.747
821.72	10.784
822.02	10.823
822.32	10.860
822.62	10.996
822.92	10.990
823.22	11.044
823.52	10.989
823.83	11.017
824.13	10.999
824.43	10.985
824.73	11.059
825.03	11.157
825.33	11.086
825.63	11.122
825.93	11.162
826.23	11.208
826.53	11.178
826.83	11.417
827.13	11.246
827.43	11.470
827.73	11.531
828.03	11.671
828.33	11.586
828.63	11.531
828.93	11.595
829.23	11.388
829.53	11.392
829.83	11.396
830.13	11.037
830.42	11.420
830.72	11.285
831.02	10.959
831.32	10.842
831.62	10.781
831.92	11.126
832.22	10.990
832.52	10.965
832.82	10.950
833.12	10.810
833.42	10.798
833.72	10.807
834.01	10.719
834.31	11.068
834.61	11.111
834.91	11.265
835.21	11.092
835.51	11.350
835.81	11.653
836.11	12.067
836.40	12.713
836.70	13.185
837.00	13.246
837.30	13.268
837.60	13.127
837.90	13.213
838.19	13.281
838.49	13.328
838.79	12.886
839.09	12.606
839.39	11.796
839.68	10.709
839.98	10.492
840.28	10.506
840.58	10.441
840.88	10.342
841.17	10.697
841.47	10.213
841.77	10.461
842.07	10.404
842.36	11.159
842.66	12.417
842.96	13.590
843.26	13.658
843.55	14.304
843.85	14.488
844.15	14.127
844.45	13.825
844.74	13.666
845.04	13.058
845.34	13.574
845.63	14.151
845.93	14.257
846.23	14.358
846.53	13.530
846.82	13.321
847.12	12.829
847.42	13.855
847.71	12.801
848.01	12.723
848.31	12.153
848.60	11.795
848.90	10.096
849.19	8.673
849.49	8.041
849.79	7.673
850.08	6.789
850.38	7.797
850.68	6.428
850.97	7.817
851.27	9.614
851.56	10.857
851.86	9.486
852.16	8.838
852.45	10.066
852.75	10.535
853.04	13.101
853.34	13.927
853.64	12.829
853.93	14.646
854.23	15.168
854.52	14.411
854.82	12.778
855.11	14.604
855.41	15.924
855.70	15.049
856.00	16.472
856.30	15.536
856.59	14.878
856.89	15.572
857.18	13.251
857.48	13.154
857.77	13.195
858.07	14.211
858.36	13.031
858.66	13.029
858.95	15.306
859.25	13.261
859.54	12.425
859.84	11.940
860.13	11.483
860.42	12.833
860.72	11.394
861.01	11.148
861.31	11.613
861.60	14.125
861.90	13.298
862.19	13.222
862.49	13.656
862.78	13.549
863.07	14.184
863.37	15.653
863.66	14.487
863.96	15.127
864.25	14.692
864.54	13.669
864.84	12.285
865.13	12.648
865.43	11.128
865.72	7.756
866.01	5.123
866.31	18.656
866.60	11.398
866.89	16.940
>>>>>End Spectral Data<<<<<
