OOIBase32 Version 2.0.0.6 Data File
++++++++++++++++++++++++++++++++++++
Date: 01-23-2012, 22:01:29
User: Valued Ocean Optics Customer
Spectrometer Serial Number: USB2E2917
Spectrometer Channel: Master
Integration Time (msec): 5
Spectra Averaged: 10
Boxcar Smoothing: 5
Correct for Electrical Dark: Enabled
Time Normalized: Disabled
Dual-beam Reference: Disabled
Reference Channel: Master
Temperature: Not acquired
Spectrometer Type: S2000
ADC Type: USB2000
Number of Pixels in File: 2048
Graph Title: 
>>>>>Begin Spectral Data<<<<<
180.30	0.000
180.67	0.000
181.03	278.894
181.40	-143.511
181.77	11181.667
182.14	42.605
182.51	-7.315
182.88	5288.453
183.25	630.847
183.62	118.095
183.99	17.980
184.36	-115.686
184.73	54.432
185.10	-52.143
185.46	44.199
185.83	68.979
186.20	66.175
186.57	75.448
186.94	47.309
187.31	84.953
187.68	-220.985
188.05	48.779
188.42	49.325
188.78	26.090
189.15	25.746
189.52	33.933
189.89	16.660
190.26	-9.753
190.63	-11.760
191.00	-14.615
191.37	-1.073
191.73	1.611
192.10	7.384
192.47	-2.096
192.84	11.334
193.21	14.118
193.58	6.873
193.94	12.534
194.31	13.006
194.68	22.027
195.05	19.343
195.42	5.874
195.79	5.996
196.15	5.635
196.52	11.346
196.89	1.747
197.26	-0.448
197.63	-2.193
198.00	0.192
198.36	1.050
198.73	-5.535
199.10	-2.464
199.47	2.810
199.84	-11.542
200.20	-6.320
200.57	-20.584
200.94	-17.744
201.31	-20.853
201.68	0.178
202.04	-4.126
202.41	10.191
202.78	1.868
203.15	-1.160
203.51	-17.666
203.88	-2.987
204.25	-23.151
204.62	-8.703
204.98	-1.510
205.35	-3.177
205.72	0.523
206.09	5.098
206.46	12.941
206.82	11.091
207.19	3.723
207.56	2.090
207.92	-10.448
208.29	-0.519
208.66	7.805
209.03	11.696
209.39	11.130
209.76	-8.159
210.13	-18.012
210.50	-38.223
210.86	-30.944
211.23	-5.141
211.60	4.910
211.96	17.752
212.33	9.411
212.70	10.292
213.07	1.902
213.43	3.373
213.80	5.849
214.17	-1.269
214.53	-2.270
214.90	6.031
215.27	-2.895
215.63	-10.430
216.00	-12.850
216.37	2.843
216.74	-7.654
217.10	-4.749
217.47	-3.713
217.84	9.590
218.20	22.181
218.57	29.568
218.94	26.615
219.30	27.556
219.67	28.181
220.04	27.790
220.40	21.419
220.77	20.900
221.13	17.435
221.50	15.767
221.87	1.281
222.23	-2.756
222.60	2.304
222.97	-7.286
223.33	-9.375
223.70	-8.750
224.07	-7.287
224.43	-3.920
224.80	-1.778
225.16	-1.947
225.53	-0.997
225.90	-3.179
226.26	-5.078
226.63	-8.324
226.99	-6.586
227.36	-5.004
227.73	-5.055
228.09	-8.124
228.46	-9.981
228.82	-9.403
229.19	-8.482
229.56	-10.223
229.92	-6.869
230.29	-4.641
230.65	-1.911
231.02	-1.123
231.38	-3.342
231.75	-2.881
232.12	0.180
232.48	3.102
232.85	4.088
233.21	6.835
233.58	8.474
233.94	8.144
234.31	5.438
234.68	3.346
235.04	2.430
235.41	4.166
235.77	3.918
236.14	1.819
236.50	0.059
236.87	-0.696
237.23	-2.600
237.60	-2.971
237.96	-4.017
238.33	-1.094
238.69	-0.572
239.06	-0.267
239.42	-0.272
239.79	0.172
240.15	1.529
240.52	1.603
240.88	1.672
241.25	2.048
241.61	2.412
241.98	3.226
242.34	2.759
242.71	3.248
243.07	3.461
243.44	3.531
243.80	3.608
244.17	3.749
244.53	3.646
244.90	3.445
245.26	3.678
245.63	3.525
245.99	3.349
246.36	3.633
246.72	3.289
247.09	3.131
247.45	2.964
247.81	2.796
248.18	2.313
248.54	2.331
248.91	2.358
249.27	2.490
249.64	2.689
250.00	3.114
250.36	2.852
250.73	2.993
251.09	3.117
251.46	3.180
251.82	3.436
252.19	3.628
252.55	3.525
252.91	3.808
253.28	2.774
253.64	2.421
254.01	2.067
254.37	1.942
254.73	2.336
255.10	2.841
255.46	2.793
255.83	2.439
256.19	2.452
256.55	2.456
256.92	2.197
257.28	2.392
257.65	2.667
258.01	2.760
258.37	2.736
258.74	2.707
259.10	2.489
259.46	2.652
259.83	2.862
260.19	2.669
260.55	2.540
260.92	2.830
261.28	2.729
261.64	2.569
262.01	2.690
262.37	2.596
262.73	2.436
263.10	2.720
263.46	3.032
263.82	3.112
264.19	3.122
264.55	3.439
264.91	3.285
265.28	3.539
265.64	3.189
266.00	2.727
266.37	2.740
266.73	2.866
267.09	2.550
267.46	2.316
267.82	2.326
268.18	2.536
268.54	2.505
268.91	2.686
269.27	2.707
269.63	2.776
270.00	2.882
270.36	2.806
270.72	2.540
271.08	2.328
271.45	2.263
271.81	2.298
272.17	2.412
272.53	2.123
272.90	1.846
273.26	1.725
273.62	1.859
273.98	1.765
274.35	1.733
274.71	2.027
275.07	2.194
275.43	2.310
275.80	2.364
276.16	2.645
276.52	2.702
276.88	2.817
277.25	2.718
277.61	2.904
277.97	2.903
278.33	2.650
278.69	2.339
279.06	2.481
279.42	2.017
279.78	1.714
280.14	1.488
280.50	1.885
280.87	1.997
281.23	2.202
281.59	2.031
281.95	2.188
282.31	2.531
282.68	2.748
283.04	2.851
283.40	3.153
283.76	3.071
284.12	3.021
284.48	2.811
284.85	2.648
285.21	2.388
285.57	2.381
285.93	2.399
286.29	2.382
286.65	2.303
287.02	2.127
287.38	1.933
287.74	2.081
288.10	2.037
288.46	2.032
288.82	1.871
289.18	2.058
289.54	2.000
289.91	2.069
290.27	2.155
290.63	2.301
290.99	2.453
291.35	2.561
291.71	2.620
292.07	2.476
292.43	2.496
292.79	2.879
293.16	2.931
293.52	3.027
293.88	3.013
294.24	2.919
294.60	2.685
294.96	2.568
295.32	2.702
295.68	2.583
296.04	2.836
296.40	2.865
296.76	2.722
297.12	2.741
297.49	2.824
297.85	2.755
298.21	2.860
298.57	3.024
298.93	3.143
299.29	2.995
299.65	3.008
300.01	2.864
300.37	2.836
300.73	3.107
301.09	3.173
301.45	3.131
301.81	3.032
302.17	2.941
302.53	2.928
302.89	2.968
303.25	2.999
303.61	3.124
303.97	3.102
304.33	3.137
304.69	2.920
305.05	2.773
305.41	2.620
305.77	2.873
306.13	2.856
306.49	2.980
306.85	2.941
307.21	3.009
307.57	3.075
307.93	3.181
308.29	3.250
308.65	3.253
309.01	3.350
309.37	3.573
309.73	3.482
310.09	3.502
310.45	3.466
310.81	3.430
311.17	3.336
311.53	3.305
311.89	3.388
312.25	3.343
312.61	3.461
312.96	3.495
313.32	3.458
313.68	3.381
314.04	3.478
314.40	3.470
314.76	3.536
315.12	3.699
315.48	3.764
315.84	3.616
316.20	3.753
316.56	3.719
316.92	3.639
317.27	3.549
317.63	3.611
317.99	3.647
318.35	3.599
318.71	3.570
319.07	3.537
319.43	3.454
319.79	3.393
320.15	3.272
320.50	3.091
320.86	3.117
321.22	3.165
321.58	3.103
321.94	3.001
322.30	3.056
322.66	3.131
323.01	3.121
323.37	3.159
323.73	3.241
324.09	3.284
324.45	3.444
324.81	3.400
325.17	3.351
325.52	3.455
325.88	3.423
326.24	3.542
326.60	3.719
326.96	3.809
327.31	3.703
327.67	3.727
328.03	3.692
328.39	3.634
328.75	3.691
329.11	3.811
329.46	3.830
329.82	3.944
330.18	3.844
330.54	3.676
330.90	3.682
331.25	3.824
331.61	3.732
331.97	3.709
332.33	3.760
332.68	3.690
333.04	3.575
333.40	3.580
333.76	3.526
334.11	3.437
334.47	3.364
334.83	3.265
335.19	3.239
335.54	3.337
335.90	3.406
336.26	3.365
336.62	3.379
336.97	3.361
337.33	3.293
337.69	3.353
338.05	3.410
338.40	3.438
338.76	3.502
339.12	3.493
339.48	3.535
339.83	3.529
340.19	3.558
340.55	3.520
340.90	3.529
341.26	3.531
341.62	3.436
341.97	3.502
342.33	3.511
342.69	3.487
343.04	3.445
343.40	3.275
343.76	3.258
344.12	3.267
344.47	3.373
344.83	3.321
345.19	3.299
345.54	3.366
345.90	3.335
346.26	3.265
346.61	3.291
346.97	3.270
347.32	3.412
347.68	3.364
348.04	3.356
348.39	3.346
348.75	3.504
349.11	3.506
349.46	3.442
349.82	3.382
350.18	3.434
350.53	3.333
350.89	3.396
351.24	3.371
351.60	3.348
351.96	3.373
352.31	3.363
352.67	3.276
353.02	3.269
353.38	3.250
353.74	3.242
354.09	3.246
354.45	3.360
354.80	3.309
355.16	3.264
355.52	3.304
355.87	3.221
356.23	3.174
356.58	3.166
356.94	3.190
357.29	3.186
357.65	3.159
358.00	3.128
358.36	3.031
358.72	3.099
359.07	3.115
359.43	3.123
359.78	3.190
360.14	3.204
360.49	3.230
360.85	3.233
361.20	3.314
361.56	3.401
361.91	3.412
362.27	3.413
362.62	3.349
362.98	3.316
363.33	3.311
363.69	3.228
364.04	3.207
364.40	3.196
364.75	3.164
365.11	3.174
365.46	3.131
365.82	3.082
366.17	3.110
366.53	3.106
366.88	3.121
367.24	3.142
367.59	3.214
367.95	3.254
368.30	3.239
368.66	3.242
369.01	3.158
369.37	3.194
369.72	3.213
370.08	3.203
370.43	3.195
370.78	3.165
371.14	3.145
371.49	3.132
371.85	3.104
372.20	3.128
372.56	3.179
372.91	3.170
373.26	3.122
373.62	3.116
373.97	3.157
374.33	3.136
374.68	3.182
375.03	3.204
375.39	3.175
375.74	3.209
376.10	3.176
376.45	3.184
376.80	3.210
377.16	3.242
377.51	3.288
377.87	3.260
378.22	3.303
378.57	3.319
378.93	3.319
379.28	3.349
379.63	3.354
379.99	3.402
380.34	3.357
380.70	3.359
381.05	3.392
381.40	3.396
381.76	3.395
382.11	3.427
382.46	3.426
382.82	3.400
383.17	3.425
383.52	3.418
383.88	3.374
384.23	3.367
384.58	3.342
384.94	3.300
385.29	3.291
385.64	3.299
385.99	3.270
386.35	3.278
386.70	3.290
387.05	3.271
387.41	3.273
387.76	3.304
388.11	3.315
388.47	3.382
388.82	3.390
389.17	3.400
389.52	3.401
389.88	3.419
390.23	3.466
390.58	3.496
390.93	3.507
391.29	3.522
391.64	3.517
391.99	3.546
392.34	3.528
392.70	3.519
393.05	3.516
393.40	3.557
393.75	3.549
394.11	3.496
394.46	3.483
394.81	3.491
395.16	3.439
395.52	3.471
395.87	3.449
396.22	3.447
396.57	3.453
396.92	3.439
397.28	3.436
397.63	3.408
397.98	3.452
398.33	3.472
398.68	3.464
399.04	3.496
399.39	3.494
399.74	3.520
400.09	3.510
400.44	3.518
400.80	3.525
401.15	3.527
401.50	3.552
401.85	3.569
402.20	3.561
402.55	3.595
402.90	3.629
403.26	3.620
403.61	3.637
403.96	3.677
404.31	3.709
404.66	3.765
405.01	3.750
405.36	3.806
405.72	3.775
406.07	3.805
406.42	3.797
406.77	3.780
407.12	3.784
407.47	3.798
407.82	3.782
408.17	3.738
408.53	3.707
408.88	3.751
409.23	3.747
409.58	3.763
409.93	3.753
410.28	3.784
410.63	3.816
410.98	3.861
411.33	3.835
411.68	3.861
412.03	3.940
412.38	3.981
412.73	3.991
413.09	3.993
413.44	4.008
413.79	4.058
414.14	4.067
414.49	4.083
414.84	4.096
415.19	4.156
415.54	4.174
415.89	4.198
416.24	4.204
416.59	4.217
416.94	4.253
417.29	4.283
417.64	4.284
417.99	4.310
418.34	4.332
418.69	4.335
419.04	4.346
419.39	4.381
419.74	4.385
420.09	4.413
420.44	4.430
420.79	4.433
421.14	4.437
421.49	4.458
421.84	4.467
422.19	4.472
422.54	4.511
422.89	4.515
423.24	4.516
423.59	4.532
423.94	4.534
424.29	4.552
424.64	4.550
424.99	4.571
425.34	4.577
425.68	4.593
426.03	4.630
426.38	4.610
426.73	4.624
427.08	4.625
427.43	4.655
427.78	4.687
428.13	4.692
428.48	4.738
428.83	4.766
429.18	4.776
429.53	4.788
429.87	4.796
430.22	4.799
430.57	4.808
430.92	4.813
431.27	4.806
431.62	4.806
431.97	4.814
432.32	4.828
432.67	4.817
433.01	4.820
433.36	4.834
433.71	4.842
434.06	4.873
434.41	4.902
434.76	4.951
435.11	4.973
435.45	4.986
435.80	5.007
436.15	5.019
436.50	5.040
436.85	5.060
437.20	5.058
437.54	5.066
437.89	5.068
438.24	5.080
438.59	5.077
438.94	5.084
439.29	5.098
439.63	5.112
439.98	5.119
440.33	5.124
440.68	5.148
441.03	5.172
441.37	5.194
441.72	5.217
442.07	5.221
442.42	5.242
442.76	5.263
443.11	5.278
443.46	5.284
443.81	5.296
444.16	5.303
444.50	5.307
444.85	5.322
445.20	5.333
445.55	5.359
445.89	5.366
446.24	5.360
446.59	5.362
446.94	5.366
447.28	5.372
447.63	5.378
447.98	5.412
448.32	5.434
448.67	5.435
449.02	5.433
449.37	5.423
449.71	5.427
450.06	5.438
450.41	5.461
450.75	5.478
451.10	5.497
451.45	5.519
451.79	5.503
452.14	5.495
452.49	5.506
452.84	5.514
453.18	5.521
453.53	5.551
453.88	5.565
454.22	5.559
454.57	5.560
454.92	5.572
455.26	5.598
455.61	5.622
455.95	5.638
456.30	5.659
456.65	5.681
456.99	5.708
457.34	5.725
457.69	5.754
458.03	5.771
458.38	5.802
458.73	5.820
459.07	5.834
459.42	5.854
459.76	5.867
460.11	5.873
460.46	5.883
460.80	5.896
461.15	5.900
461.49	5.885
461.84	5.906
462.19	5.906
462.53	5.917
462.88	5.912
463.22	5.928
463.57	5.952
463.91	5.976
464.26	6.007
464.61	6.006
464.95	6.023
465.30	6.043
465.64	6.051
465.99	6.080
466.33	6.094
466.68	6.114
467.02	6.127
467.37	6.138
467.71	6.143
468.06	6.146
468.41	6.166
468.75	6.183
469.10	6.195
469.44	6.210
469.79	6.212
470.13	6.238
470.48	6.210
470.82	6.211
471.17	6.220
471.51	6.207
471.86	6.205
472.20	6.201
472.55	6.211
472.89	6.227
473.23	6.231
473.58	6.241
473.92	6.227
474.27	6.252
474.61	6.273
474.96	6.269
475.30	6.267
475.65	6.260
475.99	6.277
476.34	6.280
476.68	6.295
477.02	6.308
477.37	6.307
477.71	6.335
478.06	6.386
478.40	6.440
478.75	6.529
479.09	6.638
479.43	6.739
479.78	6.831
480.12	6.948
480.47	7.072
480.81	7.201
481.15	7.341
481.50	7.464
481.84	7.609
482.19	7.759
482.53	7.888
482.87	7.956
483.22	7.962
483.56	7.910
483.90	7.805
484.25	7.663
484.59	7.534
484.94	7.422
485.28	7.332
485.62	7.206
485.97	7.063
486.31	6.930
486.65	6.865
487.00	6.860
487.34	6.904
487.68	6.979
488.03	7.079
488.37	7.145
488.71	7.173
489.06	7.178
489.40	7.172
489.74	7.170
490.09	7.170
490.43	7.156
490.77	7.145
491.11	7.142
491.46	7.140
491.80	7.128
492.14	7.117
492.49	7.114
492.83	7.104
493.17	7.097
493.51	7.097
493.86	7.106
494.20	7.115
494.54	7.130
494.88	7.130
495.23	7.151
495.57	7.176
495.91	7.211
496.25	7.242
496.60	7.266
496.94	7.295
497.28	7.312
497.62	7.338
497.97	7.353
498.31	7.373
498.65	7.387
498.99	7.399
499.33	7.422
499.68	7.446
500.02	7.456
500.36	7.484
500.70	7.502
501.04	7.537
501.39	7.546
501.73	7.603
502.07	7.642
502.41	7.686
502.75	7.709
503.09	7.749
503.44	7.774
503.78	7.813
504.12	7.839
504.46	7.887
504.80	7.925
505.14	7.970
505.49	7.979
505.83	8.024
506.17	8.054
506.51	8.093
506.85	8.110
507.19	8.155
507.53	8.172
507.87	8.211
508.22	8.243
508.56	8.266
508.90	8.288
509.24	8.313
509.58	8.317
509.92	8.339
510.26	8.379
510.60	8.409
510.94	8.419
511.28	8.452
511.63	8.489
511.97	8.501
512.31	8.518
512.65	8.547
512.99	8.594
513.33	8.636
513.67	8.673
514.01	8.717
514.35	8.774
514.69	8.823
515.03	8.871
515.37	8.893
515.71	8.941
516.05	8.984
516.39	9.014
516.73	9.042
517.07	9.066
517.41	9.098
517.75	9.088
518.09	9.084
518.43	9.099
518.77	9.107
519.11	9.111
519.45	9.115
519.79	9.115
520.13	9.137
520.47	9.137
520.81	9.162
521.15	9.179
521.49	9.239
521.83	9.290
522.17	9.338
522.51	9.385
522.85	9.428
523.19	9.510
523.53	9.607
523.87	9.686
524.21	9.795
524.55	9.872
524.89	9.949
525.23	10.015
525.57	10.083
525.91	10.136
526.25	10.187
526.58	10.241
526.92	10.268
527.26	10.282
527.60	10.298
527.94	10.287
528.28	10.281
528.62	10.265
528.96	10.242
529.30	10.222
529.64	10.205
529.97	10.180
530.31	10.157
530.65	10.135
530.99	10.128
531.33	10.126
531.67	10.136
532.01	10.142
532.35	10.154
532.68	10.161
533.02	10.149
533.36	10.141
533.70	10.145
534.04	10.147
534.38	10.152
534.71	10.152
535.05	10.160
535.39	10.159
535.73	10.181
536.07	10.199
536.41	10.237
536.74	10.283
537.08	10.330
537.42	10.381
537.76	10.426
538.10	10.460
538.43	10.507
538.77	10.531
539.11	10.568
539.45	10.595
539.79	10.632
540.12	10.647
540.46	10.658
540.80	10.659
541.14	10.635
541.47	10.639
541.81	10.641
542.15	10.640
542.49	10.624
542.82	10.602
543.16	10.582
543.50	10.553
543.84	10.558
544.17	10.555
544.51	10.562
544.85	10.585
545.18	10.597
545.52	10.601
545.86	10.597
546.20	10.614
546.53	10.628
546.87	10.631
547.21	10.626
547.54	10.604
547.88	10.615
548.22	10.618
548.55	10.639
548.89	10.633
549.23	10.649
549.56	10.653
549.90	10.689
550.24	10.729
550.57	10.754
550.91	10.779
551.25	10.819
551.58	10.836
551.92	10.849
552.26	10.854
552.59	10.865
552.93	10.865
553.27	10.885
553.60	10.881
553.94	10.875
554.27	10.899
554.61	10.935
554.95	10.942
555.28	10.949
555.62	10.975
555.95	10.987
556.29	11.033
556.63	11.075
556.96	11.102
557.30	11.135
557.63	11.167
557.97	11.192
558.31	11.227
558.64	11.248
558.98	11.277
559.31	11.318
559.65	11.351
559.98	11.355
560.32	11.394
560.65	11.423
560.99	11.452
561.33	11.466
561.66	11.487
562.00	11.483
562.33	11.504
562.67	11.523
563.00	11.554
563.34	11.588
563.67	11.608
564.01	11.619
564.34	11.615
564.68	11.632
565.01	11.659
565.35	11.664
565.68	11.690
566.02	11.724
566.35	11.767
566.69	11.771
567.02	11.779
567.36	11.804
567.69	11.821
568.03	11.861
568.36	11.874
568.69	11.904
569.03	11.951
569.36	11.987
569.70	12.002
570.03	12.010
570.37	12.039
570.70	12.094
571.04	12.129
571.37	12.156
571.70	12.184
572.04	12.211
572.37	12.222
572.71	12.226
573.04	12.254
573.37	12.279
573.71	12.306
574.04	12.323
574.38	12.327
574.71	12.341
575.04	12.364
575.38	12.375
575.71	12.406
576.05	12.441
576.38	12.472
576.71	12.480
577.05	12.502
577.38	12.526
577.71	12.563
578.05	12.567
578.38	12.587
578.71	12.611
579.05	12.624
579.38	12.646
579.71	12.640
580.05	12.649
580.38	12.682
580.71	12.697
581.05	12.716
581.38	12.727
581.71	12.768
582.05	12.785
582.38	12.821
582.71	12.887
583.04	12.893
583.38	12.943
583.71	12.984
584.04	12.998
584.38	13.043
584.71	13.063
585.04	13.097
585.37	13.116
585.71	13.118
586.04	13.124
586.37	13.142
586.70	13.203
587.04	13.227
587.37	13.233
587.70	13.269
588.03	13.298
588.37	13.320
588.70	13.311
589.03	13.345
589.36	13.402
589.69	13.426
590.03	13.422
590.36	13.407
590.69	13.461
591.02	13.478
591.35	13.480
591.69	13.474
592.02	13.505
592.35	13.524
592.68	13.535
593.01	13.558
593.35	13.579
593.68	13.596
594.01	13.619
594.34	13.622
594.67	13.662
595.00	13.674
595.34	13.688
595.67	13.682
596.00	13.725
596.33	13.738
596.66	13.737
596.99	13.758
597.32	13.779
597.65	13.823
597.99	13.823
598.32	13.849
598.65	13.893
598.98	13.918
599.31	13.952
599.64	13.990
599.97	14.012
600.30	14.012
600.63	14.040
600.96	14.080
601.30	14.109
601.63	14.118
601.96	14.136
602.29	14.133
602.62	14.160
602.95	14.192
603.28	14.186
603.61	14.209
603.94	14.250
604.27	14.264
604.60	14.272
604.93	14.255
605.26	14.286
605.59	14.309
605.92	14.365
606.25	14.386
606.58	14.415
606.91	14.429
607.24	14.467
607.57	14.494
607.90	14.503
608.23	14.511
608.56	14.541
608.89	14.541
609.22	14.552
609.55	14.561
609.88	14.572
610.21	14.559
610.54	14.584
610.87	14.572
611.20	14.578
611.53	14.618
611.86	14.661
612.19	14.714
612.52	14.768
612.85	14.798
613.18	14.818
613.51	14.833
613.84	14.842
614.17	14.886
614.49	14.909
614.82	14.931
615.15	14.951
615.48	14.962
615.81	14.974
616.14	15.004
616.47	15.025
616.80	15.032
617.13	15.065
617.46	15.138
617.78	15.157
618.11	15.192
618.44	15.247
618.77	15.280
619.10	15.300
619.43	15.313
619.76	15.334
620.09	15.340
620.41	15.401
620.74	15.450
621.07	15.429
621.40	15.427
621.73	15.477
622.06	15.518
622.38	15.566
622.71	15.610
623.04	15.669
623.37	15.697
623.70	15.726
624.02	15.748
624.35	15.812
624.68	15.854
625.01	15.936
625.34	15.978
625.66	15.993
625.99	16.001
626.32	16.034
626.65	16.048
626.98	16.084
627.30	16.164
627.63	16.190
627.96	16.169
628.29	16.203
628.61	16.237
628.94	16.250
629.27	16.288
629.60	16.353
629.92	16.359
630.25	16.399
630.58	16.419
630.91	16.426
631.23	16.455
631.56	16.491
631.89	16.566
632.21	16.571
632.54	16.569
632.87	16.572
633.19	16.557
633.52	16.603
633.85	16.608
634.18	16.607
634.50	16.649
634.83	16.666
635.16	16.706
635.48	16.692
635.81	16.712
636.14	16.758
636.46	16.812
636.79	16.887
637.11	16.940
637.44	16.989
637.77	16.996
638.09	16.948
638.42	16.960
638.75	16.967
639.07	16.994
639.40	17.002
639.73	17.078
640.05	17.095
640.38	17.066
640.70	17.060
641.03	17.066
641.36	17.172
641.68	17.206
642.01	17.240
642.33	17.310
642.66	17.408
642.98	17.437
643.31	17.442
643.64	17.475
643.96	17.511
644.29	17.563
644.61	17.632
644.94	17.650
645.26	17.735
645.59	17.794
645.91	17.806
646.24	17.829
646.56	17.876
646.89	17.919
647.22	17.997
647.54	18.039
647.87	18.052
648.19	18.041
648.52	18.131
648.84	18.142
649.17	18.152
649.49	18.132
649.82	18.099
650.14	18.118
650.47	18.120
650.79	18.119
651.11	18.125
651.44	18.146
651.76	18.170
652.09	18.150
652.41	18.187
652.74	18.208
653.06	18.300
653.39	18.367
653.71	18.441
654.04	18.479
654.36	18.532
654.68	18.592
655.01	18.642
655.33	18.666
655.66	18.702
655.98	18.727
656.30	18.747
656.63	18.785
656.95	18.821
657.28	18.801
657.60	18.810
657.92	18.765
658.25	18.770
658.57	18.781
658.90	18.840
659.22	18.792
659.54	18.803
659.87	18.834
660.19	18.797
660.51	18.808
660.84	18.860
661.16	18.876
661.48	18.909
661.81	18.951
662.13	18.960
662.45	18.923
662.78	18.998
663.10	19.041
663.42	19.112
663.75	19.159
664.07	19.178
664.39	19.168
664.72	19.239
665.04	19.271
665.36	19.338
665.69	19.397
666.01	19.448
666.33	19.523
666.65	19.501
666.98	19.518
667.30	19.510
667.62	19.508
667.94	19.569
668.27	19.551
668.59	19.619
668.91	19.565
669.23	19.593
669.56	19.626
669.88	19.587
670.20	19.579
670.52	19.528
670.85	19.632
671.17	19.665
671.49	19.681
671.81	19.739
672.13	19.679
672.46	19.764
672.78	19.674
673.10	19.692
673.42	19.711
673.74	19.818
674.07	19.852
674.39	19.818
674.71	19.867
675.03	19.861
675.35	19.874
675.67	19.931
676.00	19.993
676.32	20.108
676.64	20.160
676.96	20.184
677.28	20.178
677.60	20.265
677.92	20.341
678.25	20.361
678.57	20.408
678.89	20.434
679.21	20.461
679.53	20.482
679.85	20.487
680.17	20.492
680.49	20.480
680.81	20.544
681.13	20.575
681.46	20.596
681.78	20.631
682.10	20.642
682.42	20.675
682.74	20.750
683.06	20.669
683.38	20.709
683.70	20.755
684.02	20.813
684.34	20.778
684.66	20.760
684.98	20.792
685.30	20.849
685.62	20.883
685.94	20.876
686.26	20.850
686.58	20.956
686.90	21.003
687.22	21.062
687.54	21.137
687.86	21.190
688.18	21.199
688.50	21.145
688.82	21.043
689.14	21.012
689.46	21.017
689.78	21.013
690.10	20.974
690.42	20.917
690.74	20.877
691.06	20.891
691.38	20.918
691.70	20.976
692.02	21.008
692.34	21.096
692.66	21.141
692.98	21.168
693.30	21.238
693.62	21.246
693.94	21.266
694.26	21.278
694.57	21.171
694.89	21.210
695.21	21.240
695.53	21.244
695.85	21.252
696.17	21.274
696.49	21.299
696.81	21.305
697.13	21.292
697.44	21.334
697.76	21.334
698.08	21.430
698.40	21.387
698.72	21.324
699.04	21.295
699.36	21.268
699.67	21.245
699.99	21.178
700.31	21.026
700.63	21.063
700.95	21.031
701.27	20.912
701.58	20.777
701.90	20.696
702.22	20.696
702.54	20.689
702.86	20.651
703.17	20.590
703.49	20.574
703.81	20.751
704.13	20.744
704.45	20.714
704.76	20.781
705.08	20.832
705.40	20.843
705.72	20.872
706.03	20.848
706.35	20.895
706.67	20.856
706.99	20.871
707.30	20.838
707.62	20.742
707.94	20.745
708.26	20.790
708.57	20.784
708.89	20.896
709.21	20.865
709.53	20.868
709.84	20.845
710.16	20.912
710.48	20.989
710.79	20.946
711.11	21.076
711.43	21.009
711.74	20.910
712.06	20.990
712.38	20.910
712.69	20.929
713.01	21.044
713.33	21.073
713.64	21.119
713.96	21.138
714.28	21.334
714.59	21.343
714.91	21.542
715.23	21.678
715.54	21.635
715.86	21.782
716.17	21.886
716.49	21.914
716.81	21.970
717.12	21.953
717.44	21.983
717.76	21.857
718.07	21.785
718.39	21.715
718.70	21.807
719.02	21.901
719.33	21.808
719.65	21.693
719.97	21.626
720.28	21.647
720.60	21.759
720.91	21.789
721.23	21.777
721.54	21.905
721.86	21.946
722.17	21.815
722.49	21.846
722.81	21.879
723.12	22.012
723.44	22.134
723.75	22.091
724.07	22.053
724.38	22.007
724.70	22.117
725.01	22.189
725.33	22.281
725.64	22.315
725.96	22.283
726.27	22.219
726.59	22.116
726.90	22.063
727.22	22.096
727.53	22.063
727.84	22.015
728.16	21.917
728.47	21.794
728.79	21.620
729.10	21.677
729.42	21.714
729.73	21.780
730.05	21.761
730.36	21.670
730.67	21.673
730.99	21.699
731.30	21.646
731.62	21.547
731.93	21.510
732.24	21.437
732.56	21.310
732.87	21.037
733.19	21.028
733.50	20.956
733.81	20.887
734.13	20.765
734.44	20.743
734.76	20.890
735.07	20.802
735.38	20.719
735.70	20.767
736.01	20.619
736.32	20.791
736.64	20.794
736.95	20.712
737.26	20.691
737.58	20.692
737.89	20.641
738.20	20.270
738.52	20.257
738.83	20.290
739.14	20.392
739.45	20.473
739.77	20.405
740.08	20.192
740.39	20.243
740.71	20.237
741.02	20.225
741.33	20.266
741.64	20.391
741.96	20.305
742.27	20.082
742.58	19.791
742.90	19.780
743.21	19.618
743.52	19.678
743.83	19.738
744.14	19.747
744.46	19.590
744.77	19.356
745.08	19.417
745.39	19.475
745.71	19.586
746.02	19.625
746.33	19.577
746.64	19.732
746.95	19.803
747.27	19.832
747.58	19.896
747.89	19.964
748.20	20.039
748.51	20.030
748.82	20.221
749.14	20.164
749.45	20.046
749.76	20.175
750.07	20.096
750.38	19.884
750.69	19.783
751.01	19.834
751.32	19.780
751.63	19.732
751.94	19.628
752.25	19.554
752.56	19.619
752.87	19.684
753.18	19.543
753.49	19.423
753.81	19.479
754.12	19.545
754.43	19.514
754.74	19.631
755.05	19.650
755.36	19.889
755.67	19.971
755.98	20.320
756.29	20.698
756.60	20.863
756.91	21.193
757.22	21.489
757.53	21.799
757.84	22.028
758.15	22.228
758.46	22.683
758.77	22.962
759.09	23.214
759.40	23.223
759.71	23.388
760.02	23.493
760.33	23.584
760.64	23.604
760.95	23.582
761.26	23.599
761.57	23.632
761.88	23.527
762.18	23.451
762.49	23.406
762.80	23.264
763.11	23.038
763.42	22.901
763.73	22.752
764.04	22.551
764.35	22.296
764.66	21.917
764.97	21.788
765.28	21.567
765.59	21.256
765.90	20.841
766.21	20.741
766.52	20.604
766.83	20.426
767.14	20.174
767.44	19.966
767.75	19.738
768.06	19.606
768.37	19.181
768.68	18.977
768.99	18.768
769.30	18.507
769.61	18.151
769.91	17.810
770.22	17.798
770.53	17.499
770.84	17.589
771.15	17.892
771.46	17.963
771.77	17.782
772.07	17.855
772.38	17.745
772.69	17.851
773.00	17.766
773.31	18.172
773.61	17.928
773.92	18.196
774.23	18.021
774.54	17.772
774.85	17.616
775.15	17.847
775.46	17.533
775.77	17.601
776.08	17.634
776.39	17.658
776.69	17.389
777.00	17.392
777.31	17.428
777.62	17.791
777.92	17.866
778.23	18.135
778.54	18.011
778.85	18.078
779.15	18.151
779.46	18.207
779.77	18.238
780.07	18.011
780.38	17.894
780.69	18.016
781.00	17.850
781.30	17.574
781.61	17.469
781.92	17.507
782.22	17.493
782.53	17.591
782.84	17.620
783.14	17.849
783.45	18.038
783.76	18.510
784.06	18.185
784.37	18.163
784.68	18.416
784.98	18.707
785.29	19.014
785.60	19.222
785.90	19.360
786.21	19.433
786.51	19.573
786.82	19.507
787.13	19.630
787.43	19.813
787.74	19.731
788.04	19.778
788.35	19.613
788.66	19.346
788.96	19.263
789.27	19.405
789.57	19.638
789.88	19.844
790.19	20.041
790.49	20.050
790.80	20.242
791.10	20.379
791.41	20.308
791.71	20.163
792.02	20.563
792.32	20.635
792.63	20.379
792.93	19.949
793.24	19.486
793.54	19.426
793.85	19.571
794.15	19.584
794.46	19.624
794.76	19.462
795.07	19.795
795.37	19.598
795.68	19.596
795.98	19.734
796.29	19.859
796.59	19.945
796.90	19.913
797.20	19.678
797.51	19.672
797.81	19.540
798.12	19.708
798.42	19.540
798.72	19.624
799.03	19.685
799.33	19.471
799.64	19.563
799.94	19.579
800.25	19.541
800.55	19.539
800.85	19.382
801.16	19.240
801.46	19.292
801.77	18.866
802.07	18.592
802.37	18.305
802.68	18.387
802.98	18.134
803.28	18.292
803.59	18.368
803.89	18.431
804.20	18.498
804.50	18.777
804.80	18.638
805.11	19.083
805.41	19.458
805.71	19.793
806.02	19.778
806.32	20.175
806.62	19.692
806.93	19.558
807.23	19.517
807.53	19.060
807.83	19.192
808.14	19.404
808.44	19.638
808.74	19.503
809.05	19.532
809.35	19.628
809.65	19.289
809.95	19.571
810.26	19.835
810.56	20.125
810.86	21.035
811.16	20.833
811.47	20.812
811.77	21.050
812.07	21.247
812.37	21.112
812.68	20.983
812.98	21.708
813.28	21.844
813.58	21.759
813.88	21.116
814.19	20.835
814.49	21.051
814.79	21.285
815.09	20.893
815.39	20.876
815.70	21.199
816.00	21.229
816.30	21.006
816.60	20.934
816.90	21.181
817.20	21.682
817.50	22.043
817.81	22.189
818.11	22.456
818.41	22.769
818.71	22.865
819.01	22.980
819.31	23.168
819.61	23.178
819.92	23.313
820.22	23.254
820.52	23.302
820.82	23.260
821.12	23.260
821.42	23.206
821.72	23.145
822.02	23.045
822.32	22.929
822.62	22.862
822.92	22.872
823.22	22.768
823.52	22.789
823.83	22.653
824.13	22.619
824.43	22.572
824.73	22.477
825.03	22.467
825.33	22.494
825.63	22.542
825.93	22.471
826.23	22.420
826.53	22.415
826.83	22.541
827.13	22.576
827.43	22.395
827.73	22.360
828.03	22.370
828.33	22.301
828.63	22.441
828.93	22.523
829.23	22.517
829.53	22.241
829.83	22.582
830.13	22.037
830.42	21.867
830.72	22.116
831.02	22.031
831.32	22.109
831.62	21.995
831.92	21.895
832.22	21.644
832.52	21.601
832.82	21.887
833.12	21.530
833.42	21.609
833.72	21.790
834.01	21.526
834.31	21.474
834.61	21.278
834.91	21.100
835.21	20.938
835.51	21.046
835.81	20.952
836.11	20.635
836.40	20.578
836.70	20.692
837.00	20.502
837.30	20.723
837.60	20.944
837.90	21.261
838.19	22.086
838.49	21.600
838.79	21.593
839.09	21.912
839.39	21.339
839.68	21.465
839.98	21.371
840.28	21.228
840.58	21.459
840.88	21.117
841.17	20.730
841.47	19.983
841.77	20.898
842.07	20.667
842.36	20.751
842.66	20.828
842.96	21.269
843.26	20.533
843.55	19.846
843.85	18.442
844.15	17.681
844.45	17.805
844.74	17.783
845.04	17.101
845.34	15.768
845.63	13.057
845.93	14.430
846.23	13.436
846.53	14.485
846.82	13.780
847.12	13.897
847.42	12.376
847.71	11.801
848.01	12.271
848.31	12.677
848.60	13.698
848.90	13.431
849.19	13.055
849.49	13.364
849.79	12.203
850.08	14.200
850.38	15.527
850.68	18.541
850.97	19.063
851.27	18.092
851.56	17.931
851.86	17.840
852.16	20.007
852.45	18.883
852.75	17.981
853.04	17.933
853.34	17.642
853.64	16.415
853.93	15.977
854.23	16.409
854.52	16.007
854.82	15.351
855.11	15.453
855.41	15.169
855.70	16.952
856.00	17.645
856.30	18.239
856.59	17.903
856.89	18.521
857.18	17.428
857.48	17.733
857.77	16.802
858.07	17.388
858.36	15.565
858.66	16.074
858.95	15.301
859.25	14.791
859.54	14.875
859.84	15.258
860.13	15.665
860.42	17.088
860.72	16.885
861.01	17.809
861.31	16.692
861.60	18.329
861.90	15.773
862.19	15.181
862.49	14.380
862.78	14.794
863.07	15.083
863.37	13.599
863.66	11.452
863.96	11.182
864.25	11.126
864.54	12.458
864.84	13.327
865.13	13.938
865.43	14.373
865.72	11.803
866.01	19.402
866.31	21.830
866.60	-1.083
866.89	20.588
>>>>>End Spectral Data<<<<<
