OOIBase32 Version 2.0.0.6 Data File
++++++++++++++++++++++++++++++++++++
Date: 01-23-2012, 22:02:31
User: Valued Ocean Optics Customer
Spectrometer Serial Number: USB2E2917
Spectrometer Channel: Master
Integration Time (msec): 5
Spectra Averaged: 10
Boxcar Smoothing: 5
Correct for Electrical Dark: Enabled
Time Normalized: Disabled
Dual-beam Reference: Disabled
Reference Channel: Master
Temperature: Not acquired
Spectrometer Type: S2000
ADC Type: USB2000
Number of Pixels in File: 2048
Graph Title: 
>>>>>Begin Spectral Data<<<<<
180.30	0.000
180.67	0.000
181.03	247.251
181.40	-52.045
181.77	1725.933
182.14	21.529
182.51	-27.330
182.88	3695.233
183.25	174.139
183.62	-8.315
183.99	56.716
184.36	-89.019
184.73	204.310
185.10	-127.856
185.46	98.938
185.83	114.473
186.20	101.279
186.57	-31.583
186.94	-101.005
187.31	72.188
187.68	-265.580
188.05	-2.714
188.42	23.264
188.78	18.670
189.15	4.343
189.52	1.057
189.89	-8.278
190.26	-32.564
190.63	-9.769
191.00	-7.745
191.37	10.540
191.73	13.917
192.10	22.879
192.47	11.545
192.84	10.622
193.21	14.968
193.58	16.821
193.94	21.095
194.31	14.276
194.68	12.378
195.05	3.082
195.42	-7.131
195.79	-16.845
196.15	-14.982
196.52	-10.107
196.89	-19.331
197.26	-16.735
197.63	-21.702
198.00	-25.093
198.36	-11.657
198.73	-13.125
199.10	-7.866
199.47	-3.762
199.84	-6.685
200.20	-0.036
200.57	-20.952
200.94	-16.500
201.31	-22.726
201.68	-2.625
202.04	-8.344
202.41	-3.795
202.78	-1.920
203.15	-4.076
203.51	-26.759
203.88	-10.473
204.25	-23.535
204.62	-0.673
204.98	8.654
205.35	14.753
205.72	16.850
206.09	27.987
206.46	31.975
206.82	28.700
207.19	23.210
207.56	30.591
207.92	16.965
208.29	20.714
208.66	9.664
209.03	5.375
209.39	-1.960
209.76	-8.393
210.13	-20.571
210.50	-32.448
210.86	-22.694
211.23	3.499
211.60	4.654
211.96	18.086
212.33	15.554
212.70	32.867
213.07	35.180
213.43	33.350
213.80	25.920
214.17	26.053
214.53	25.319
214.90	25.744
215.27	21.213
215.63	21.106
216.00	17.890
216.37	22.174
216.74	6.010
217.10	5.410
217.47	7.788
217.84	22.945
218.20	27.536
218.57	34.040
218.94	23.861
219.30	23.161
219.67	20.986
220.04	14.574
220.40	4.336
220.77	1.006
221.13	-3.902
221.50	-7.846
221.87	-13.699
222.23	-16.880
222.60	-13.671
222.97	-8.149
223.33	-14.824
223.70	-10.615
224.07	-3.790
224.43	1.243
224.80	4.179
225.16	5.039
225.53	7.809
225.90	3.721
226.26	2.490
226.63	1.800
226.99	1.959
227.36	3.075
227.73	1.994
228.09	-1.415
228.46	-1.584
228.82	-0.407
229.19	0.024
229.56	-4.045
229.92	-2.119
230.29	-1.044
230.65	-0.810
231.02	0.413
231.38	0.239
231.75	0.856
232.12	4.081
232.48	4.550
232.85	3.930
233.21	6.043
233.58	9.050
233.94	10.443
234.31	10.242
234.68	10.670
235.04	9.358
235.41	10.539
235.77	10.079
236.14	8.786
236.50	7.090
236.87	7.659
237.23	5.393
237.60	5.568
237.96	5.449
238.33	6.265
238.69	6.332
239.06	5.869
239.42	5.403
239.79	5.453
240.15	5.869
240.52	6.866
240.88	6.874
241.25	7.169
241.61	6.999
241.98	7.032
242.34	6.680
242.71	6.657
243.07	7.037
243.44	7.269
243.80	7.337
244.17	7.486
244.53	7.416
244.90	7.173
245.26	7.338
245.63	7.314
245.99	7.348
246.36	7.587
246.72	7.391
247.09	7.251
247.45	6.894
247.81	6.465
248.18	6.126
248.54	5.861
248.91	5.578
249.27	5.573
249.64	5.488
250.00	5.766
250.36	5.553
250.73	5.719
251.09	6.205
251.46	6.837
251.82	7.777
252.19	8.078
252.55	7.654
252.91	8.077
253.28	7.006
253.64	6.756
254.01	6.151
254.37	6.095
254.73	6.321
255.10	6.280
255.46	5.748
255.83	5.295
256.19	5.406
256.55	5.884
256.92	5.877
257.28	6.260
257.65	6.359
258.01	6.385
258.37	6.228
258.74	6.338
259.10	6.097
259.46	6.393
259.83	6.597
260.19	6.436
260.55	6.185
260.92	6.214
261.28	6.224
261.64	6.283
262.01	6.427
262.37	6.453
262.73	5.771
263.10	5.791
263.46	5.989
263.82	5.922
264.19	5.938
264.55	6.058
264.91	6.174
265.28	6.196
265.64	5.638
266.00	5.364
266.37	5.337
266.73	5.831
267.09	5.929
267.46	5.853
267.82	5.867
268.18	5.974
268.54	6.100
268.91	6.281
269.27	6.352
269.63	6.690
270.00	6.745
270.36	6.714
270.72	6.511
271.08	6.313
271.45	6.057
271.81	6.227
272.17	6.214
272.53	6.037
272.90	5.604
273.26	5.375
273.62	5.446
273.98	5.610
274.35	5.509
274.71	5.788
275.07	5.832
275.43	6.078
275.80	5.811
276.16	6.034
276.52	5.969
276.88	6.061
277.25	6.201
277.61	6.157
277.97	5.872
278.33	5.732
278.69	5.357
279.06	5.557
279.42	5.155
279.78	5.117
280.14	4.877
280.50	4.986
280.87	5.318
281.23	5.413
281.59	5.321
281.95	5.363
282.31	5.631
282.68	5.758
283.04	5.682
283.40	5.903
283.76	5.965
284.12	5.999
284.48	6.028
284.85	5.805
285.21	5.652
285.57	5.860
285.93	5.965
286.29	5.995
286.65	6.040
287.02	6.015
287.38	6.105
287.74	6.187
288.10	5.979
288.46	5.925
288.82	5.935
289.18	5.882
289.54	5.666
289.91	5.809
290.27	5.711
290.63	5.726
290.99	5.716
291.35	5.724
291.71	5.935
292.07	6.091
292.43	6.300
292.79	6.683
293.16	6.823
293.52	6.945
293.88	6.875
294.24	6.961
294.60	6.901
294.96	7.036
295.32	7.149
295.68	6.996
296.04	7.376
296.40	7.388
296.76	7.218
297.12	7.430
297.49	7.634
297.85	7.794
298.21	8.105
298.57	8.433
298.93	8.629
299.29	8.773
299.65	8.896
300.01	9.057
300.37	9.192
300.73	9.605
301.09	9.813
301.45	9.895
301.81	9.908
302.17	9.913
302.53	10.110
302.89	10.238
303.25	10.256
303.61	10.593
303.97	10.531
304.33	10.613
304.69	10.410
305.05	10.455
305.41	10.578
305.77	10.810
306.13	10.943
306.49	10.940
306.85	11.114
307.21	11.287
307.57	11.371
307.93	11.540
308.29	11.707
308.65	11.778
309.01	11.765
309.37	11.903
309.73	11.908
310.09	11.914
310.45	11.915
310.81	11.841
311.17	11.648
311.53	11.628
311.89	11.641
312.25	11.644
312.61	11.771
312.96	11.983
313.32	11.934
313.68	11.924
314.04	12.057
314.40	12.149
314.76	12.304
315.12	12.524
315.48	12.535
315.84	12.435
316.20	12.397
316.56	12.373
316.92	12.229
317.27	12.134
317.63	12.041
317.99	11.944
318.35	11.917
318.71	11.830
319.07	11.854
319.43	11.908
319.79	11.883
320.15	11.851
320.50	11.798
320.86	11.787
321.22	11.929
321.58	12.087
321.94	12.025
322.30	11.965
322.66	11.948
323.01	11.863
323.37	11.766
323.73	11.749
324.09	11.850
324.45	11.957
324.81	11.821
325.17	11.658
325.52	11.598
325.88	11.538
326.24	11.578
326.60	11.582
326.96	11.663
327.31	11.582
327.67	11.655
328.03	11.583
328.39	11.484
328.75	11.570
329.11	11.648
329.46	11.546
329.82	11.532
330.18	11.411
330.54	11.422
330.90	11.281
331.25	11.298
331.61	11.180
331.97	11.073
332.33	11.143
332.68	11.098
333.04	11.033
333.40	11.060
333.76	11.156
334.11	11.183
334.47	11.172
334.83	11.150
335.19	11.172
335.54	11.278
335.90	11.254
336.26	11.163
336.62	11.174
336.97	11.141
337.33	11.132
337.69	11.073
338.05	11.063
338.40	10.921
338.76	10.946
339.12	10.854
339.48	10.860
339.83	10.947
340.19	10.915
340.55	10.801
340.90	10.794
341.26	10.738
341.62	10.649
341.97	10.680
342.33	10.838
342.69	10.766
343.04	10.763
343.40	10.602
343.76	10.535
344.12	10.563
344.47	10.624
344.83	10.562
345.19	10.536
345.54	10.598
345.90	10.645
346.26	10.485
346.61	10.590
346.97	10.500
347.32	10.508
347.68	10.396
348.04	10.314
348.39	10.248
348.75	10.358
349.11	10.328
349.46	10.261
349.82	10.127
350.18	10.128
350.53	9.926
350.89	10.011
351.24	9.915
351.60	9.970
351.96	9.930
352.31	9.997
352.67	9.865
353.02	9.893
353.38	9.852
353.74	9.854
354.09	9.850
354.45	10.009
354.80	9.911
355.16	9.901
355.52	9.884
355.87	9.836
356.23	9.711
356.58	9.789
356.94	9.725
357.29	9.741
357.65	9.668
358.00	9.632
358.36	9.463
358.72	9.497
359.07	9.530
359.43	9.504
359.78	9.577
360.14	9.609
360.49	9.545
360.85	9.520
361.20	9.505
361.56	9.524
361.91	9.511
362.27	9.591
362.62	9.560
362.98	9.538
363.33	9.491
363.69	9.455
364.04	9.420
364.40	9.396
364.75	9.416
365.11	9.417
365.46	9.415
365.82	9.373
366.17	9.285
366.53	9.338
366.88	9.360
367.24	9.409
367.59	9.352
367.95	9.383
368.30	9.328
368.66	9.262
369.01	9.234
369.37	9.248
369.72	9.205
370.08	9.236
370.43	9.121
370.78	9.078
371.14	9.014
371.49	9.036
371.85	9.010
372.20	9.061
372.56	9.079
372.91	9.025
373.26	8.969
373.62	9.000
373.97	9.013
374.33	9.057
374.68	9.008
375.03	9.020
375.39	8.975
375.74	8.930
376.10	8.841
376.45	8.829
376.80	8.820
377.16	8.781
377.51	8.772
377.87	8.672
378.22	8.677
378.57	8.718
378.93	8.692
379.28	8.760
379.63	8.754
379.99	8.798
380.34	8.781
380.70	8.812
381.05	8.785
381.40	8.747
381.76	8.751
382.11	8.742
382.46	8.665
382.82	8.652
383.17	8.547
383.52	8.572
383.88	8.542
384.23	8.537
384.58	8.513
384.94	8.531
385.29	8.571
385.64	8.607
385.99	8.581
386.35	8.579
386.70	8.570
387.05	8.522
387.41	8.446
387.76	8.396
388.11	8.343
388.47	8.328
388.82	8.304
389.17	8.247
389.52	8.202
389.88	8.154
390.23	8.135
390.58	8.137
390.93	8.135
391.29	8.144
391.64	8.143
391.99	8.141
392.34	8.099
392.70	8.058
393.05	8.033
393.40	8.003
393.75	7.979
394.11	7.963
394.46	7.892
394.81	7.861
395.16	7.833
395.52	7.818
395.87	7.746
396.22	7.693
396.57	7.686
396.92	7.651
397.28	7.641
397.63	7.584
397.98	7.563
398.33	7.578
398.68	7.593
399.04	7.565
399.39	7.515
399.74	7.545
400.09	7.562
400.44	7.536
400.80	7.505
401.15	7.486
401.50	7.510
401.85	7.530
402.20	7.479
402.55	7.444
402.90	7.425
403.26	7.439
403.61	7.413
403.96	7.399
404.31	7.379
404.66	7.393
405.01	7.372
405.36	7.346
405.72	7.300
406.07	7.315
406.42	7.301
406.77	7.257
407.12	7.224
407.47	7.228
407.82	7.175
408.17	7.146
408.53	7.117
408.88	7.132
409.23	7.131
409.58	7.086
409.93	7.032
410.28	7.063
410.63	7.085
410.98	7.083
411.33	7.046
411.68	7.027
412.03	7.053
412.38	7.081
412.73	7.011
413.09	6.996
413.44	6.997
413.79	7.008
414.14	6.972
414.49	6.939
414.84	6.934
415.19	6.950
415.54	6.973
415.89	6.935
416.24	6.881
416.59	6.888
416.94	6.857
417.29	6.852
417.64	6.836
417.99	6.831
418.34	6.826
418.69	6.804
419.04	6.776
419.39	6.776
419.74	6.773
420.09	6.790
420.44	6.782
420.79	6.791
421.14	6.768
421.49	6.761
421.84	6.754
422.19	6.747
422.54	6.757
422.89	6.758
423.24	6.728
423.59	6.730
423.94	6.727
424.29	6.730
424.64	6.729
424.99	6.765
425.34	6.771
425.68	6.775
426.03	6.790
426.38	6.774
426.73	6.785
427.08	6.808
427.43	6.817
427.78	6.793
428.13	6.801
428.48	6.806
428.83	6.798
429.18	6.777
429.53	6.764
429.87	6.757
430.22	6.745
430.57	6.756
430.92	6.750
431.27	6.741
431.62	6.728
431.97	6.695
432.32	6.685
432.67	6.684
433.01	6.689
433.36	6.694
433.71	6.693
434.06	6.691
434.41	6.691
434.76	6.690
435.11	6.667
435.45	6.682
435.80	6.694
436.15	6.688
436.50	6.674
436.85	6.671
437.20	6.655
437.54	6.667
437.89	6.651
438.24	6.645
438.59	6.643
438.94	6.659
439.29	6.659
439.63	6.648
439.98	6.646
440.33	6.632
440.68	6.635
441.03	6.641
441.37	6.610
441.72	6.633
442.07	6.619
442.42	6.615
442.76	6.606
443.11	6.604
443.46	6.607
443.81	6.604
444.16	6.611
444.50	6.601
444.85	6.588
445.20	6.600
445.55	6.593
445.89	6.587
446.24	6.577
446.59	6.567
446.94	6.563
447.28	6.560
447.63	6.554
447.98	6.557
448.32	6.575
448.67	6.574
449.02	6.555
449.37	6.555
449.71	6.550
450.06	6.539
450.41	6.551
450.75	6.533
451.10	6.508
451.45	6.501
451.79	6.477
452.14	6.444
452.49	6.433
452.84	6.436
453.18	6.397
453.53	6.391
453.88	6.394
454.22	6.379
454.57	6.385
454.92	6.416
455.26	6.419
455.61	6.423
455.95	6.438
456.30	6.451
456.65	6.437
456.99	6.456
457.34	6.454
457.69	6.466
458.03	6.460
458.38	6.458
458.73	6.454
459.07	6.455
459.42	6.456
459.76	6.436
460.11	6.419
460.46	6.423
460.80	6.428
461.15	6.436
461.49	6.411
461.84	6.414
462.19	6.409
462.53	6.399
462.88	6.386
463.22	6.363
463.57	6.378
463.91	6.404
464.26	6.418
464.61	6.401
464.95	6.376
465.30	6.375
465.64	6.382
465.99	6.380
466.33	6.374
466.68	6.382
467.02	6.408
467.37	6.419
467.71	6.405
468.06	6.384
468.41	6.397
468.75	6.395
469.10	6.388
469.44	6.362
469.79	6.339
470.13	6.354
470.48	6.319
470.82	6.296
471.17	6.264
471.51	6.241
471.86	6.232
472.20	6.209
472.55	6.216
472.89	6.222
473.23	6.228
473.58	6.234
473.92	6.203
474.27	6.198
474.61	6.182
474.96	6.171
475.30	6.160
475.65	6.154
475.99	6.147
476.34	6.140
476.68	6.128
477.02	6.120
477.37	6.108
477.71	6.113
478.06	6.116
478.40	6.167
478.75	6.224
479.09	6.310
479.43	6.381
479.78	6.466
480.12	6.549
480.47	6.646
480.81	6.747
481.15	6.864
481.50	6.973
481.84	7.100
482.19	7.217
482.53	7.318
482.87	7.353
483.22	7.324
483.56	7.235
483.90	7.117
484.25	6.970
484.59	6.828
484.94	6.702
485.28	6.587
485.62	6.444
485.97	6.295
486.31	6.156
486.65	6.067
487.00	6.064
487.34	6.101
487.68	6.153
488.03	6.213
488.37	6.258
488.71	6.270
489.06	6.264
489.40	6.264
489.74	6.242
490.09	6.228
490.43	6.208
490.77	6.171
491.11	6.139
491.46	6.125
491.80	6.116
492.14	6.086
492.49	6.067
492.83	6.029
493.17	5.990
493.51	5.964
493.86	5.948
494.20	5.934
494.54	5.911
494.88	5.909
495.23	5.898
495.57	5.894
495.91	5.915
496.25	5.896
496.60	5.878
496.94	5.876
497.28	5.877
497.62	5.862
497.97	5.864
498.31	5.867
498.65	5.830
498.99	5.830
499.33	5.824
499.68	5.807
500.02	5.804
500.36	5.818
500.70	5.801
501.04	5.787
501.39	5.764
501.73	5.748
502.07	5.735
502.41	5.748
502.75	5.729
503.09	5.719
503.44	5.725
503.78	5.736
504.12	5.738
504.46	5.757
504.80	5.762
505.14	5.778
505.49	5.778
505.83	5.788
506.17	5.790
506.51	5.799
506.85	5.788
507.19	5.777
507.53	5.777
507.87	5.772
508.22	5.761
508.56	5.758
508.90	5.742
509.24	5.733
509.58	5.724
509.92	5.713
510.26	5.688
510.60	5.700
510.94	5.696
511.28	5.678
511.63	5.690
511.97	5.682
512.31	5.675
512.65	5.689
512.99	5.701
513.33	5.702
513.67	5.725
514.01	5.748
514.35	5.746
514.69	5.758
515.03	5.770
515.37	5.767
515.71	5.779
516.05	5.793
516.39	5.785
516.73	5.785
517.07	5.786
517.41	5.780
517.75	5.769
518.09	5.748
518.43	5.725
518.77	5.710
519.11	5.694
519.45	5.670
519.79	5.665
520.13	5.664
520.47	5.646
520.81	5.638
521.15	5.632
521.49	5.651
521.83	5.664
522.17	5.691
522.51	5.714
522.85	5.719
523.19	5.760
523.53	5.813
523.87	5.872
524.21	5.928
524.55	5.982
524.89	6.017
525.23	6.047
525.57	6.090
525.91	6.115
526.25	6.138
526.58	6.165
526.92	6.184
527.26	6.177
527.60	6.164
527.94	6.137
528.28	6.108
528.62	6.091
528.96	6.049
529.30	6.005
529.64	5.974
529.97	5.932
530.31	5.895
530.65	5.847
530.99	5.820
531.33	5.796
531.67	5.799
532.01	5.794
532.35	5.785
532.68	5.789
533.02	5.782
533.36	5.754
533.70	5.748
534.04	5.734
534.38	5.724
534.71	5.698
535.05	5.682
535.39	5.644
535.73	5.630
536.07	5.615
536.41	5.627
536.74	5.645
537.08	5.670
537.42	5.680
537.76	5.704
538.10	5.722
538.43	5.745
538.77	5.762
539.11	5.790
539.45	5.807
539.79	5.821
540.12	5.821
540.46	5.809
540.80	5.799
541.14	5.776
541.47	5.753
541.81	5.738
542.15	5.720
542.49	5.693
542.82	5.661
543.16	5.633
543.50	5.592
543.84	5.555
544.17	5.534
544.51	5.523
544.85	5.521
545.18	5.524
545.52	5.503
545.86	5.468
546.20	5.454
546.53	5.437
546.87	5.394
547.21	5.376
547.54	5.367
547.88	5.361
548.22	5.354
548.55	5.344
548.89	5.337
549.23	5.332
549.56	5.333
549.90	5.335
550.24	5.319
550.57	5.337
550.91	5.328
551.25	5.318
551.58	5.303
551.92	5.290
552.26	5.274
552.59	5.244
552.93	5.226
553.27	5.243
553.60	5.205
553.94	5.221
554.27	5.197
554.61	5.229
554.95	5.244
555.28	5.258
555.62	5.257
555.95	5.267
556.29	5.267
556.63	5.271
556.96	5.256
557.30	5.278
557.63	5.274
557.97	5.269
558.31	5.253
558.64	5.242
558.98	5.231
559.31	5.236
559.65	5.231
559.98	5.217
560.32	5.225
560.65	5.232
560.99	5.233
561.33	5.232
561.66	5.251
562.00	5.258
562.33	5.260
562.67	5.263
563.00	5.281
563.34	5.289
563.67	5.298
564.01	5.293
564.34	5.280
564.68	5.289
565.01	5.275
565.35	5.267
565.68	5.253
566.02	5.237
566.35	5.248
566.69	5.220
567.02	5.231
567.36	5.252
567.69	5.272
568.03	5.284
568.36	5.271
568.69	5.273
569.03	5.272
569.36	5.270
569.70	5.265
570.03	5.267
570.37	5.273
570.70	5.277
571.04	5.267
571.37	5.250
571.70	5.253
572.04	5.253
572.37	5.254
572.71	5.252
573.04	5.259
573.37	5.284
573.71	5.273
574.04	5.263
574.38	5.239
574.71	5.237
575.04	5.227
575.38	5.199
575.71	5.186
576.05	5.207
576.38	5.200
576.71	5.182
577.05	5.157
577.38	5.158
577.71	5.170
578.05	5.151
578.38	5.147
578.71	5.161
579.05	5.159
579.38	5.183
579.71	5.133
580.05	5.149
580.38	5.143
580.71	5.136
581.05	5.107
581.38	5.083
581.71	5.093
582.05	5.087
582.38	5.085
582.71	5.096
583.04	5.056
583.38	5.089
583.71	5.073
584.04	5.078
584.38	5.072
584.71	5.095
585.04	5.110
585.37	5.127
585.71	5.110
586.04	5.121
586.37	5.123
586.70	5.159
587.04	5.138
587.37	5.141
587.70	5.155
588.03	5.173
588.37	5.151
588.70	5.149
589.03	5.130
589.36	5.131
589.69	5.090
590.03	5.052
590.36	5.008
590.69	5.021
591.02	5.007
591.35	4.981
591.69	4.965
592.02	4.972
592.35	4.953
592.68	4.953
593.01	4.965
593.35	4.985
593.68	5.015
594.01	5.021
594.34	4.995
594.67	4.981
595.00	4.994
595.34	4.986
595.67	4.956
596.00	4.958
596.33	4.929
596.66	4.894
596.99	4.855
597.32	4.832
597.65	4.842
597.99	4.845
598.32	4.842
598.65	4.817
598.98	4.804
599.31	4.815
599.64	4.817
599.97	4.847
600.30	4.849
600.63	4.871
600.96	4.857
601.30	4.866
601.63	4.861
601.96	4.857
602.29	4.853
602.62	4.865
602.95	4.868
603.28	4.856
603.61	4.825
603.94	4.809
604.27	4.786
604.60	4.796
604.93	4.763
605.26	4.754
605.59	4.739
605.92	4.737
606.25	4.704
606.58	4.688
606.91	4.653
607.24	4.680
607.57	4.687
607.90	4.692
608.23	4.658
608.56	4.653
608.89	4.645
609.22	4.638
609.55	4.617
609.88	4.571
610.21	4.539
610.54	4.535
610.87	4.489
611.20	4.473
611.53	4.434
611.86	4.448
612.19	4.432
612.52	4.394
612.85	4.373
613.18	4.358
613.51	4.360
613.84	4.334
614.17	4.323
614.49	4.321
614.82	4.287
615.15	4.303
615.48	4.265
615.81	4.241
616.14	4.231
616.47	4.238
616.80	4.234
617.13	4.242
617.46	4.245
617.78	4.244
618.11	4.211
618.44	4.240
618.77	4.214
619.10	4.204
619.43	4.194
619.76	4.199
620.09	4.179
620.41	4.175
620.74	4.188
621.07	4.206
621.40	4.185
621.73	4.196
622.06	4.181
622.38	4.200
622.71	4.179
623.04	4.190
623.37	4.222
623.70	4.235
624.02	4.231
624.35	4.259
624.68	4.269
625.01	4.312
625.34	4.318
625.66	4.345
625.99	4.336
626.32	4.384
626.65	4.405
626.98	4.385
627.30	4.367
627.63	4.387
627.96	4.372
628.29	4.339
628.61	4.303
628.94	4.285
629.27	4.243
629.60	4.238
629.92	4.204
630.25	4.207
630.58	4.195
630.91	4.209
631.23	4.177
631.56	4.160
631.89	4.168
632.21	4.169
632.54	4.155
632.87	4.141
633.19	4.133
633.52	4.128
633.85	4.084
634.18	4.031
634.50	3.991
634.83	3.981
635.16	3.953
635.48	3.958
635.81	3.909
636.14	3.890
636.46	3.903
636.79	3.876
637.11	3.855
637.44	3.847
637.77	3.878
638.09	3.846
638.42	3.806
638.75	3.779
639.07	3.741
639.40	3.726
639.73	3.733
640.05	3.724
640.38	3.718
640.70	3.707
641.03	3.701
641.36	3.685
641.68	3.684
642.01	3.690
642.33	3.721
642.66	3.735
642.98	3.780
643.31	3.774
643.64	3.748
643.96	3.700
644.29	3.727
644.61	3.732
644.94	3.738
645.26	3.772
645.59	3.807
645.91	3.817
646.24	3.804
646.56	3.800
646.89	3.805
647.22	3.845
647.54	3.888
647.87	3.873
648.19	3.875
648.52	3.928
648.84	3.963
649.17	3.953
649.49	3.921
649.82	3.918
650.14	3.933
650.47	3.935
650.79	3.925
651.11	3.931
651.44	3.915
651.76	3.884
652.09	3.814
652.41	3.770
652.74	3.771
653.06	3.753
653.39	3.777
653.71	3.782
654.04	3.764
654.36	3.756
654.68	3.764
655.01	3.807
655.33	3.824
655.66	3.841
655.98	3.865
656.30	3.816
656.63	3.855
656.95	3.850
657.28	3.816
657.60	3.805
657.92	3.795
658.25	3.753
658.57	3.684
658.90	3.683
659.22	3.672
659.54	3.656
659.87	3.637
660.19	3.586
660.51	3.557
660.84	3.530
661.16	3.505
661.48	3.451
661.81	3.436
662.13	3.473
662.45	3.426
662.78	3.391
663.10	3.354
663.42	3.403
663.75	3.459
664.07	3.459
664.39	3.443
664.72	3.470
665.04	3.466
665.36	3.472
665.69	3.450
666.01	3.468
666.33	3.524
666.65	3.503
666.98	3.473
667.30	3.430
667.62	3.366
667.94	3.399
668.27	3.386
668.59	3.433
668.91	3.441
669.23	3.446
669.56	3.391
669.88	3.323
670.20	3.284
670.52	3.270
670.85	3.252
671.17	3.305
671.49	3.293
671.81	3.266
672.13	3.197
672.46	3.181
672.78	3.109
673.10	3.094
673.42	3.084
673.74	3.150
674.07	3.140
674.39	3.100
674.71	3.096
675.03	3.107
675.35	3.089
675.67	3.163
676.00	3.220
676.32	3.325
676.64	3.382
676.96	3.441
677.28	3.465
677.60	3.469
677.92	3.535
678.25	3.569
678.57	3.578
678.89	3.592
679.21	3.609
679.53	3.615
679.85	3.528
680.17	3.519
680.49	3.512
680.81	3.489
681.13	3.531
681.46	3.523
681.78	3.518
682.10	3.517
682.42	3.536
682.74	3.521
683.06	3.508
683.38	3.592
683.70	3.647
684.02	3.635
684.34	3.693
684.66	3.740
684.98	3.768
685.30	3.842
685.62	3.887
685.94	3.892
686.26	3.871
686.58	3.858
686.90	3.836
687.22	3.810
687.54	3.835
687.86	3.782
688.18	3.695
688.50	3.655
688.82	3.581
689.14	3.504
689.46	3.480
689.78	3.394
690.10	3.323
690.42	3.286
690.74	3.198
691.06	3.152
691.38	3.083
691.70	3.060
692.02	3.001
692.34	2.987
692.66	2.955
692.98	2.986
693.30	3.079
693.62	3.141
693.94	3.187
694.26	3.321
694.57	3.338
694.89	3.384
695.21	3.482
695.53	3.570
695.85	3.580
696.17	3.617
696.49	3.645
696.81	3.664
697.13	3.706
697.44	3.727
697.76	3.640
698.08	3.672
698.40	3.681
698.72	3.662
699.04	3.573
699.36	3.476
699.67	3.400
699.99	3.276
700.31	3.146
700.63	3.003
700.95	2.869
701.27	2.794
701.58	2.629
701.90	2.512
702.22	2.366
702.54	2.281
702.86	2.232
703.17	2.192
703.49	2.178
703.81	2.181
704.13	2.229
704.45	2.224
704.76	2.222
705.08	2.189
705.40	2.225
705.72	2.216
706.03	2.223
706.35	2.339
706.67	2.318
706.99	2.297
707.30	2.251
707.62	2.207
707.94	2.249
708.26	2.205
708.57	2.260
708.89	2.261
709.21	2.268
709.53	2.314
709.84	2.220
710.16	2.270
710.48	2.366
710.79	2.400
711.11	2.420
711.43	2.371
711.74	2.484
712.06	2.502
712.38	2.537
712.69	2.633
713.01	2.719
713.33	2.805
713.64	2.850
713.96	2.846
714.28	3.000
714.59	3.035
714.91	3.170
715.23	3.223
715.54	3.267
715.86	3.336
716.17	3.295
716.49	3.306
716.81	3.300
717.12	3.267
717.44	3.338
717.76	3.204
718.07	3.167
718.39	3.081
718.70	3.003
719.02	2.960
719.33	2.764
719.65	2.738
719.97	2.632
720.28	2.587
720.60	2.684
720.91	2.656
721.23	2.677
721.54	2.708
721.86	2.788
722.17	2.800
722.49	2.794
722.81	2.851
723.12	2.790
723.44	2.831
723.75	2.958
724.07	2.867
724.38	2.829
724.70	2.918
725.01	3.077
725.33	3.042
725.64	3.059
725.96	3.054
726.27	3.041
726.59	3.164
726.90	3.131
727.22	3.160
727.53	3.177
727.84	3.108
728.16	3.043
728.47	2.910
728.79	2.823
729.10	2.835
729.42	2.885
729.73	2.951
730.05	2.907
730.36	2.845
730.67	2.674
730.99	2.615
731.30	2.514
731.62	2.434
731.93	2.324
732.24	2.302
732.56	2.136
732.87	1.946
733.19	1.778
733.50	1.771
733.81	1.754
734.13	1.696
734.44	1.703
734.76	1.827
735.07	1.730
735.38	1.733
735.70	1.704
736.01	1.562
736.32	1.639
736.64	1.760
736.95	1.480
737.26	1.396
737.58	1.246
737.89	1.093
738.20	0.868
738.52	0.860
738.83	0.783
739.14	0.720
739.45	0.882
739.77	0.835
740.08	0.726
740.39	0.706
740.71	0.649
741.02	0.763
741.33	0.716
741.64	0.731
741.96	0.617
742.27	0.483
742.58	0.298
742.90	0.208
743.21	-0.018
743.52	-0.200
743.83	-0.059
744.14	-0.189
744.46	-0.379
744.77	-0.348
745.08	-0.245
745.39	-0.274
745.71	-0.252
746.02	-0.138
746.33	-0.143
746.64	0.041
746.95	0.167
747.27	0.137
747.58	0.317
747.89	0.464
748.20	0.411
748.51	0.429
748.82	0.485
749.14	0.462
749.45	0.498
749.76	0.441
750.07	0.233
750.38	0.238
750.69	0.253
751.01	0.251
751.32	0.267
751.63	0.225
751.94	0.172
752.25	0.170
752.56	0.125
752.87	0.246
753.18	0.131
753.49	0.239
753.81	0.173
754.12	0.068
754.43	0.193
754.74	0.356
755.05	0.534
755.36	0.700
755.67	0.868
755.98	1.241
756.29	1.404
756.60	1.770
756.91	2.225
757.22	2.610
757.53	3.074
757.84	3.357
758.15	3.612
758.46	4.026
758.77	4.210
759.09	4.661
759.40	4.839
759.71	5.139
760.02	5.261
760.33	5.286
760.64	5.332
760.95	5.307
761.26	5.343
761.57	5.225
761.88	5.046
762.18	5.049
762.49	4.772
762.80	4.627
763.11	4.272
763.42	4.164
763.73	4.014
764.04	3.755
764.35	3.508
764.66	3.093
764.97	2.918
765.28	2.755
765.59	2.417
765.90	2.187
766.21	1.925
766.52	1.635
766.83	1.387
767.14	1.036
767.44	0.903
767.75	0.739
768.06	0.663
768.37	0.330
768.68	0.154
768.99	-0.061
769.30	-0.340
769.61	-0.643
769.91	-0.581
770.22	-0.786
770.53	-0.923
770.84	-1.032
771.15	-0.992
771.46	-1.015
771.77	-1.092
772.07	-1.038
772.38	-1.167
772.69	-1.139
773.00	-1.188
773.31	-0.849
773.61	-1.000
773.92	-1.003
774.23	-1.185
774.54	-1.385
774.85	-1.541
775.15	-1.367
775.46	-1.726
775.77	-1.634
776.08	-1.640
776.39	-1.693
776.69	-1.967
777.00	-1.669
777.31	-1.706
777.62	-1.241
777.92	-1.293
778.23	-1.059
778.54	-1.311
778.85	-1.173
779.15	-1.032
779.46	-1.098
779.77	-1.080
780.07	-1.235
780.38	-1.561
780.69	-1.568
781.00	-2.211
781.30	-2.268
781.61	-2.624
781.92	-2.333
782.22	-2.408
782.53	-2.494
782.84	-2.281
783.14	-1.928
783.45	-1.950
783.76	-1.567
784.06	-1.601
784.37	-1.088
784.68	-0.903
784.98	-0.394
785.29	-0.209
785.60	0.034
785.90	0.326
786.21	0.399
786.51	0.498
786.82	0.581
787.13	0.815
787.43	1.176
787.74	1.029
788.04	1.230
788.35	0.815
788.66	0.559
788.96	0.431
789.27	0.516
789.57	0.409
789.88	0.388
790.19	0.594
790.49	0.314
790.80	0.527
791.10	0.644
791.41	0.474
791.71	0.884
792.02	1.142
792.32	1.343
792.63	1.172
792.93	1.295
793.24	1.079
793.54	0.994
793.85	1.289
794.15	0.925
794.46	0.927
794.76	0.955
795.07	0.880
795.37	1.053
795.68	0.978
795.98	1.156
796.29	1.177
796.59	1.447
796.90	1.111
797.20	0.688
797.51	0.819
797.81	0.688
798.12	0.880
798.42	1.077
798.72	0.749
799.03	0.883
799.33	0.609
799.64	0.702
799.94	0.417
800.25	1.128
800.55	1.541
800.85	1.466
801.16	1.983
801.46	1.744
801.77	1.659
802.07	1.319
802.37	1.023
802.68	1.153
802.98	0.982
803.28	1.171
803.59	0.769
803.89	0.703
804.20	0.693
804.50	0.545
804.80	0.264
805.11	0.325
805.41	0.773
805.71	1.077
806.02	0.958
806.32	1.462
806.62	1.533
806.93	1.863
807.23	1.967
807.53	2.018
807.83	1.966
808.14	2.250
808.44	2.234
808.74	2.710
809.05	2.954
809.35	3.303
809.65	2.808
809.95	2.848
810.26	2.539
810.56	2.411
810.86	2.721
811.16	2.462
811.47	2.809
811.77	2.997
812.07	2.686
812.37	2.586
812.68	2.339
812.98	3.258
813.28	3.414
813.58	3.546
813.88	3.346
814.19	3.503
814.49	3.924
814.79	3.797
815.09	3.729
815.39	3.866
815.70	3.863
816.00	3.890
816.30	3.324
816.60	3.687
816.90	4.213
817.20	4.846
817.50	5.133
817.81	5.419
818.11	5.828
818.41	6.192
818.71	6.287
819.01	6.497
819.31	6.699
819.61	6.768
819.92	6.756
820.22	6.692
820.52	6.679
820.82	6.647
821.12	6.645
821.42	6.659
821.72	6.641
822.02	6.610
822.32	6.502
822.62	6.402
822.92	6.314
823.22	6.251
823.52	6.270
823.83	6.160
824.13	6.111
824.43	6.019
824.73	5.830
825.03	5.725
825.33	5.665
825.63	5.779
825.93	5.729
826.23	5.789
826.53	5.716
826.83	5.753
827.13	5.710
827.43	5.691
827.73	5.702
828.03	5.749
828.33	5.540
828.63	5.468
828.93	5.226
829.23	5.342
829.53	5.275
829.83	5.691
830.13	5.167
830.42	5.287
830.72	5.433
831.02	5.522
831.32	5.555
831.62	5.500
831.92	5.477
832.22	5.467
832.52	5.230
832.82	5.441
833.12	4.942
833.42	5.108
833.72	5.122
834.01	4.822
834.31	4.500
834.61	4.403
834.91	4.484
835.21	4.696
835.51	4.610
835.81	4.766
836.11	4.634
836.40	4.482
836.70	4.381
837.00	4.208
837.30	4.192
837.60	4.513
837.90	4.627
838.19	4.994
838.49	4.216
838.79	4.115
839.09	3.537
839.39	3.325
839.68	3.675
839.98	3.321
840.28	2.644
840.58	2.346
840.88	1.599
841.17	0.769
841.47	-0.527
841.77	-0.494
842.07	-0.327
842.36	-0.320
842.66	-1.858
842.96	-2.182
843.26	-3.877
843.55	-3.980
843.85	-4.025
844.15	-4.569
844.45	-3.342
844.74	-2.217
845.04	-2.406
845.34	-2.040
845.63	-2.748
845.93	-0.998
846.23	-0.617
846.53	0.311
846.82	0.267
847.12	-0.322
847.42	-0.948
847.71	-1.857
848.01	-3.191
848.31	-3.564
848.60	-6.238
848.90	-6.003
849.19	-7.098
849.49	-7.698
849.79	-6.683
850.08	-4.913
850.38	-4.436
850.68	-2.131
850.97	-1.489
851.27	0.612
851.56	1.139
851.86	1.616
852.16	2.389
852.45	2.670
852.75	2.495
853.04	2.116
853.34	1.365
853.64	0.522
853.93	-0.737
854.23	-0.159
854.52	-2.161
854.82	-0.764
855.11	0.762
855.41	0.367
855.70	0.903
856.00	1.954
856.30	2.136
856.59	0.886
856.89	2.078
857.18	2.208
857.48	0.458
857.77	-0.599
858.07	-1.723
858.36	-3.347
858.66	-3.074
858.95	-2.053
859.25	-2.661
859.54	-3.402
859.84	-1.862
860.13	-3.086
860.42	-3.514
860.72	-2.944
861.01	-1.980
861.31	-2.666
861.60	-1.550
861.90	-2.289
862.19	-5.532
862.49	-7.545
862.78	-4.559
863.07	-4.176
863.37	-4.239
863.66	-3.558
863.96	-3.795
864.25	-3.089
864.54	-1.253
864.84	-1.779
865.13	-1.820
865.43	-1.262
865.72	2.197
866.01	12.291
866.31	-3.577
866.60	-6.322
866.89	-9.939
>>>>>End Spectral Data<<<<<
