OOIBase32 Version 2.0.0.6 Data File
++++++++++++++++++++++++++++++++++++
Date: 01-23-2012, 22:01:54
User: Valued Ocean Optics Customer
Spectrometer Serial Number: USB2E2917
Spectrometer Channel: Master
Integration Time (msec): 5
Spectra Averaged: 10
Boxcar Smoothing: 5
Correct for Electrical Dark: Enabled
Time Normalized: Disabled
Dual-beam Reference: Disabled
Reference Channel: Master
Temperature: Not acquired
Spectrometer Type: S2000
ADC Type: USB2000
Number of Pixels in File: 2048
Graph Title: 
>>>>>Begin Spectral Data<<<<<
180.30	0.000
180.67	0.000
181.03	141.239
181.40	19.999
181.77	3735.400
182.14	49.295
182.51	162.832
182.88	-9699.470
183.25	94.442
183.62	-48.762
183.99	43.927
184.36	-144.743
184.73	29.311
185.10	-101.951
185.46	-58.907
185.83	172.256
186.20	126.085
186.57	560.998
186.94	75.686
187.31	276.307
187.68	117.186
188.05	-82.343
188.42	-46.435
188.78	-35.065
189.15	-23.568
189.52	-1.278
189.89	-1.234
190.26	-23.709
190.63	-5.832
191.00	-15.468
191.37	5.103
191.73	12.281
192.10	23.052
192.47	16.146
192.84	12.893
193.21	20.611
193.58	19.836
193.94	23.177
194.31	12.018
194.68	11.561
195.05	11.002
195.42	-6.362
195.79	-10.858
196.15	-11.336
196.52	2.911
196.89	-4.868
197.26	-9.770
197.63	-20.862
198.00	-22.823
198.36	-13.975
198.73	-14.113
199.10	-7.713
199.47	-6.286
199.84	-15.625
200.20	-3.417
200.57	-46.757
200.94	-41.732
201.31	-49.246
201.68	-21.200
202.04	-22.551
202.41	-18.658
202.78	-39.242
203.15	-32.815
203.51	-69.146
203.88	-59.979
204.25	-85.190
204.62	-37.283
204.98	-29.742
205.35	-20.710
205.72	-27.655
206.09	-12.472
206.46	-3.485
206.82	17.250
207.19	5.958
207.56	19.273
207.92	22.272
208.29	21.618
208.66	16.431
209.03	19.770
209.39	8.162
209.76	7.099
210.13	6.302
210.50	-0.601
210.86	-8.927
211.23	12.493
211.60	13.847
211.96	20.735
212.33	17.293
212.70	21.868
213.07	16.758
213.43	25.127
213.80	20.513
214.17	4.751
214.53	1.498
214.90	7.690
215.27	-0.227
215.63	-1.408
216.00	-7.867
216.37	0.998
216.74	-15.241
217.10	-13.499
217.47	-26.179
217.84	-26.987
218.20	-3.805
218.57	4.750
218.94	3.791
219.30	2.742
219.67	1.875
220.04	-1.460
220.40	-0.787
220.77	-0.414
221.13	-9.295
221.50	-8.694
221.87	-7.856
222.23	-17.235
222.60	-13.158
222.97	-18.396
223.33	-23.676
223.70	-22.018
224.07	-11.178
224.43	-7.075
224.80	-1.292
225.16	1.714
225.53	3.753
225.90	1.312
226.26	1.114
226.63	-2.009
226.99	-0.912
227.36	0.637
227.73	1.429
228.09	-2.496
228.46	-4.673
228.82	-3.592
229.19	-3.169
229.56	-5.674
229.92	-4.949
230.29	-3.818
230.65	-2.244
231.02	-1.236
231.38	-3.575
231.75	-4.398
232.12	-1.013
232.48	1.717
232.85	0.814
233.21	2.398
233.58	3.061
233.94	5.600
234.31	4.696
234.68	4.582
235.04	2.719
235.41	3.371
235.77	3.901
236.14	2.799
236.50	0.216
236.87	0.176
237.23	-1.362
237.60	-0.394
237.96	-1.905
238.33	-0.322
238.69	0.177
239.06	0.802
239.42	1.618
239.79	1.252
240.15	1.860
240.52	2.131
240.88	2.003
241.25	2.237
241.61	2.467
241.98	2.967
242.34	2.401
242.71	2.562
243.07	2.938
243.44	3.001
243.80	3.046
244.17	2.952
244.53	3.188
244.90	3.066
245.26	3.048
245.63	2.962
245.99	2.981
246.36	3.237
246.72	2.694
247.09	2.197
247.45	1.790
247.81	1.699
248.18	0.992
248.54	0.629
248.91	0.442
249.27	0.609
249.64	0.351
250.00	0.381
250.36	0.159
250.73	1.109
251.09	1.857
251.46	2.137
251.82	2.310
252.19	3.113
252.55	3.355
252.91	3.777
253.28	2.826
253.64	2.675
254.01	2.422
254.37	2.232
254.73	1.813
255.10	1.796
255.46	1.925
255.83	1.658
256.19	1.641
256.55	1.413
256.92	1.563
257.28	1.900
257.65	2.217
258.01	2.311
258.37	2.277
258.74	2.389
259.10	2.377
259.46	2.472
259.83	2.607
260.19	2.644
260.55	2.915
260.92	2.708
261.28	2.626
261.64	2.386
262.01	2.268
262.37	2.188
262.73	1.884
263.10	1.759
263.46	1.968
263.82	2.093
264.19	2.172
264.55	2.082
264.91	2.117
265.28	2.248
265.64	2.055
266.00	1.797
266.37	1.890
266.73	1.957
267.09	1.852
267.46	1.767
267.82	1.459
268.18	1.406
268.54	1.312
268.91	1.740
269.27	1.710
269.63	1.802
270.00	1.869
270.36	1.746
270.72	1.758
271.08	1.527
271.45	1.450
271.81	1.906
272.17	2.005
272.53	2.109
272.90	1.766
273.26	1.672
273.62	1.669
273.98	1.723
274.35	1.731
274.71	1.773
275.07	2.049
275.43	2.181
275.80	1.919
276.16	2.019
276.52	1.821
276.88	1.747
277.25	1.808
277.61	1.968
277.97	2.076
278.33	1.851
278.69	1.892
279.06	2.262
279.42	1.913
279.78	1.762
280.14	1.643
280.50	1.837
280.87	2.018
281.23	2.201
281.59	2.062
281.95	2.031
282.31	2.265
282.68	2.282
283.04	1.911
283.40	2.074
283.76	2.159
284.12	2.041
284.48	1.874
284.85	1.645
285.21	1.580
285.57	1.747
285.93	1.717
286.29	1.746
286.65	1.651
287.02	1.648
287.38	1.690
287.74	1.855
288.10	1.864
288.46	1.955
288.82	1.947
289.18	1.823
289.54	1.811
289.91	1.888
290.27	1.891
290.63	2.046
290.99	2.091
291.35	2.251
291.71	2.136
292.07	2.181
292.43	2.264
292.79	2.566
293.16	2.539
293.52	2.443
293.88	2.528
294.24	2.597
294.60	2.346
294.96	2.502
295.32	2.461
295.68	2.370
296.04	2.408
296.40	2.364
296.76	2.304
297.12	2.398
297.49	2.548
297.85	2.555
298.21	2.648
298.57	2.794
298.93	2.824
299.29	2.783
299.65	2.750
300.01	2.770
300.37	2.817
300.73	3.089
301.09	3.112
301.45	3.173
301.81	3.132
302.17	3.100
302.53	3.227
302.89	3.083
303.25	3.039
303.61	3.346
303.97	3.437
304.33	3.431
304.69	3.154
305.05	3.246
305.41	3.008
305.77	3.138
306.13	3.062
306.49	3.167
306.85	3.224
307.21	3.298
307.57	3.246
307.93	3.194
308.29	3.268
308.65	3.252
309.01	3.174
309.37	3.377
309.73	3.304
310.09	3.321
310.45	3.247
310.81	3.296
311.17	3.206
311.53	3.161
311.89	3.241
312.25	3.072
312.61	3.146
312.96	3.262
313.32	3.242
313.68	3.156
314.04	3.134
314.40	3.153
314.76	3.127
315.12	3.270
315.48	3.370
315.84	3.279
316.20	3.430
316.56	3.540
316.92	3.494
317.27	3.371
317.63	3.325
317.99	3.356
318.35	3.288
318.71	3.254
319.07	3.128
319.43	3.122
319.79	3.038
320.15	3.031
320.50	2.741
320.86	2.754
321.22	2.907
321.58	3.083
321.94	2.969
322.30	3.080
322.66	3.184
323.01	3.285
323.37	3.210
323.73	3.355
324.09	3.470
324.45	3.681
324.81	3.657
325.17	3.613
325.52	3.582
325.88	3.680
326.24	3.625
326.60	3.702
326.96	3.785
327.31	3.798
327.67	3.822
328.03	3.781
328.39	3.802
328.75	3.967
329.11	4.051
329.46	4.070
329.82	4.187
330.18	4.303
330.54	4.316
330.90	4.279
331.25	4.389
331.61	4.342
331.97	4.271
332.33	4.328
332.68	4.174
333.04	4.044
333.40	4.151
333.76	4.113
334.11	3.953
334.47	3.831
334.83	3.792
335.19	3.778
335.54	3.900
335.90	4.016
336.26	3.934
336.62	4.013
336.97	4.027
337.33	3.900
337.69	3.909
338.05	3.988
338.40	4.030
338.76	4.096
339.12	4.105
339.48	4.100
339.83	4.039
340.19	4.045
340.55	3.849
340.90	3.851
341.26	3.852
341.62	3.829
341.97	3.882
342.33	3.944
342.69	3.970
343.04	3.949
343.40	3.903
343.76	3.960
344.12	4.048
344.47	4.246
344.83	4.213
345.19	4.211
345.54	4.201
345.90	4.217
346.26	4.148
346.61	4.163
346.97	4.091
347.32	4.070
347.68	3.983
348.04	3.950
348.39	3.906
348.75	4.080
349.11	4.073
349.46	4.082
349.82	4.060
350.18	4.100
350.53	3.958
350.89	4.045
351.24	4.049
351.60	4.102
351.96	4.112
352.31	4.173
352.67	4.045
353.02	4.055
353.38	3.971
353.74	3.895
354.09	3.905
354.45	3.981
354.80	3.937
355.16	3.894
355.52	3.880
355.87	3.826
356.23	3.800
356.58	3.832
356.94	3.825
357.29	3.881
357.65	3.908
358.00	3.884
358.36	3.838
358.72	3.849
359.07	3.908
359.43	3.954
359.78	4.002
360.14	3.957
360.49	3.959
360.85	3.966
361.20	4.003
361.56	4.049
361.91	4.031
362.27	4.068
362.62	4.016
362.98	3.955
363.33	3.915
363.69	3.836
364.04	3.812
364.40	3.786
364.75	3.752
365.11	3.818
365.46	3.801
365.82	3.831
366.17	3.786
366.53	3.836
366.88	3.844
367.24	3.909
367.59	3.983
367.95	4.087
368.30	4.091
368.66	4.181
369.01	4.108
369.37	4.132
369.72	4.124
370.08	4.190
370.43	4.182
370.78	4.167
371.14	4.105
371.49	4.096
371.85	4.084
372.20	4.131
372.56	4.139
372.91	4.162
373.26	4.125
373.62	4.138
373.97	4.157
374.33	4.215
374.68	4.285
375.03	4.372
375.39	4.320
375.74	4.284
376.10	4.294
376.45	4.296
376.80	4.323
377.16	4.408
377.51	4.453
377.87	4.419
378.22	4.439
378.57	4.475
378.93	4.439
379.28	4.578
379.63	4.641
379.99	4.691
380.34	4.730
380.70	4.788
381.05	4.807
381.40	4.787
381.76	4.823
382.11	4.838
382.46	4.834
382.82	4.876
383.17	4.895
383.52	4.924
383.88	4.881
384.23	4.919
384.58	4.903
384.94	4.933
385.29	4.981
385.64	5.050
385.99	5.124
386.35	5.208
386.70	5.225
387.05	5.201
387.41	5.215
387.76	5.270
388.11	5.251
388.47	5.314
388.82	5.320
389.17	5.332
389.52	5.343
389.88	5.337
390.23	5.351
390.58	5.381
390.93	5.425
391.29	5.486
391.64	5.542
391.99	5.585
392.34	5.594
392.70	5.644
393.05	5.695
393.40	5.708
393.75	5.740
394.11	5.750
394.46	5.780
394.81	5.770
395.16	5.738
395.52	5.764
395.87	5.758
396.22	5.768
396.57	5.771
396.92	5.776
397.28	5.816
397.63	5.834
397.98	5.860
398.33	5.877
398.68	5.960
399.04	6.022
399.39	6.028
399.74	6.070
400.09	6.058
400.44	6.066
400.80	6.087
401.15	6.145
401.50	6.167
401.85	6.204
402.20	6.234
402.55	6.275
402.90	6.259
403.26	6.320
403.61	6.369
403.96	6.447
404.31	6.501
404.66	6.578
405.01	6.580
405.36	6.631
405.72	6.646
406.07	6.694
406.42	6.680
406.77	6.743
407.12	6.720
407.47	6.771
407.82	6.792
408.17	6.788
408.53	6.799
408.88	6.834
409.23	6.855
409.58	6.857
409.93	6.887
410.28	6.938
410.63	6.991
410.98	7.040
411.33	7.044
411.68	7.058
412.03	7.114
412.38	7.161
412.73	7.200
413.09	7.257
413.44	7.314
413.79	7.362
414.14	7.381
414.49	7.395
414.84	7.422
415.19	7.440
415.54	7.483
415.89	7.502
416.24	7.506
416.59	7.509
416.94	7.519
417.29	7.537
417.64	7.548
417.99	7.577
418.34	7.596
418.69	7.612
419.04	7.631
419.39	7.645
419.74	7.667
420.09	7.689
420.44	7.713
420.79	7.719
421.14	7.717
421.49	7.715
421.84	7.739
422.19	7.747
422.54	7.776
422.89	7.798
423.24	7.816
423.59	7.827
423.94	7.843
424.29	7.869
424.64	7.887
424.99	7.944
425.34	7.998
425.68	8.014
426.03	8.067
426.38	8.076
426.73	8.118
427.08	8.144
427.43	8.195
427.78	8.235
428.13	8.241
428.48	8.289
428.83	8.299
429.18	8.308
429.53	8.311
429.87	8.315
430.22	8.322
430.57	8.347
430.92	8.354
431.27	8.378
431.62	8.376
431.97	8.385
432.32	8.380
432.67	8.391
433.01	8.401
433.36	8.436
433.71	8.466
434.06	8.506
434.41	8.535
434.76	8.582
435.11	8.566
435.45	8.574
435.80	8.609
436.15	8.644
436.50	8.666
436.85	8.686
437.20	8.684
437.54	8.677
437.89	8.664
438.24	8.643
438.59	8.632
438.94	8.660
439.29	8.665
439.63	8.678
439.98	8.670
440.33	8.674
440.68	8.663
441.03	8.673
441.37	8.677
441.72	8.703
442.07	8.716
442.42	8.729
442.76	8.723
443.11	8.732
443.46	8.724
443.81	8.725
444.16	8.721
444.50	8.721
444.85	8.717
445.20	8.725
445.55	8.712
445.89	8.696
446.24	8.673
446.59	8.679
446.94	8.674
447.28	8.678
447.63	8.684
447.98	8.698
448.32	8.724
448.67	8.729
449.02	8.733
449.37	8.766
449.71	8.774
450.06	8.790
450.41	8.793
450.75	8.799
451.10	8.800
451.45	8.810
451.79	8.791
452.14	8.777
452.49	8.799
452.84	8.795
453.18	8.769
453.53	8.791
453.88	8.813
454.22	8.816
454.57	8.838
454.92	8.864
455.26	8.887
455.61	8.905
455.95	8.941
456.30	8.941
456.65	8.971
456.99	9.005
457.34	9.024
457.69	9.043
458.03	9.048
458.38	9.074
458.73	9.089
459.07	9.101
459.42	9.126
459.76	9.149
460.11	9.174
460.46	9.186
460.80	9.213
461.15	9.231
461.49	9.251
461.84	9.303
462.19	9.326
462.53	9.353
462.88	9.392
463.22	9.425
463.57	9.456
463.91	9.497
464.26	9.543
464.61	9.574
464.95	9.619
465.30	9.641
465.64	9.683
465.99	9.719
466.33	9.742
466.68	9.768
467.02	9.816
467.37	9.841
467.71	9.865
468.06	9.888
468.41	9.900
468.75	9.933
469.10	9.962
469.44	9.972
469.79	9.984
470.13	10.012
470.48	10.011
470.82	10.022
471.17	10.036
471.51	10.051
471.86	10.070
472.20	10.090
472.55	10.116
472.89	10.142
473.23	10.159
473.58	10.160
473.92	10.159
474.27	10.171
474.61	10.171
474.96	10.169
475.30	10.157
475.65	10.155
475.99	10.161
476.34	10.133
476.68	10.122
477.02	10.120
477.37	10.127
477.71	10.141
478.06	10.190
478.40	10.229
478.75	10.296
479.09	10.399
479.43	10.481
479.78	10.609
480.12	10.757
480.47	10.919
480.81	11.085
481.15	11.260
481.50	11.440
481.84	11.633
482.19	11.855
482.53	12.040
482.87	12.127
483.22	12.126
483.56	12.018
483.90	11.840
484.25	11.621
484.59	11.407
484.94	11.248
485.28	11.100
485.62	10.908
485.97	10.693
486.31	10.503
486.65	10.402
487.00	10.404
487.34	10.491
487.68	10.620
488.03	10.779
488.37	10.921
488.71	10.983
489.06	11.004
489.40	11.032
489.74	11.051
490.09	11.075
490.43	11.097
490.77	11.122
491.11	11.141
491.46	11.180
491.80	11.224
492.14	11.245
492.49	11.287
492.83	11.341
493.17	11.395
493.51	11.456
493.86	11.518
494.20	11.589
494.54	11.649
494.88	11.725
495.23	11.801
495.57	11.879
495.91	11.976
496.25	12.051
496.60	12.105
496.94	12.175
497.28	12.264
497.62	12.365
497.97	12.449
498.31	12.537
498.65	12.623
498.99	12.731
499.33	12.824
499.68	12.925
500.02	13.019
500.36	13.129
500.70	13.208
501.04	13.303
501.39	13.366
501.73	13.467
502.07	13.566
502.41	13.679
502.75	13.766
503.09	13.865
503.44	13.981
503.78	14.096
504.12	14.198
504.46	14.334
504.80	14.434
505.14	14.549
505.49	14.650
505.83	14.778
506.17	14.878
506.51	14.973
506.85	15.061
507.19	15.150
507.53	15.236
507.87	15.354
508.22	15.452
508.56	15.534
508.90	15.639
509.24	15.763
509.58	15.836
509.92	15.924
510.26	16.019
510.60	16.133
510.94	16.243
511.28	16.350
511.63	16.459
511.97	16.560
512.31	16.676
512.65	16.795
512.99	16.882
513.33	17.007
513.67	17.134
514.01	17.264
514.35	17.370
514.69	17.465
515.03	17.548
515.37	17.605
515.71	17.688
516.05	17.762
516.39	17.846
516.73	17.910
517.07	17.978
517.41	18.009
517.75	18.043
518.09	18.099
518.43	18.136
518.77	18.200
519.11	18.277
519.45	18.350
519.79	18.424
520.13	18.477
520.47	18.573
520.81	18.666
521.15	18.775
521.49	18.873
521.83	18.948
522.17	19.059
522.51	19.158
522.85	19.260
523.19	19.385
523.53	19.561
523.87	19.741
524.21	19.914
524.55	20.067
524.89	20.212
525.23	20.339
525.57	20.454
525.91	20.556
526.25	20.659
526.58	20.755
526.92	20.814
527.26	20.837
527.60	20.835
527.94	20.811
528.28	20.796
528.62	20.774
528.96	20.759
529.30	20.742
529.64	20.730
529.97	20.706
530.31	20.661
530.65	20.637
530.99	20.640
531.33	20.663
531.67	20.719
532.01	20.744
532.35	20.784
532.68	20.781
533.02	20.794
533.36	20.800
533.70	20.820
534.04	20.849
534.38	20.886
534.71	20.913
535.05	20.942
535.39	20.939
535.73	20.968
536.07	20.997
536.41	21.099
536.74	21.188
537.08	21.267
537.42	21.336
537.76	21.403
538.10	21.477
538.43	21.544
538.77	21.616
539.11	21.697
539.45	21.765
539.79	21.826
540.12	21.839
540.46	21.837
540.80	21.840
541.14	21.835
541.47	21.843
541.81	21.837
542.15	21.837
542.49	21.814
542.82	21.820
543.16	21.809
543.50	21.814
543.84	21.842
544.17	21.870
544.51	21.908
544.85	21.956
545.18	21.991
545.52	22.024
545.86	22.036
546.20	22.105
546.53	22.098
546.87	22.141
547.21	22.152
547.54	22.177
547.88	22.252
548.22	22.287
548.55	22.322
548.89	22.379
549.23	22.439
549.56	22.498
549.90	22.526
550.24	22.569
550.57	22.594
550.91	22.610
551.25	22.652
551.58	22.655
551.92	22.685
552.26	22.737
552.59	22.759
552.93	22.787
553.27	22.837
553.60	22.878
553.94	22.929
554.27	22.978
554.61	23.060
554.95	23.122
555.28	23.172
555.62	23.210
555.95	23.239
556.29	23.262
556.63	23.292
556.96	23.310
557.30	23.338
557.63	23.364
557.97	23.389
558.31	23.401
558.64	23.407
558.98	23.441
559.31	23.470
559.65	23.496
559.98	23.540
560.32	23.574
560.65	23.604
560.99	23.622
561.33	23.662
561.66	23.700
562.00	23.732
562.33	23.768
562.67	23.778
563.00	23.830
563.34	23.830
563.67	23.840
564.01	23.839
564.34	23.857
564.68	23.881
565.01	23.871
565.35	23.866
565.68	23.885
566.02	23.890
566.35	23.941
566.69	23.956
567.02	24.013
567.36	24.045
567.69	24.099
568.03	24.145
568.36	24.187
568.69	24.216
569.03	24.266
569.36	24.272
569.70	24.286
570.03	24.266
570.37	24.249
570.70	24.247
571.04	24.246
571.37	24.231
571.70	24.253
572.04	24.267
572.37	24.292
572.71	24.289
573.04	24.312
573.37	24.355
573.71	24.416
574.04	24.463
574.38	24.494
574.71	24.549
575.04	24.615
575.38	24.621
575.71	24.657
576.05	24.729
576.38	24.789
576.71	24.834
577.05	24.886
577.38	24.910
577.71	25.004
578.05	25.050
578.38	25.114
578.71	25.140
579.05	25.192
579.38	25.213
579.71	25.225
580.05	25.269
580.38	25.321
580.71	25.332
581.05	25.366
581.38	25.357
581.71	25.381
582.05	25.377
582.38	25.425
582.71	25.446
583.04	25.463
583.38	25.516
583.71	25.527
584.04	25.570
584.38	25.637
584.71	25.661
585.04	25.675
585.37	25.723
585.71	25.759
586.04	25.794
586.37	25.798
586.70	25.848
587.04	25.828
587.37	25.833
587.70	25.783
588.03	25.798
588.37	25.800
588.70	25.792
589.03	25.784
589.36	25.775
589.69	25.739
590.03	25.733
590.36	25.693
590.69	25.742
591.02	25.751
591.35	25.806
591.69	25.774
592.02	25.773
592.35	25.771
592.68	25.750
593.01	25.745
593.35	25.788
593.68	25.823
594.01	25.824
594.34	25.812
594.67	25.789
595.00	25.754
595.34	25.769
595.67	25.788
596.00	25.810
596.33	25.821
596.66	25.848
596.99	25.837
597.32	25.861
597.65	25.894
597.99	25.898
598.32	25.919
598.65	25.989
598.98	25.972
599.31	26.007
599.64	26.057
599.97	26.089
600.30	26.089
600.63	26.089
600.96	26.085
601.30	26.077
601.63	26.052
601.96	26.054
602.29	26.045
602.62	26.057
602.95	26.044
603.28	25.972
603.61	25.983
603.94	25.986
604.27	25.976
604.60	25.955
604.93	25.976
605.26	26.020
605.59	26.044
605.92	26.034
606.25	26.038
606.58	26.063
606.91	26.104
607.24	26.091
607.57	26.082
607.90	26.091
608.23	26.077
608.56	26.072
608.89	26.047
609.22	26.019
609.55	26.027
609.88	26.041
610.21	26.029
610.54	26.083
610.87	26.113
611.20	26.148
611.53	26.220
611.86	26.237
612.19	26.303
612.52	26.339
612.85	26.422
613.18	26.452
613.51	26.428
613.84	26.439
614.17	26.447
614.49	26.476
614.82	26.498
615.15	26.486
615.48	26.557
615.81	26.539
616.14	26.537
616.47	26.533
616.80	26.564
617.13	26.595
617.46	26.613
617.78	26.584
618.11	26.552
618.44	26.539
618.77	26.507
619.10	26.471
619.43	26.500
619.76	26.511
620.09	26.527
620.41	26.467
620.74	26.468
621.07	26.474
621.40	26.468
621.73	26.458
622.06	26.454
622.38	26.447
622.71	26.413
623.04	26.329
623.37	26.308
623.70	26.252
624.02	26.223
624.35	26.223
624.68	26.181
625.01	26.182
625.34	26.181
625.66	26.157
625.99	26.139
626.32	26.157
626.65	26.182
626.98	26.199
627.30	26.265
627.63	26.292
627.96	26.314
628.29	26.326
628.61	26.324
628.94	26.352
629.27	26.351
629.60	26.393
629.92	26.414
630.25	26.395
630.58	26.330
630.91	26.275
631.23	26.307
631.56	26.294
631.89	26.322
632.21	26.299
632.54	26.216
632.87	26.236
633.19	26.196
633.52	26.183
633.85	26.204
634.18	26.237
634.50	26.194
634.83	26.182
635.16	26.186
635.48	26.193
635.81	26.204
636.14	26.242
636.46	26.225
636.79	26.215
637.11	26.211
637.44	26.237
637.77	26.218
638.09	26.205
638.42	26.154
638.75	26.114
639.07	26.076
639.40	26.057
639.73	26.087
640.05	26.130
640.38	26.118
640.70	26.104
641.03	26.083
641.36	26.099
641.68	26.099
642.01	26.150
642.33	26.153
642.66	26.138
642.98	26.157
643.31	26.111
643.64	26.084
643.96	26.108
644.29	26.082
644.61	26.076
644.94	26.055
645.26	26.041
645.59	25.998
645.91	26.004
646.24	26.025
646.56	26.000
646.89	26.007
647.22	26.040
647.54	26.051
647.87	26.053
648.19	25.999
648.52	26.006
648.84	26.046
649.17	26.028
649.49	25.987
649.82	25.934
650.14	25.950
650.47	25.922
650.79	25.834
651.11	25.771
651.44	25.760
651.76	25.758
652.09	25.734
652.41	25.736
652.74	25.733
653.06	25.691
653.39	25.701
653.71	25.670
654.04	25.676
654.36	25.672
654.68	25.638
655.01	25.629
655.33	25.634
655.66	25.567
655.98	25.487
656.30	25.462
656.63	25.486
656.95	25.466
657.28	25.423
657.60	25.358
657.92	25.282
658.25	25.264
658.57	25.230
658.90	25.167
659.22	25.168
659.54	25.203
659.87	25.117
660.19	25.073
660.51	25.058
660.84	25.050
661.16	25.044
661.48	25.110
661.81	25.130
662.13	25.165
662.45	25.170
662.78	25.172
663.10	25.121
663.42	25.198
663.75	25.197
664.07	25.123
664.39	25.136
664.72	25.105
665.04	25.042
665.36	24.986
665.69	24.894
666.01	24.846
666.33	24.816
666.65	24.810
666.98	24.791
667.30	24.742
667.62	24.689
667.94	24.622
668.27	24.649
668.59	24.619
668.91	24.616
669.23	24.617
669.56	24.637
669.88	24.647
670.20	24.584
670.52	24.513
670.85	24.569
671.17	24.564
671.49	24.596
671.81	24.578
672.13	24.578
672.46	24.576
672.78	24.517
673.10	24.468
673.42	24.381
673.74	24.430
674.07	24.420
674.39	24.367
674.71	24.438
675.03	24.385
675.35	24.351
675.67	24.296
676.00	24.238
676.32	24.272
676.64	24.285
676.96	24.311
677.28	24.250
677.60	24.273
677.92	24.217
678.25	24.147
678.57	24.169
678.89	24.133
679.21	24.191
679.53	24.251
679.85	24.214
680.17	24.219
680.49	24.197
680.81	24.192
681.13	24.172
681.46	24.251
681.78	24.320
682.10	24.264
682.42	24.342
682.74	24.338
683.06	24.237
683.38	24.261
683.70	24.197
684.02	24.154
684.34	24.148
684.66	24.184
684.98	24.066
685.30	24.054
685.62	24.061
685.94	23.945
686.26	23.888
686.58	23.922
686.90	23.900
687.22	23.919
687.54	23.946
687.86	23.868
688.18	23.812
688.50	23.781
688.82	23.630
689.14	23.641
689.46	23.690
689.78	23.604
690.10	23.554
690.42	23.516
690.74	23.434
691.06	23.434
691.38	23.466
691.70	23.359
692.02	23.358
692.34	23.398
692.66	23.320
692.98	23.227
693.30	23.249
693.62	23.223
693.94	23.176
694.26	23.213
694.57	23.118
694.89	23.092
695.21	23.076
695.53	23.042
695.85	23.018
696.17	22.982
696.49	22.969
696.81	22.921
697.13	22.828
697.44	22.756
697.76	22.677
698.08	22.734
698.40	22.652
698.72	22.628
699.04	22.581
699.36	22.520
699.67	22.408
699.99	22.300
700.31	22.193
700.63	22.189
700.95	22.199
701.27	22.095
701.58	21.870
701.90	21.869
702.22	21.784
702.54	21.784
702.86	21.676
703.17	21.652
703.49	21.703
703.81	21.732
704.13	21.700
704.45	21.646
704.76	21.632
705.08	21.625
705.40	21.558
705.72	21.591
706.03	21.485
706.35	21.557
706.67	21.582
706.99	21.551
707.30	21.468
707.62	21.480
707.94	21.455
708.26	21.454
708.57	21.430
708.89	21.497
709.21	21.408
709.53	21.375
709.84	21.303
710.16	21.275
710.48	21.274
710.79	21.303
711.11	21.304
711.43	21.241
711.74	21.182
712.06	21.214
712.38	21.136
712.69	21.109
713.01	21.176
713.33	21.166
713.64	21.209
713.96	21.150
714.28	21.292
714.59	21.275
714.91	21.382
715.23	21.473
715.54	21.527
715.86	21.556
716.17	21.736
716.49	21.711
716.81	21.646
717.12	21.489
717.44	21.503
717.76	21.379
718.07	21.329
718.39	21.239
718.70	21.209
719.02	21.047
719.33	21.067
719.65	20.982
719.97	21.031
720.28	21.017
720.60	21.193
720.91	21.192
721.23	21.147
721.54	21.198
721.86	21.182
722.17	21.175
722.49	21.208
722.81	20.982
723.12	20.989
723.44	20.883
723.75	20.991
724.07	20.931
724.38	20.935
724.70	20.992
725.01	21.032
725.33	21.040
725.64	20.977
725.96	20.983
726.27	21.131
726.59	21.032
726.90	20.949
727.22	20.863
727.53	20.866
727.84	20.719
728.16	20.497
728.47	20.326
728.79	20.309
729.10	20.290
729.42	20.318
729.73	20.178
730.05	20.160
730.36	20.248
730.67	20.267
730.99	20.060
731.30	19.975
731.62	19.904
731.93	19.867
732.24	19.715
732.56	19.679
732.87	19.347
733.19	19.273
733.50	19.152
733.81	18.878
734.13	18.722
734.44	18.757
734.76	18.835
735.07	18.782
735.38	18.719
735.70	18.698
736.01	18.642
736.32	18.803
736.64	18.852
736.95	18.764
737.26	18.824
737.58	18.825
737.89	18.740
738.20	18.551
738.52	18.580
738.83	18.523
739.14	18.429
739.45	18.284
739.77	18.207
740.08	18.103
740.39	18.046
740.71	18.080
741.02	17.981
741.33	18.059
741.64	18.036
741.96	17.898
742.27	17.619
742.58	17.521
742.90	17.469
743.21	17.250
743.52	17.151
743.83	17.282
744.14	17.125
744.46	17.024
744.77	16.846
745.08	16.913
745.39	16.893
745.71	17.036
746.02	17.127
746.33	17.133
746.64	17.327
746.95	17.457
747.27	17.404
747.58	17.351
747.89	17.342
748.20	17.299
748.51	17.104
748.82	17.140
749.14	17.088
749.45	17.079
749.76	16.993
750.07	16.852
750.38	16.684
750.69	16.706
751.01	16.799
751.32	16.768
751.63	16.717
751.94	16.834
752.25	16.847
752.56	16.881
752.87	16.800
753.18	16.884
753.49	16.801
753.81	16.856
754.12	16.711
754.43	16.716
754.74	16.824
755.05	16.883
755.36	16.944
755.67	16.991
755.98	17.301
756.29	17.458
756.60	17.786
756.91	18.306
757.22	18.638
757.53	18.866
757.84	19.163
758.15	19.326
758.46	19.741
758.77	20.024
759.09	20.346
759.40	20.399
759.71	20.617
760.02	20.632
760.33	20.576
760.64	20.608
760.95	20.613
761.26	20.543
761.57	20.589
761.88	20.436
762.18	20.320
762.49	20.183
762.80	19.986
763.11	19.701
763.42	19.497
763.73	19.297
764.04	18.861
764.35	18.671
764.66	18.346
764.97	18.017
765.28	17.857
765.59	17.679
765.90	17.418
766.21	17.295
766.52	17.114
766.83	16.911
767.14	16.738
767.44	16.734
767.75	16.404
768.06	16.285
768.37	16.346
768.68	16.016
768.99	15.719
769.30	15.363
769.61	15.017
769.91	14.911
770.22	14.814
770.53	14.535
770.84	14.636
771.15	14.745
771.46	14.629
771.77	14.059
772.07	14.189
772.38	14.145
772.69	14.313
773.00	14.446
773.31	14.748
773.61	14.691
773.92	14.824
774.23	14.772
774.54	14.687
774.85	14.591
775.15	14.856
775.46	14.546
775.77	14.388
776.08	14.358
776.39	14.217
776.69	14.002
777.00	13.891
777.31	13.846
777.62	13.884
777.92	13.856
778.23	14.147
778.54	14.056
778.85	14.108
779.15	14.236
779.46	14.298
779.77	14.387
780.07	14.320
780.38	14.211
780.69	13.990
781.00	13.854
781.30	13.705
781.61	13.569
781.92	13.738
782.22	13.720
782.53	13.670
782.84	13.461
783.14	13.543
783.45	13.666
783.76	13.985
784.06	14.147
784.37	14.376
784.68	14.561
784.98	14.725
785.29	14.888
785.60	15.147
785.90	15.376
786.21	15.574
786.51	15.606
786.82	15.424
787.13	15.757
787.43	15.928
787.74	15.724
788.04	16.030
788.35	15.967
788.66	15.895
788.96	15.778
789.27	15.778
789.57	15.791
789.88	16.067
790.19	16.318
790.49	15.767
790.80	15.945
791.10	16.055
791.41	15.868
791.71	15.987
792.02	16.190
792.32	16.298
792.63	16.337
792.93	16.377
793.24	15.793
793.54	15.461
793.85	15.751
794.15	15.618
794.46	15.589
794.76	15.239
795.07	15.098
795.37	14.728
795.68	14.604
795.98	14.489
796.29	14.440
796.59	14.904
796.90	15.153
797.20	15.080
797.51	14.898
797.81	14.864
798.12	15.185
798.42	15.353
798.72	15.429
799.03	15.320
799.33	15.317
799.64	15.184
799.94	15.013
800.25	14.949
800.55	15.027
800.85	15.236
801.16	15.264
801.46	15.188
801.77	14.873
802.07	14.833
802.37	14.979
802.68	14.845
802.98	14.771
803.28	14.728
803.59	14.538
803.89	14.303
804.20	14.374
804.50	14.662
804.80	14.064
805.11	14.439
805.41	14.528
805.71	14.404
806.02	14.463
806.32	15.102
806.62	14.731
806.93	14.982
807.23	14.958
807.53	14.640
807.83	14.372
808.14	14.883
808.44	14.746
808.74	14.780
809.05	15.414
809.35	15.827
809.65	15.107
809.95	15.522
810.26	15.576
810.56	15.912
810.86	15.944
811.16	15.964
811.47	15.940
811.77	16.201
812.07	16.487
812.37	15.760
812.68	15.546
812.98	16.398
813.28	16.706
813.58	16.701
813.88	16.579
814.19	16.633
814.49	16.590
814.79	16.990
815.09	16.657
815.39	16.286
815.70	16.886
816.00	16.776
816.30	16.559
816.60	16.485
816.90	17.211
817.20	17.705
817.50	18.212
817.81	18.815
818.11	18.907
818.41	19.504
818.71	19.671
819.01	19.591
819.31	19.765
819.61	19.703
819.92	19.767
820.22	19.644
820.52	19.697
820.82	19.698
821.12	19.642
821.42	19.694
821.72	19.609
822.02	19.598
822.32	19.516
822.62	19.446
822.92	19.486
823.22	19.387
823.52	19.404
823.83	19.243
824.13	19.225
824.43	19.089
824.73	18.969
825.03	18.840
825.33	18.750
825.63	18.921
825.93	18.891
826.23	18.855
826.53	18.856
826.83	18.798
827.13	18.741
827.43	18.636
827.73	18.743
828.03	18.452
828.33	18.270
828.63	18.124
828.93	17.771
829.23	17.662
829.53	17.345
829.83	17.618
830.13	17.595
830.42	17.753
830.72	17.994
831.02	17.993
831.32	18.574
831.62	18.621
831.92	18.699
832.22	19.041
832.52	18.911
832.82	19.170
833.12	18.844
833.42	18.698
833.72	18.757
834.01	18.444
834.31	18.221
834.61	17.998
834.91	18.131
835.21	18.149
835.51	17.714
835.81	17.912
836.11	17.483
836.40	17.406
836.70	17.515
837.00	16.905
837.30	16.354
837.60	16.591
837.90	16.635
838.19	16.440
838.49	16.041
838.79	15.828
839.09	15.682
839.39	15.371
839.68	15.120
839.98	15.191
840.28	15.070
840.58	15.735
840.88	14.988
841.17	14.335
841.47	14.059
841.77	14.073
842.07	14.326
842.36	13.967
842.66	13.986
842.96	14.595
843.26	12.554
843.55	11.990
843.85	11.458
844.15	11.317
844.45	11.469
844.74	11.988
845.04	11.600
845.34	10.792
845.63	9.117
845.93	9.952
846.23	9.192
846.53	10.518
846.82	11.311
847.12	9.817
847.42	9.281
847.71	8.685
848.01	7.382
848.31	8.321
848.60	8.844
848.90	8.708
849.19	7.419
849.49	7.367
849.79	6.665
850.08	7.854
850.38	9.555
850.68	9.824
850.97	11.321
851.27	10.831
851.56	8.240
851.86	7.410
852.16	9.317
852.45	10.220
852.75	9.877
853.04	9.739
853.34	8.870
853.64	7.385
853.93	7.133
854.23	6.248
854.52	5.643
854.82	8.211
855.11	8.148
855.41	6.549
855.70	6.163
856.00	6.688
856.30	7.707
856.59	7.954
856.89	9.824
857.18	9.752
857.48	9.208
857.77	8.703
858.07	8.895
858.36	9.186
858.66	9.874
858.95	9.861
859.25	9.418
859.54	9.023
859.84	8.817
860.13	9.418
860.42	11.892
860.72	14.095
861.01	15.873
861.31	13.399
861.60	12.432
861.90	11.042
862.19	11.063
862.49	10.524
862.78	11.599
863.07	11.369
863.37	8.708
863.66	6.426
863.96	5.331
864.25	6.108
864.54	9.380
864.84	10.365
865.13	11.206
865.43	9.928
865.72	22.134
866.01	24.092
866.31	5.768
866.60	-1.553
866.89	-1.953
>>>>>End Spectral Data<<<<<
