OOIBase32 Version 2.0.0.6 Data File
++++++++++++++++++++++++++++++++++++
Date: 01-22-2012, 21:18:13
User: Valued Ocean Optics Customer
Spectrometer Serial Number: USB2E2917
Spectrometer Channel: Master
Integration Time (msec): 4
Spectra Averaged: 10
Boxcar Smoothing: 5
Correct for Electrical Dark: Enabled
Time Normalized: Disabled
Dual-beam Reference: Disabled
Reference Channel: Master
Temperature: Not acquired
Spectrometer Type: S2000
ADC Type: USB2000
Number of Pixels in File: 2048
Graph Title: 
>>>>>Begin Spectral Data<<<<<
180.30	0.000
180.67	0.000
181.03	10.166
181.40	153.869
181.77	-235.345
182.14	32.535
182.51	703.050
182.88	46.862
183.25	181.535
183.62	-179.019
183.99	33.961
184.36	54.489
184.73	18.024
185.10	1989.390
185.46	-49.835
185.83	9.167
186.20	43.139
186.57	416.818
186.94	62.435
187.31	89.336
187.68	1275.552
188.05	589.841
188.42	442.106
188.78	-75.594
189.15	10.264
189.52	18.869
189.89	18.448
190.26	39.630
190.63	55.285
191.00	78.393
191.37	73.098
191.73	93.577
192.10	92.344
192.47	23.457
192.84	-116.635
193.21	-248.500
193.58	-268.790
193.94	-266.624
194.31	-185.366
194.68	-100.201
195.05	-146.534
195.42	-144.774
195.79	-108.296
196.15	-72.267
196.52	-33.518
196.89	-26.548
197.26	-52.681
197.63	-59.827
198.00	-32.956
198.36	-83.118
198.73	-133.476
199.10	-61.542
199.47	-17.837
199.84	-1.015
200.20	-51.814
200.57	-31.699
200.94	-2.077
201.31	33.630
201.68	39.150
202.04	24.728
202.41	25.557
202.78	27.099
203.15	28.395
203.51	23.714
203.88	31.012
204.25	28.880
204.62	18.505
204.98	12.109
205.35	-23.849
205.72	-74.505
206.09	-125.166
206.46	-92.825
206.82	-159.694
207.19	-158.661
207.56	-182.569
207.92	-204.895
208.29	-130.591
208.66	-84.210
209.03	-90.252
209.39	-31.914
209.76	-8.948
210.13	0.674
210.50	5.690
210.86	-9.775
211.23	-20.206
211.60	-30.364
211.96	-55.881
212.33	-103.134
212.70	5425.446
213.07	419.196
213.43	355.887
213.80	976.409
214.17	177.995
214.53	1029.263
214.90	-72.888
215.27	-21.360
215.63	-50.442
216.00	-14.789
216.37	-2.163
216.74	23.791
217.10	23.154
217.47	20.159
217.84	19.246
218.20	17.208
218.57	37.338
218.94	34.254
219.30	26.381
219.67	33.351
220.04	35.174
220.40	41.229
220.77	30.252
221.13	23.878
221.50	24.525
221.87	19.157
222.23	24.047
222.60	11.769
222.97	7.289
223.33	6.718
223.70	-0.705
224.07	-3.918
224.43	-5.540
224.80	0.202
225.16	-0.737
225.53	-0.976
225.90	-0.304
226.26	-1.294
226.63	-0.129
226.99	1.520
227.36	1.376
227.73	2.688
228.09	2.740
228.46	3.345
228.82	1.293
229.19	2.389
229.56	1.930
229.92	3.424
230.29	3.268
230.65	2.780
231.02	1.421
231.38	2.529
231.75	0.393
232.12	0.611
232.48	-1.794
232.85	1.360
233.21	2.206
233.58	3.357
233.94	2.639
234.31	2.624
234.68	1.188
235.04	3.565
235.41	0.851
235.77	1.424
236.14	1.009
236.50	3.927
236.87	4.828
237.23	4.135
237.60	2.914
237.96	2.524
238.33	2.513
238.69	3.636
239.06	2.333
239.42	2.828
239.79	3.328
240.15	3.890
240.52	2.843
240.88	1.214
241.25	0.691
241.61	0.496
241.98	1.064
242.34	0.921
242.71	0.332
243.07	1.254
243.44	1.864
243.80	1.991
244.17	1.490
244.53	1.303
244.90	1.620
245.26	2.074
245.63	2.098
245.99	2.006
246.36	2.242
246.72	2.228
247.09	1.628
247.45	1.713
247.81	1.590
248.18	1.881
248.54	2.280
248.91	2.059
249.27	1.767
249.64	2.226
250.00	2.293
250.36	2.503
250.73	2.449
251.09	2.155
251.46	1.556
251.82	1.825
252.19	1.460
252.55	1.408
252.91	2.253
253.28	2.319
253.64	1.930
254.01	1.667
254.37	1.133
254.73	1.814
255.10	2.242
255.46	2.617
255.83	2.394
256.19	2.429
256.55	2.537
256.92	2.211
257.28	2.379
257.65	2.475
258.01	2.411
258.37	2.500
258.74	2.536
259.10	2.812
259.46	2.569
259.83	2.677
260.19	2.802
260.55	2.747
260.92	2.808
261.28	2.632
261.64	2.576
262.01	2.490
262.37	2.197
262.73	1.701
263.10	1.383
263.46	1.794
263.82	1.732
264.19	1.426
264.55	1.648
264.91	2.072
265.28	2.539
265.64	2.356
266.00	2.379
266.37	2.663
266.73	2.833
267.09	2.653
267.46	2.135
267.82	2.166
268.18	2.549
268.54	2.368
268.91	2.312
269.27	1.915
269.63	1.949
270.00	2.100
270.36	2.012
270.72	1.990
271.08	2.168
271.45	2.657
271.81	2.786
272.17	2.946
272.53	2.936
272.90	2.772
273.26	2.818
273.62	2.830
273.98	2.954
274.35	3.139
274.71	3.003
275.07	2.902
275.43	2.646
275.80	2.579
276.16	2.344
276.52	2.352
276.88	2.432
277.25	2.160
277.61	2.337
277.97	2.140
278.33	1.938
278.69	2.372
279.06	2.472
279.42	2.479
279.78	2.482
280.14	2.419
280.50	2.379
280.87	2.231
281.23	2.457
281.59	2.449
281.95	2.396
282.31	2.408
282.68	2.335
283.04	2.287
283.40	2.069
283.76	1.996
284.12	1.942
284.48	1.960
284.85	2.039
285.21	2.152
285.57	2.284
285.93	2.456
286.29	2.430
286.65	2.529
287.02	2.579
287.38	2.924
287.74	2.973
288.10	2.919
288.46	2.691
288.82	2.645
289.18	2.276
289.54	1.986
289.91	1.817
290.27	2.050
290.63	1.945
290.99	1.877
291.35	1.617
291.71	1.533
292.07	1.769
292.43	2.080
292.79	2.213
293.16	2.572
293.52	2.683
293.88	2.807
294.24	2.629
294.60	2.566
294.96	2.601
295.32	2.574
295.68	2.347
296.04	2.305
296.40	2.143
296.76	2.033
297.12	2.028
297.49	2.040
297.85	2.186
298.21	2.360
298.57	2.459
298.93	2.582
299.29	2.681
299.65	3.181
300.01	3.250
300.37	3.508
300.73	3.507
301.09	3.406
301.45	3.272
301.81	3.112
302.17	2.928
302.53	2.684
302.89	2.685
303.25	2.694
303.61	2.513
303.97	2.422
304.33	2.322
304.69	2.679
305.05	2.750
305.41	2.928
305.77	2.946
306.13	3.076
306.49	3.369
306.85	3.308
307.21	3.311
307.57	3.279
307.93	3.324
308.29	3.447
308.65	3.053
309.01	3.069
309.37	3.012
309.73	2.967
310.09	2.979
310.45	2.869
310.81	2.986
311.17	2.964
311.53	2.975
311.89	2.965
312.25	2.838
312.61	3.098
312.96	3.098
313.32	3.103
313.68	2.953
314.04	2.949
314.40	2.864
314.76	2.788
315.12	2.822
315.48	3.051
315.84	2.789
316.20	2.784
316.56	2.804
316.92	2.669
317.27	2.729
317.63	2.843
317.99	2.776
318.35	2.966
318.71	3.014
319.07	3.250
319.43	2.961
319.79	3.148
320.15	3.145
320.50	3.025
320.86	3.035
321.22	2.973
321.58	2.946
321.94	3.021
322.30	3.097
322.66	2.988
323.01	2.888
323.37	3.099
323.73	3.051
324.09	3.244
324.45	3.289
324.81	3.354
325.17	3.351
325.52	3.452
325.88	3.428
326.24	3.325
326.60	3.423
326.96	3.461
327.31	3.240
327.67	3.287
328.03	3.213
328.39	3.183
328.75	3.292
329.11	3.394
329.46	3.371
329.82	3.419
330.18	3.409
330.54	3.473
330.90	3.404
331.25	3.462
331.61	3.431
331.97	3.309
332.33	3.255
332.68	3.270
333.04	3.237
333.40	3.332
333.76	3.257
334.11	3.226
334.47	3.144
334.83	3.063
335.19	3.083
335.54	3.028
335.90	3.035
336.26	3.061
336.62	3.066
336.97	3.015
337.33	2.976
337.69	2.988
338.05	3.062
338.40	3.022
338.76	3.111
339.12	3.175
339.48	3.196
339.83	3.294
340.19	3.394
340.55	3.351
340.90	3.447
341.26	3.463
341.62	3.459
341.97	3.423
342.33	3.467
342.69	3.454
343.04	3.392
343.40	3.545
343.76	3.481
344.12	3.413
344.47	3.351
344.83	3.366
345.19	3.451
345.54	3.498
345.90	3.434
346.26	3.442
346.61	3.358
346.97	3.434
347.32	3.316
347.68	3.352
348.04	3.384
348.39	3.450
348.75	3.456
349.11	3.370
349.46	3.385
349.82	3.391
350.18	3.464
350.53	3.575
350.89	3.528
351.24	3.597
351.60	3.603
351.96	3.566
352.31	3.532
352.67	3.518
353.02	3.503
353.38	3.445
353.74	3.463
354.09	3.350
354.45	3.243
354.80	3.189
355.16	3.230
355.52	3.158
355.87	3.178
356.23	3.246
356.58	3.215
356.94	3.245
357.29	3.259
357.65	3.304
358.00	3.293
358.36	3.378
358.72	3.375
359.07	3.264
359.43	3.312
359.78	3.308
360.14	3.253
360.49	3.243
360.85	3.212
361.20	3.248
361.56	3.232
361.91	3.299
362.27	3.328
362.62	3.379
362.98	3.490
363.33	3.526
363.69	3.558
364.04	3.627
364.40	3.658
364.75	3.686
365.11	3.633
365.46	3.612
365.82	3.532
366.17	3.481
366.53	3.450
366.88	3.412
367.24	3.385
367.59	3.360
367.95	3.390
368.30	3.394
368.66	3.421
369.01	3.489
369.37	3.523
369.72	3.610
370.08	3.682
370.43	3.716
370.78	3.758
371.14	3.786
371.49	3.783
371.85	3.716
372.20	3.775
372.56	3.816
372.91	3.806
373.26	3.898
373.62	3.829
373.97	3.833
374.33	3.872
374.68	3.870
375.03	3.854
375.39	3.835
375.74	3.858
376.10	3.848
376.45	3.857
376.80	3.852
377.16	3.820
377.51	3.899
377.87	3.930
378.22	3.924
378.57	3.945
378.93	3.980
379.28	4.078
379.63	4.101
379.99	4.090
380.34	4.070
380.70	4.155
381.05	4.187
381.40	4.199
381.76	4.202
382.11	4.200
382.46	4.194
382.82	4.172
383.17	4.104
383.52	4.165
383.88	4.196
384.23	4.225
384.58	4.201
384.94	4.214
385.29	4.258
385.64	4.264
385.99	4.293
386.35	4.351
386.70	4.412
387.05	4.491
387.41	4.534
387.76	4.567
388.11	4.594
388.47	4.597
388.82	4.653
389.17	4.706
389.52	4.723
389.88	4.834
390.23	4.888
390.58	4.919
390.93	4.993
391.29	5.045
391.64	5.097
391.99	5.158
392.34	5.228
392.70	5.242
393.05	5.243
393.40	5.308
393.75	5.316
394.11	5.343
394.46	5.383
394.81	5.420
395.16	5.417
395.52	5.490
395.87	5.540
396.22	5.591
396.57	5.642
396.92	5.699
397.28	5.717
397.63	5.733
397.98	5.787
398.33	5.903
398.68	5.964
399.04	6.003
399.39	6.014
399.74	6.037
400.09	6.097
400.44	6.131
400.80	6.188
401.15	6.254
401.50	6.334
401.85	6.376
402.20	6.393
402.55	6.436
402.90	6.524
403.26	6.566
403.61	6.636
403.96	6.679
404.31	6.738
404.66	6.806
405.01	6.875
405.36	6.887
405.72	6.954
406.07	7.024
406.42	7.126
406.77	7.167
407.12	7.269
407.47	7.329
407.82	7.406
408.17	7.445
408.53	7.494
408.88	7.568
409.23	7.671
409.58	7.743
409.93	7.820
410.28	7.875
410.63	7.947
410.98	7.977
411.33	8.049
411.68	8.142
412.03	8.237
412.38	8.308
412.73	8.360
413.09	8.434
413.44	8.474
413.79	8.542
414.14	8.582
414.49	8.611
414.84	8.704
415.19	8.745
415.54	8.761
415.89	8.785
416.24	8.827
416.59	8.866
416.94	8.893
417.29	8.909
417.64	8.918
417.99	8.962
418.34	9.003
418.69	9.009
419.04	9.031
419.39	9.085
419.74	9.140
420.09	9.182
420.44	9.231
420.79	9.287
421.14	9.354
421.49	9.420
421.84	9.448
422.19	9.511
422.54	9.582
422.89	9.654
423.24	9.699
423.59	9.783
423.94	9.868
424.29	9.944
424.64	10.023
424.99	10.112
425.34	10.179
425.68	10.274
426.03	10.374
426.38	10.445
426.73	10.550
427.08	10.627
427.43	10.697
427.78	10.748
428.13	10.791
428.48	10.848
428.83	10.888
429.18	10.962
429.53	11.040
429.87	11.089
430.22	11.140
430.57	11.170
430.92	11.216
431.27	11.235
431.62	11.263
431.97	11.311
432.32	11.356
432.67	11.406
433.01	11.440
433.36	11.482
433.71	11.529
434.06	11.581
434.41	11.629
434.76	11.703
435.11	11.782
435.45	11.840
435.80	11.889
436.15	11.915
436.50	11.945
436.85	11.985
437.20	11.997
437.54	12.009
437.89	12.037
438.24	12.068
438.59	12.083
438.94	12.075
439.29	12.112
439.63	12.143
439.98	12.184
440.33	12.218
440.68	12.249
441.03	12.301
441.37	12.322
441.72	12.345
442.07	12.385
442.42	12.406
442.76	12.467
443.11	12.478
443.46	12.486
443.81	12.514
444.16	12.533
444.50	12.564
444.85	12.583
445.20	12.635
445.55	12.679
445.89	12.699
446.24	12.730
446.59	12.760
446.94	12.814
447.28	12.871
447.63	12.920
447.98	12.997
448.32	13.039
448.67	13.077
449.02	13.118
449.37	13.178
449.71	13.229
450.06	13.288
450.41	13.329
450.75	13.371
451.10	13.410
451.45	13.431
451.79	13.460
452.14	13.505
452.49	13.559
452.84	13.594
453.18	13.623
453.53	13.639
453.88	13.673
454.22	13.694
454.57	13.707
454.92	13.723
455.26	13.736
455.61	13.731
455.95	13.729
456.30	13.717
456.65	13.707
456.99	13.695
457.34	13.718
457.69	13.730
458.03	13.753
458.38	13.767
458.73	13.801
459.07	13.825
459.42	13.868
459.76	13.913
460.11	13.992
460.46	14.071
460.80	14.126
461.15	14.191
461.49	14.255
461.84	14.317
462.19	14.382
462.53	14.439
462.88	14.499
463.22	14.515
463.57	14.572
463.91	14.591
464.26	14.620
464.61	14.672
464.95	14.729
465.30	14.748
465.64	14.781
465.99	14.818
466.33	14.842
466.68	14.869
467.02	14.927
467.37	14.947
467.71	14.962
468.06	14.984
468.41	15.016
468.75	15.013
469.10	15.047
469.44	15.075
469.79	15.091
470.13	15.110
470.48	15.135
470.82	15.168
471.17	15.174
471.51	15.197
471.86	15.230
472.20	15.209
472.55	15.240
472.89	15.253
473.23	15.232
473.58	15.231
473.92	15.227
474.27	15.249
474.61	15.246
474.96	15.243
475.30	15.239
475.65	15.234
475.99	15.265
476.34	15.255
476.68	15.242
477.02	15.248
477.37	15.253
477.71	15.249
478.06	15.228
478.40	15.217
478.75	15.265
479.09	15.330
479.43	15.385
479.78	15.466
480.12	15.564
480.47	15.686
480.81	15.814
481.15	15.949
481.50	16.102
481.84	16.292
482.19	16.491
482.53	16.631
482.87	16.661
483.22	16.571
483.56	16.385
483.90	16.176
484.25	16.019
484.59	15.927
484.94	15.811
485.28	15.672
485.62	15.484
485.97	15.278
486.31	15.099
486.65	15.048
487.00	15.131
487.34	15.314
487.68	15.518
488.03	15.651
488.37	15.674
488.71	15.704
489.06	15.725
489.40	15.749
489.74	15.764
490.09	15.800
490.43	15.815
490.77	15.834
491.11	15.867
491.46	15.894
491.80	15.913
492.14	15.927
492.49	15.953
492.83	15.978
493.17	15.983
493.51	16.005
493.86	16.017
494.20	16.029
494.54	16.044
494.88	16.040
495.23	16.043
495.57	16.046
495.91	16.089
496.25	16.105
496.60	16.131
496.94	16.176
497.28	16.210
497.62	16.244
497.97	16.294
498.31	16.333
498.65	16.400
498.99	16.467
499.33	16.535
499.68	16.548
500.02	16.581
500.36	16.610
500.70	16.631
501.04	16.642
501.39	16.661
501.73	16.664
502.07	16.678
502.41	16.691
502.75	16.699
503.09	16.713
503.44	16.752
503.78	16.760
504.12	16.780
504.46	16.794
504.80	16.831
505.14	16.848
505.49	16.881
505.83	16.892
506.17	16.906
506.51	16.917
506.85	16.903
507.19	16.917
507.53	16.951
507.87	16.979
508.22	17.004
508.56	17.024
508.90	17.039
509.24	17.058
509.58	17.073
509.92	17.072
510.26	17.087
510.60	17.107
510.94	17.139
511.28	17.157
511.63	17.165
511.97	17.187
512.31	17.205
512.65	17.242
512.99	17.252
513.33	17.264
513.67	17.282
514.01	17.292
514.35	17.307
514.69	17.282
515.03	17.276
515.37	17.291
515.71	17.298
516.05	17.284
516.39	17.275
516.73	17.274
517.07	17.290
517.41	17.307
517.75	17.324
518.09	17.334
518.43	17.362
518.77	17.381
519.11	17.376
519.45	17.386
519.79	17.398
520.13	17.403
520.47	17.412
520.81	17.415
521.15	17.415
521.49	17.406
521.83	17.371
522.17	17.359
522.51	17.324
522.85	17.326
523.19	17.311
523.53	17.331
523.87	17.401
524.21	17.435
524.55	17.500
524.89	17.538
525.23	17.589
525.57	17.653
525.91	17.694
526.25	17.757
526.58	17.809
526.92	17.866
527.26	17.895
527.60	17.877
527.94	17.879
528.28	17.852
528.62	17.833
528.96	17.798
529.30	17.767
529.64	17.732
529.97	17.676
530.31	17.620
530.65	17.559
530.99	17.508
531.33	17.494
531.67	17.470
532.01	17.463
532.35	17.458
532.68	17.470
533.02	17.478
533.36	17.480
533.70	17.474
534.04	17.468
534.38	17.471
534.71	17.459
535.05	17.433
535.39	17.418
535.73	17.395
536.07	17.382
536.41	17.362
536.74	17.348
537.08	17.320
537.42	17.324
537.76	17.341
538.10	17.331
538.43	17.344
538.77	17.382
539.11	17.400
539.45	17.398
539.79	17.408
540.12	17.412
540.46	17.408
540.80	17.411
541.14	17.405
541.47	17.388
541.81	17.366
542.15	17.355
542.49	17.317
542.82	17.299
543.16	17.292
543.50	17.276
543.84	17.260
544.17	17.233
544.51	17.243
544.85	17.257
545.18	17.239
545.52	17.268
545.86	17.275
546.20	17.291
546.53	17.303
546.87	17.336
547.21	17.328
547.54	17.353
547.88	17.383
548.22	17.380
548.55	17.365
548.89	17.360
549.23	17.359
549.56	17.361
549.90	17.345
550.24	17.327
550.57	17.304
550.91	17.305
551.25	17.285
551.58	17.273
551.92	17.266
552.26	17.289
552.59	17.308
552.93	17.328
553.27	17.331
553.60	17.336
553.94	17.353
554.27	17.371
554.61	17.351
554.95	17.350
555.28	17.345
555.62	17.348
555.95	17.350
556.29	17.371
556.63	17.348
556.96	17.322
557.30	17.322
557.63	17.299
557.97	17.283
558.31	17.296
558.64	17.281
558.98	17.302
559.31	17.276
559.65	17.219
559.98	17.147
560.32	17.144
560.65	17.130
560.99	17.076
561.33	17.045
561.66	17.001
562.00	16.946
562.33	16.917
562.67	16.877
563.00	16.863
563.34	16.854
563.67	16.868
564.01	16.807
564.34	16.796
564.68	16.805
565.01	16.790
565.35	16.789
565.68	16.828
566.02	16.828
566.35	16.816
566.69	16.788
567.02	16.754
567.36	16.741
567.69	16.720
568.03	16.696
568.36	16.693
568.69	16.680
569.03	16.656
569.36	16.620
569.70	16.603
570.03	16.609
570.37	16.593
570.70	16.588
571.04	16.570
571.37	16.574
571.70	16.583
572.04	16.553
572.37	16.554
572.71	16.551
573.04	16.525
573.37	16.505
573.71	16.492
574.04	16.512
574.38	16.542
574.71	16.543
575.04	16.555
575.38	16.542
575.71	16.573
576.05	16.565
576.38	16.580
576.71	16.594
577.05	16.596
577.38	16.583
577.71	16.583
578.05	16.557
578.38	16.550
578.71	16.534
579.05	16.536
579.38	16.485
579.71	16.482
580.05	16.455
580.38	16.468
580.71	16.451
581.05	16.420
581.38	16.408
581.71	16.388
582.05	16.375
582.38	16.320
582.71	16.292
583.04	16.291
583.38	16.270
583.71	16.253
584.04	16.222
584.38	16.224
584.71	16.197
585.04	16.186
585.37	16.187
585.71	16.155
586.04	16.161
586.37	16.162
586.70	16.120
587.04	16.114
587.37	16.102
587.70	16.045
588.03	15.986
588.37	15.982
588.70	15.954
589.03	15.905
589.36	15.872
589.69	15.854
590.03	15.797
590.36	15.810
590.69	15.730
591.02	15.689
591.35	15.692
591.69	15.688
592.02	15.639
592.35	15.585
592.68	15.545
593.01	15.530
593.35	15.486
593.68	15.414
594.01	15.352
594.34	15.363
594.67	15.335
595.00	15.268
595.34	15.237
595.67	15.203
596.00	15.155
596.33	15.167
596.66	15.161
596.99	15.155
597.32	15.177
597.65	15.136
597.99	15.069
598.32	15.027
598.65	15.022
598.98	14.961
599.31	14.921
599.64	14.917
599.97	14.887
600.30	14.845
600.63	14.806
600.96	14.800
601.30	14.797
601.63	14.782
601.96	14.758
602.29	14.746
602.62	14.765
602.95	14.767
603.28	14.734
603.61	14.670
603.94	14.628
604.27	14.608
604.60	14.573
604.93	14.577
605.26	14.552
605.59	14.521
605.92	14.494
606.25	14.478
606.58	14.457
606.91	14.434
607.24	14.428
607.57	14.420
607.90	14.400
608.23	14.372
608.56	14.317
608.89	14.333
609.22	14.321
609.55	14.312
609.88	14.281
610.21	14.268
610.54	14.237
610.87	14.220
611.20	14.198
611.53	14.171
611.86	14.153
612.19	14.152
612.52	14.111
612.85	14.118
613.18	14.127
613.51	14.096
613.84	14.074
614.17	14.090
614.49	14.064
614.82	14.093
615.15	14.081
615.48	14.081
615.81	14.053
616.14	14.056
616.47	14.036
616.80	14.020
617.13	14.030
617.46	14.011
617.78	13.967
618.11	13.984
618.44	13.927
618.77	13.901
619.10	13.821
619.43	13.802
619.76	13.785
620.09	13.768
620.41	13.714
620.74	13.671
621.07	13.670
621.40	13.692
621.73	13.661
622.06	13.651
622.38	13.658
622.71	13.699
623.04	13.676
623.37	13.654
623.70	13.615
624.02	13.604
624.35	13.576
624.68	13.554
625.01	13.513
625.34	13.503
625.66	13.475
625.99	13.432
626.32	13.410
626.65	13.435
626.98	13.394
627.30	13.424
627.63	13.424
627.96	13.428
628.29	13.425
628.61	13.446
628.94	13.432
629.27	13.409
629.60	13.408
629.92	13.436
630.25	13.365
630.58	13.342
630.91	13.269
631.23	13.225
631.56	13.217
631.89	13.198
632.21	13.175
632.54	13.176
632.87	13.185
633.19	13.196
633.52	13.149
633.85	13.131
634.18	13.138
634.50	13.134
634.83	13.091
635.16	13.066
635.48	13.040
635.81	13.002
636.14	12.938
636.46	12.911
636.79	12.843
637.11	12.833
637.44	12.846
637.77	12.829
638.09	12.808
638.42	12.821
638.75	12.823
639.07	12.796
639.40	12.818
639.73	12.853
640.05	12.830
640.38	12.826
640.70	12.782
641.03	12.773
641.36	12.745
641.68	12.769
642.01	12.777
642.33	12.817
642.66	12.794
642.98	12.791
643.31	12.743
643.64	12.766
643.96	12.765
644.29	12.763
644.61	12.693
644.94	12.727
645.26	12.717
645.59	12.705
645.91	12.639
646.24	12.668
646.56	12.623
646.89	12.628
647.22	12.609
647.54	12.632
647.87	12.649
648.19	12.720
648.52	12.688
648.84	12.672
649.17	12.699
649.49	12.646
649.82	12.627
650.14	12.646
650.47	12.621
650.79	12.608
651.11	12.574
651.44	12.564
651.76	12.553
652.09	12.598
652.41	12.585
652.74	12.532
653.06	12.533
653.39	12.529
653.71	12.520
654.04	12.555
654.36	12.538
654.68	12.545
655.01	12.503
655.33	12.511
655.66	12.453
655.98	12.443
656.30	12.444
656.63	12.435
656.95	12.438
657.28	12.404
657.60	12.377
657.92	12.372
658.25	12.320
658.57	12.296
658.90	12.225
659.22	12.190
659.54	12.121
659.87	12.067
660.19	12.007
660.51	11.947
660.84	11.952
661.16	11.901
661.48	11.868
661.81	11.840
662.13	11.833
662.45	11.878
662.78	11.901
663.10	11.935
663.42	11.973
663.75	12.013
664.07	12.044
664.39	12.012
664.72	12.019
665.04	12.039
665.36	12.061
665.69	12.087
666.01	12.068
666.33	12.036
666.65	12.025
666.98	12.006
667.30	12.079
667.62	12.064
667.94	12.060
668.27	12.089
668.59	12.031
668.91	12.076
669.23	12.064
669.56	12.043
669.88	11.992
670.20	11.953
670.52	11.997
670.85	11.938
671.17	11.879
671.49	11.881
671.81	11.833
672.13	11.872
672.46	11.857
672.78	11.878
673.10	11.828
673.42	11.900
673.74	11.907
674.07	11.868
674.39	11.860
674.71	11.830
675.03	11.857
675.35	11.877
675.67	11.786
676.00	11.770
676.32	11.768
676.64	11.811
676.96	11.809
677.28	11.874
677.60	11.849
677.92	11.846
678.25	11.871
678.57	11.858
678.89	11.881
679.21	11.937
679.53	11.902
679.85	11.855
680.17	11.852
680.49	11.808
680.81	11.757
681.13	11.749
681.46	11.704
681.78	11.731
682.10	11.698
682.42	11.630
682.74	11.597
683.06	11.578
683.38	11.637
683.70	11.657
684.02	11.728
684.34	11.769
684.66	11.853
684.98	11.973
685.30	12.024
685.62	12.102
685.94	12.148
686.26	12.231
686.58	12.271
686.90	12.245
687.22	12.199
687.54	12.195
687.86	12.151
688.18	12.121
688.50	12.054
688.82	11.996
689.14	11.952
689.46	11.922
689.78	11.884
690.10	11.917
690.42	11.813
690.74	11.840
691.06	11.821
691.38	11.836
691.70	11.855
692.02	11.815
692.34	11.826
692.66	11.797
692.98	11.786
693.30	11.754
693.62	11.704
693.94	11.781
694.26	11.758
694.57	11.757
694.89	11.752
695.21	11.683
695.53	11.719
695.85	11.712
696.17	11.751
696.49	11.758
696.81	11.812
697.13	11.897
697.44	11.946
697.76	11.965
698.08	11.914
698.40	11.920
698.72	11.855
699.04	11.822
699.36	11.785
699.67	11.667
699.99	11.632
700.31	11.500
700.63	11.311
700.95	11.141
701.27	11.010
701.58	10.971
701.90	10.896
702.22	10.912
702.54	10.883
702.86	10.841
703.17	10.863
703.49	10.771
703.81	10.820
704.13	10.765
704.45	10.811
704.76	10.750
705.08	10.765
705.40	10.745
705.72	10.784
706.03	10.795
706.35	10.875
706.67	10.892
706.99	11.000
707.30	10.955
707.62	11.101
707.94	11.209
708.26	11.264
708.57	11.252
708.89	11.315
709.21	11.298
709.53	11.345
709.84	11.403
710.16	11.372
710.48	11.384
710.79	11.387
711.11	11.327
711.43	11.314
711.74	11.369
712.06	11.469
712.38	11.507
712.69	11.551
713.01	11.547
713.33	11.569
713.64	11.713
713.96	11.763
714.28	11.927
714.59	12.072
714.91	12.109
715.23	12.267
715.54	12.193
715.86	12.182
716.17	12.308
716.49	12.268
716.81	12.210
717.12	12.075
717.44	12.016
717.76	11.954
718.07	11.803
718.39	11.674
718.70	11.515
719.02	11.492
719.33	11.437
719.65	11.335
719.97	11.320
720.28	11.337
720.60	11.493
720.91	11.505
721.23	11.411
721.54	11.505
721.86	11.517
722.17	11.572
722.49	11.600
722.81	11.792
723.12	11.778
723.44	11.895
723.75	11.837
724.07	11.685
724.38	11.760
724.70	11.840
725.01	11.841
725.33	11.911
725.64	11.904
725.96	11.925
726.27	11.904
726.59	12.018
726.90	11.985
727.22	12.022
727.53	12.110
727.84	11.951
728.16	11.905
728.47	11.911
728.79	11.923
729.10	11.783
729.42	11.778
729.73	11.629
730.05	11.509
730.36	11.502
730.67	11.447
730.99	11.422
731.30	11.404
731.62	11.419
731.93	11.273
732.24	11.037
732.56	11.105
732.87	11.074
733.19	11.030
733.50	10.990
733.81	10.797
734.13	10.806
734.44	10.738
734.76	10.804
735.07	10.609
735.38	10.603
735.70	10.674
736.01	10.671
736.32	10.619
736.64	10.543
736.95	10.380
737.26	10.639
737.58	10.608
737.89	10.528
738.20	10.400
738.52	10.462
738.83	10.463
739.14	10.444
739.45	10.439
739.77	10.322
740.08	10.361
740.39	10.357
740.71	9.996
741.02	9.743
741.33	9.663
741.64	9.537
741.96	9.506
742.27	9.476
742.58	9.330
742.90	9.150
743.21	9.162
743.52	9.203
743.83	9.205
744.14	9.194
744.46	9.126
744.77	9.087
745.08	9.281
745.39	9.224
745.71	9.308
746.02	9.349
746.33	9.426
746.64	9.492
746.95	9.372
747.27	9.394
747.58	9.533
747.89	9.802
748.20	9.741
748.51	9.632
748.82	9.520
749.14	9.405
749.45	9.459
749.76	9.337
750.07	9.275
750.38	9.336
750.69	9.307
751.01	9.276
751.32	9.198
751.63	9.217
751.94	9.279
752.25	9.502
752.56	9.496
752.87	9.497
753.18	9.507
753.49	9.457
753.81	9.375
754.12	9.421
754.43	9.576
754.74	9.673
755.05	9.956
755.36	10.032
755.67	10.168
755.98	10.422
756.29	10.676
756.60	10.928
756.91	11.317
757.22	11.727
757.53	11.902
757.84	11.934
758.15	12.194
758.46	12.283
758.77	12.541
759.09	12.659
759.40	12.895
759.71	12.945
760.02	13.053
760.33	13.093
760.64	13.067
760.95	13.234
761.26	13.345
761.57	13.302
761.88	13.330
762.18	13.235
762.49	13.236
762.80	13.106
763.11	13.107
763.42	13.043
763.73	12.948
764.04	12.790
764.35	12.589
764.66	12.440
764.97	12.261
765.28	11.917
765.59	11.598
765.90	11.359
766.21	11.099
766.52	10.611
766.83	10.409
767.14	10.009
767.44	9.781
767.75	9.561
768.06	9.190
768.37	9.066
768.68	9.256
768.99	9.371
769.30	9.042
769.61	8.824
769.91	8.840
770.22	8.522
770.53	8.613
770.84	8.492
771.15	8.558
771.46	8.683
771.77	8.617
772.07	8.432
772.38	8.355
772.69	8.347
773.00	8.164
773.31	8.270
773.61	8.403
773.92	8.565
774.23	8.808
774.54	8.459
774.85	8.523
775.15	8.486
775.46	8.435
775.77	8.377
776.08	8.519
776.39	8.659
776.69	8.599
777.00	8.613
777.31	8.557
777.62	8.204
777.92	8.584
778.23	8.400
778.54	8.246
778.85	8.406
779.15	8.498
779.46	8.385
779.77	8.553
780.07	8.759
780.38	8.945
780.69	8.727
781.00	9.013
781.30	8.801
781.61	8.922
781.92	8.929
782.22	8.759
782.53	8.520
782.84	8.790
783.14	8.768
783.45	8.888
783.76	8.776
784.06	8.913
784.37	8.967
784.68	8.977
784.98	9.028
785.29	9.381
785.60	9.455
785.90	9.914
786.21	9.767
786.51	9.969
786.82	9.939
787.13	10.031
787.43	10.135
787.74	10.284
788.04	10.547
788.35	10.809
788.66	10.876
788.96	10.957
789.27	10.713
789.57	10.866
789.88	10.747
790.19	10.843
790.49	10.968
790.80	10.964
791.10	10.997
791.41	10.799
791.71	10.284
792.02	10.031
792.32	10.103
792.63	10.143
792.93	10.050
793.24	10.054
793.54	10.043
793.85	9.890
794.15	10.047
794.46	10.121
794.76	10.310
795.07	10.688
795.37	10.699
795.68	10.901
795.98	11.159
796.29	11.514
796.59	11.626
796.90	11.611
797.20	11.914
797.51	11.831
797.81	11.537
798.12	11.584
798.42	11.829
798.72	11.985
799.03	11.922
799.33	11.821
799.64	11.545
799.94	11.445
800.25	11.303
800.55	11.132
800.85	10.956
801.16	11.084
801.46	11.012
801.77	10.858
802.07	10.878
802.37	10.723
802.68	11.404
802.98	11.801
803.28	11.707
803.59	11.952
803.89	11.951
804.20	12.160
804.50	12.369
804.80	12.120
805.11	11.891
805.41	11.925
805.71	11.883
806.02	11.179
806.32	10.837
806.62	10.781
806.93	10.713
807.23	11.103
807.53	11.256
807.83	11.452
808.14	11.818
808.44	12.006
808.74	12.121
809.05	12.508
809.35	12.630
809.65	12.674
809.95	12.981
810.26	12.978
810.56	12.873
810.86	12.952
811.16	12.760
811.47	12.911
811.77	13.077
812.07	13.114
812.37	12.973
812.68	13.766
812.98	13.917
813.28	13.951
813.58	14.505
813.88	14.076
814.19	14.615
814.49	14.945
814.79	15.360
815.09	15.372
815.39	15.441
815.70	15.547
816.00	15.148
816.30	15.320
816.60	15.309
816.90	14.731
817.20	15.231
817.50	15.015
817.81	14.994
818.11	14.854
818.41	14.956
818.71	15.076
819.01	15.163
819.31	15.224
819.61	15.270
819.92	15.347
820.22	15.466
820.52	15.436
820.82	15.440
821.12	15.456
821.42	15.388
821.72	15.409
822.02	15.419
822.32	15.454
822.62	15.481
822.92	15.438
823.22	15.436
823.52	15.438
823.83	15.451
824.13	15.496
824.43	15.406
824.73	15.566
825.03	15.575
825.33	15.543
825.63	15.437
825.93	15.266
826.23	15.186
826.53	15.191
826.83	15.130
827.13	15.033
827.43	14.815
827.73	14.995
828.03	14.762
828.33	14.622
828.63	14.397
828.93	14.403
829.23	14.511
829.53	14.674
829.83	14.585
830.13	14.594
830.42	14.667
830.72	14.797
831.02	14.408
831.32	14.561
831.62	14.632
831.92	14.949
832.22	15.013
832.52	14.933
832.82	14.902
833.12	14.755
833.42	14.690
833.72	14.553
834.01	14.512
834.31	14.624
834.61	14.534
834.91	14.377
835.21	14.150
835.51	13.914
835.81	13.661
836.11	13.484
836.40	13.740
836.70	13.530
837.00	13.504
837.30	13.648
837.60	13.765
837.90	14.407
838.19	14.714
838.49	15.131
838.79	14.859
839.09	14.822
839.39	14.817
839.68	14.640
839.98	14.740
840.28	15.210
840.58	15.004
840.88	14.934
841.17	14.033
841.47	14.145
841.77	13.202
842.07	13.279
842.36	13.710
842.66	14.074
842.96	13.817
843.26	13.446
843.55	12.497
843.85	11.787
844.15	10.771
844.45	10.629
844.74	9.827
845.04	10.768
845.34	10.308
845.63	10.055
845.93	10.274
846.23	11.727
846.53	12.363
846.82	11.657
847.12	12.412
847.42	12.874
847.71	12.846
848.01	13.261
848.31	13.669
848.60	14.988
848.90	15.187
849.19	14.784
849.49	12.380
849.79	12.977
850.08	14.343
850.38	13.765
850.68	13.643
850.97	14.263
851.27	12.523
851.56	11.765
851.86	10.350
852.16	11.410
852.45	11.107
852.75	11.720
853.04	10.148
853.34	10.392
853.64	10.120
853.93	10.536
854.23	10.994
854.52	13.862
854.82	13.162
855.11	14.164
855.41	11.468
855.70	9.714
856.00	9.528
856.30	9.388
856.59	8.410
856.89	8.563
857.18	8.877
857.48	8.355
857.77	7.337
858.07	8.483
858.36	8.581
858.66	10.881
858.95	12.693
859.25	13.146
859.54	13.584
859.84	13.516
860.13	12.952
860.42	14.682
860.72	14.612
861.01	13.727
861.31	14.273
861.60	15.074
861.90	15.055
862.19	13.726
862.49	13.494
862.78	14.518
863.07	14.422
863.37	16.003
863.66	13.622
863.96	13.154
864.25	13.557
864.54	13.123
864.84	12.417
865.13	12.364
865.43	12.431
865.72	10.871
866.01	14.535
866.31	17.005
866.60	18.315
866.89	-1.020
>>>>>End Spectral Data<<<<<
