OOIBase32 Version 2.0.0.6 Data File
++++++++++++++++++++++++++++++++++++
Date: 01-20-2012, 23:04:36
User: Valued Ocean Optics Customer
Spectrometer Serial Number: USB2E2917
Spectrometer Channel: Master
Integration Time (msec): 3
Spectra Averaged: 10
Boxcar Smoothing: 5
Correct for Electrical Dark: Enabled
Time Normalized: Disabled
Dual-beam Reference: Disabled
Reference Channel: Master
Temperature: Not acquired
Spectrometer Type: S2000
ADC Type: USB2000
Number of Pixels in File: 2048
Graph Title: 
>>>>>Begin Spectral Data<<<<<
180.30	0.000
180.67	0.000
181.03	74.271
181.40	-55.407
181.77	15.883
182.14	3.255
182.51	-417.024
182.88	80.814
183.25	123.612
183.62	14.170
183.99	-201.356
184.36	106.074
184.73	157.907
185.10	-43.162
185.46	-128.701
185.83	54.799
186.20	-11.308
186.57	8.838
186.94	97.029
187.31	-739.033
187.68	200.268
188.05	-23.005
188.42	-3.990
188.78	-41.171
189.15	-8.392
189.52	19.327
189.89	37.924
190.26	48.571
190.63	55.245
191.00	44.667
191.37	69.904
191.73	98.409
192.10	88.665
192.47	69.721
192.84	74.686
193.21	77.021
193.58	85.568
193.94	67.974
194.31	61.126
194.68	58.894
195.05	55.490
195.42	49.872
195.79	52.460
196.15	58.577
196.52	48.916
196.89	66.062
197.26	53.711
197.63	50.332
198.00	59.344
198.36	55.078
198.73	50.995
199.10	73.268
199.47	84.207
199.84	70.558
200.20	65.429
200.57	61.678
200.94	67.436
201.31	66.961
201.68	34.581
202.04	39.931
202.41	39.880
202.78	23.206
203.15	-14.603
203.51	-7.745
203.88	-20.866
204.25	-49.246
204.62	-20.318
204.98	-24.053
205.35	-26.556
205.72	-25.644
206.09	-27.564
206.46	-27.572
206.82	-5.970
207.19	-15.564
207.56	-111.663
207.92	-110.667
208.29	-14.214
208.66	30.381
209.03	53.023
209.39	53.499
209.76	79.939
210.13	77.961
210.50	79.413
210.86	75.503
211.23	70.723
211.60	60.182
211.96	54.025
212.33	38.006
212.70	29.991
213.07	36.704
213.43	42.056
213.80	36.376
214.17	30.437
214.53	16.450
214.90	28.337
215.27	25.342
215.63	38.713
216.00	57.338
216.37	69.934
216.74	78.007
217.10	74.346
217.47	73.268
217.84	67.619
218.20	61.505
218.57	60.298
218.94	44.500
219.30	44.716
219.67	46.479
220.04	41.599
220.40	40.712
220.77	24.325
221.13	17.843
221.50	11.533
221.87	12.811
222.23	13.056
222.60	15.359
222.97	20.033
223.33	8.307
223.70	4.702
224.07	10.203
224.43	10.464
224.80	13.174
225.16	9.555
225.53	9.965
225.90	9.481
226.26	8.952
226.63	10.881
226.99	11.050
227.36	15.529
227.73	15.928
228.09	15.572
228.46	13.808
228.82	16.509
229.19	17.787
229.56	18.089
229.92	18.183
230.29	18.739
230.65	15.557
231.02	14.231
231.38	11.315
231.75	12.126
232.12	10.472
232.48	13.134
232.85	10.597
233.21	8.982
233.58	7.277
233.94	7.169
234.31	7.128
234.68	10.722
235.04	10.543
235.41	12.292
235.77	11.408
236.14	10.592
236.50	8.788
236.87	7.622
237.23	7.662
237.60	7.922
237.96	7.703
238.33	7.551
238.69	6.848
239.06	7.659
239.42	7.183
239.79	7.838
240.15	7.949
240.52	7.955
240.88	8.285
241.25	8.878
241.61	8.643
241.98	8.759
242.34	8.532
242.71	8.330
243.07	7.737
243.44	7.576
243.80	7.323
244.17	7.080
244.53	6.972
244.90	6.735
245.26	6.285
245.63	6.155
245.99	5.733
246.36	5.779
246.72	5.534
247.09	5.846
247.45	5.814
247.81	5.353
248.18	5.790
248.54	6.013
248.91	6.021
249.27	6.274
249.64	6.271
250.00	6.165
250.36	6.048
250.73	6.205
251.09	5.680
251.46	4.996
251.82	4.532
252.19	4.047
252.55	3.729
252.91	4.345
253.28	4.145
253.64	4.870
254.01	5.956
254.37	5.829
254.73	6.402
255.10	6.347
255.46	6.416
255.83	6.972
256.19	6.917
256.55	6.891
256.92	6.855
257.28	6.701
257.65	6.255
258.01	6.131
258.37	6.070
258.74	5.870
259.10	6.002
259.46	5.966
259.83	5.787
260.19	5.650
260.55	5.510
260.92	5.535
261.28	5.607
261.64	5.925
262.01	5.389
262.37	5.727
262.73	5.797
263.10	5.604
263.46	6.236
263.82	6.461
264.19	6.525
264.55	6.180
264.91	5.348
265.28	5.016
265.64	4.458
266.00	4.691
266.37	4.672
266.73	4.757
267.09	4.677
267.46	4.336
267.82	3.980
268.18	3.975
268.54	3.829
268.91	3.939
269.27	3.909
269.63	4.019
270.00	3.925
270.36	3.581
270.72	3.504
271.08	3.730
271.45	3.501
271.81	3.813
272.17	3.627
272.53	4.164
272.90	4.199
273.26	4.480
273.62	4.685
273.98	4.862
274.35	5.015
274.71	4.952
275.07	5.081
275.43	5.666
275.80	5.581
276.16	5.844
276.52	5.578
276.88	6.090
277.25	6.020
277.61	6.072
277.97	5.949
278.33	5.887
278.69	5.821
279.06	5.851
279.42	5.419
279.78	5.444
280.14	5.064
280.50	5.194
280.87	4.792
281.23	4.607
281.59	4.467
281.95	4.469
282.31	4.438
282.68	4.440
283.04	4.308
283.40	4.454
283.76	4.203
284.12	4.323
284.48	3.994
284.85	3.969
285.21	3.799
285.57	3.480
285.93	3.561
286.29	3.522
286.65	3.713
287.02	3.623
287.38	3.346
287.74	3.422
288.10	3.574
288.46	3.844
288.82	3.807
289.18	4.100
289.54	4.389
289.91	4.401
290.27	4.284
290.63	4.165
290.99	4.144
291.35	4.417
291.71	4.528
292.07	4.792
292.43	4.787
292.79	4.918
293.16	4.895
293.52	5.132
293.88	4.942
294.24	5.034
294.60	4.991
294.96	4.908
295.32	4.783
295.68	4.998
296.04	4.684
296.40	4.791
296.76	4.734
297.12	4.819
297.49	4.589
297.85	4.668
298.21	4.716
298.57	4.786
298.93	4.814
299.29	4.851
299.65	4.711
300.01	5.089
300.37	4.964
300.73	5.220
301.09	4.883
301.45	4.971
301.81	5.073
302.17	5.047
302.53	5.013
302.89	5.212
303.25	5.018
303.61	4.868
303.97	4.659
304.33	4.625
304.69	4.507
305.05	4.920
305.41	4.888
305.77	4.799
306.13	4.791
306.49	4.786
306.85	4.642
307.21	4.980
307.57	5.137
307.93	5.290
308.29	5.297
308.65	5.246
309.01	5.047
309.37	5.130
309.73	5.044
310.09	4.992
310.45	5.079
310.81	5.161
311.17	5.093
311.53	5.139
311.89	4.977
312.25	5.100
312.61	5.256
312.96	5.493
313.32	5.607
313.68	5.929
314.04	6.052
314.40	5.974
314.76	5.754
315.12	5.796
315.48	5.599
315.84	5.548
316.20	5.438
316.56	5.331
316.92	5.210
317.27	5.112
317.63	5.005
317.99	4.942
318.35	4.868
318.71	4.911
319.07	4.927
319.43	5.067
319.79	4.933
320.15	4.978
320.50	4.888
320.86	4.902
321.22	4.822
321.58	4.974
321.94	5.109
322.30	5.283
322.66	5.450
323.01	5.414
323.37	5.463
323.73	5.638
324.09	5.771
324.45	6.062
324.81	6.078
325.17	6.304
325.52	6.367
325.88	6.514
326.24	6.586
326.60	6.678
326.96	6.773
327.31	6.967
327.67	7.029
328.03	7.091
328.39	7.055
328.75	7.210
329.11	7.195
329.46	7.138
329.82	7.095
330.18	7.150
330.54	7.157
330.90	7.264
331.25	7.261
331.61	7.359
331.97	7.398
332.33	7.415
332.68	7.381
333.04	7.408
333.40	7.395
333.76	7.415
334.11	7.364
334.47	7.393
334.83	7.297
335.19	7.254
335.54	7.193
335.90	7.163
336.26	7.192
336.62	7.220
336.97	7.274
337.33	7.414
337.69	7.417
338.05	7.480
338.40	7.534
338.76	7.625
339.12	7.631
339.48	7.673
339.83	7.664
340.19	7.527
340.55	7.508
340.90	7.458
341.26	7.337
341.62	7.263
341.97	7.271
342.33	7.188
342.69	7.112
343.04	7.136
343.40	7.199
343.76	7.247
344.12	7.229
344.47	7.235
344.83	7.249
345.19	7.306
345.54	7.374
345.90	7.320
346.26	7.392
346.61	7.381
346.97	7.352
347.32	7.279
347.68	7.237
348.04	7.368
348.39	7.346
348.75	7.299
349.11	7.260
349.46	7.313
349.82	7.257
350.18	7.170
350.53	7.280
350.89	7.298
351.24	7.343
351.60	7.395
351.96	7.437
352.31	7.619
352.67	7.678
353.02	7.703
353.38	7.669
353.74	7.788
354.09	7.821
354.45	7.814
354.80	7.771
355.16	7.771
355.52	7.740
355.87	7.681
356.23	7.605
356.58	7.578
356.94	7.613
357.29	7.664
357.65	7.661
358.00	7.764
358.36	7.820
358.72	7.855
359.07	7.789
359.43	7.785
359.78	7.806
360.14	7.799
360.49	7.819
360.85	7.808
361.20	7.802
361.56	7.772
361.91	7.717
362.27	7.701
362.62	7.726
362.98	7.822
363.33	7.856
363.69	7.878
364.04	7.881
364.40	7.942
364.75	8.006
365.11	8.005
365.46	8.021
365.82	8.075
366.17	8.066
366.53	8.084
366.88	8.082
367.24	8.106
367.59	8.131
367.95	8.226
368.30	8.170
368.66	8.137
369.01	8.173
369.37	8.245
369.72	8.222
370.08	8.192
370.43	8.238
370.78	8.296
371.14	8.241
371.49	8.258
371.85	8.141
372.20	8.144
372.56	8.170
372.91	8.210
373.26	8.177
373.62	8.254
373.97	8.297
374.33	8.280
374.68	8.244
375.03	8.339
375.39	8.396
375.74	8.451
376.10	8.558
376.45	8.650
376.80	8.691
377.16	8.766
377.51	8.771
377.87	8.832
378.22	8.918
378.57	8.981
378.93	9.023
379.28	9.019
379.63	9.142
379.99	9.148
380.34	9.112
380.70	9.151
381.05	9.217
381.40	9.294
381.76	9.382
382.11	9.396
382.46	9.520
382.82	9.570
383.17	9.630
383.52	9.661
383.88	9.719
384.23	9.876
384.58	9.926
384.94	10.003
385.29	10.039
385.64	10.085
385.99	10.143
386.35	10.181
386.70	10.205
387.05	10.290
387.41	10.337
387.76	10.469
388.11	10.489
388.47	10.558
388.82	10.598
389.17	10.711
389.52	10.740
389.88	10.825
390.23	10.847
390.58	10.971
390.93	11.025
391.29	11.071
391.64	11.099
391.99	11.168
392.34	11.218
392.70	11.244
393.05	11.299
393.40	11.366
393.75	11.392
394.11	11.516
394.46	11.526
394.81	11.548
395.16	11.628
395.52	11.632
395.87	11.657
396.22	11.670
396.57	11.771
396.92	11.769
397.28	11.827
397.63	11.880
397.98	11.833
398.33	11.937
398.68	12.003
399.04	12.036
399.39	12.101
399.74	12.183
400.09	12.311
400.44	12.385
400.80	12.441
401.15	12.517
401.50	12.591
401.85	12.679
402.20	12.680
402.55	12.807
402.90	12.887
403.26	12.972
403.61	12.985
403.96	13.023
404.31	13.019
404.66	13.121
405.01	13.173
405.36	13.215
405.72	13.262
406.07	13.356
406.42	13.358
406.77	13.423
407.12	13.470
407.47	13.566
407.82	13.607
408.17	13.713
408.53	13.735
408.88	13.778
409.23	13.849
409.58	13.913
409.93	13.954
410.28	14.024
410.63	14.097
410.98	14.178
411.33	14.239
411.68	14.295
412.03	14.313
412.38	14.380
412.73	14.451
413.09	14.535
413.44	14.576
413.79	14.673
414.14	14.698
414.49	14.753
414.84	14.797
415.19	14.839
415.54	14.907
415.89	14.971
416.24	15.016
416.59	15.064
416.94	15.096
417.29	15.136
417.64	15.178
417.99	15.243
418.34	15.267
418.69	15.301
419.04	15.324
419.39	15.362
419.74	15.392
420.09	15.407
420.44	15.438
420.79	15.469
421.14	15.529
421.49	15.545
421.84	15.590
422.19	15.662
422.54	15.704
422.89	15.765
423.24	15.797
423.59	15.851
423.94	15.893
424.29	15.936
424.64	15.980
424.99	16.015
425.34	16.072
425.68	16.113
426.03	16.121
426.38	16.166
426.73	16.206
427.08	16.276
427.43	16.349
427.78	16.465
428.13	16.526
428.48	16.583
428.83	16.664
429.18	16.710
429.53	16.769
429.87	16.850
430.22	16.878
430.57	16.927
430.92	16.980
431.27	17.024
431.62	17.015
431.97	17.060
432.32	17.110
432.67	17.147
433.01	17.206
433.36	17.262
433.71	17.280
434.06	17.373
434.41	17.452
434.76	17.478
435.11	17.514
435.45	17.585
435.80	17.609
436.15	17.678
436.50	17.725
436.85	17.747
437.20	17.775
437.54	17.829
437.89	17.867
438.24	17.893
438.59	17.950
438.94	17.980
439.29	18.015
439.63	18.046
439.98	18.057
440.33	18.070
440.68	18.150
441.03	18.145
441.37	18.170
441.72	18.208
442.07	18.226
442.42	18.238
442.76	18.252
443.11	18.279
443.46	18.331
443.81	18.353
444.16	18.404
444.50	18.394
444.85	18.431
445.20	18.450
445.55	18.453
445.89	18.495
446.24	18.528
446.59	18.579
446.94	18.617
447.28	18.632
447.63	18.669
447.98	18.685
448.32	18.724
448.67	18.763
449.02	18.795
449.37	18.842
449.71	18.830
450.06	18.840
450.41	18.843
450.75	18.879
451.10	18.910
451.45	18.968
451.79	19.014
452.14	19.041
452.49	19.056
452.84	19.081
453.18	19.092
453.53	19.163
453.88	19.215
454.22	19.279
454.57	19.290
454.92	19.340
455.26	19.350
455.61	19.382
455.95	19.405
456.30	19.479
456.65	19.494
456.99	19.509
457.34	19.525
457.69	19.543
458.03	19.523
458.38	19.557
458.73	19.581
459.07	19.593
459.42	19.577
459.76	19.626
460.11	19.641
460.46	19.696
460.80	19.758
461.15	19.768
461.49	19.806
461.84	19.878
462.19	19.894
462.53	19.884
462.88	19.947
463.22	19.976
463.57	19.986
463.91	19.983
464.26	19.960
464.61	19.976
464.95	20.007
465.30	20.034
465.64	20.049
465.99	20.096
466.33	20.162
466.68	20.182
467.02	20.220
467.37	20.225
467.71	20.263
468.06	20.353
468.41	20.368
468.75	20.388
469.10	20.397
469.44	20.430
469.79	20.446
470.13	20.458
470.48	20.470
470.82	20.498
471.17	20.540
471.51	20.537
471.86	20.518
472.20	20.537
472.55	20.579
472.89	20.638
473.23	20.654
473.58	20.669
473.92	20.668
474.27	20.676
474.61	20.681
474.96	20.718
475.30	20.748
475.65	20.786
475.99	20.793
476.34	20.822
476.68	20.813
477.02	20.865
477.37	20.913
477.71	20.977
478.06	21.019
478.40	21.093
478.75	21.186
479.09	21.342
479.43	21.486
479.78	21.668
480.12	21.791
480.47	21.943
480.81	22.049
481.15	22.181
481.50	22.295
481.84	22.421
482.19	22.541
482.53	22.636
482.87	22.703
483.22	22.748
483.56	22.753
483.90	22.765
484.25	22.758
484.59	22.756
484.94	22.715
485.28	22.672
485.62	22.634
485.97	22.582
486.31	22.526
486.65	22.488
487.00	22.476
487.34	22.485
487.68	22.502
488.03	22.509
488.37	22.515
488.71	22.538
489.06	22.561
489.40	22.569
489.74	22.597
490.09	22.625
490.43	22.647
490.77	22.656
491.11	22.651
491.46	22.660
491.80	22.673
492.14	22.701
492.49	22.712
492.83	22.741
493.17	22.765
493.51	22.789
493.86	22.823
494.20	22.844
494.54	22.884
494.88	22.952
495.23	22.997
495.57	23.053
495.91	23.092
496.25	23.161
496.60	23.211
496.94	23.273
497.28	23.342
497.62	23.395
497.97	23.459
498.31	23.519
498.65	23.583
498.99	23.654
499.33	23.689
499.68	23.767
500.02	23.817
500.36	23.889
500.70	23.924
501.04	23.912
501.39	23.980
501.73	24.067
502.07	24.141
502.41	24.215
502.75	24.293
503.09	24.364
503.44	24.397
503.78	24.451
504.12	24.514
504.46	24.598
504.80	24.688
505.14	24.737
505.49	24.792
505.83	24.850
506.17	24.879
506.51	24.913
506.85	24.990
507.19	25.105
507.53	25.173
507.87	25.228
508.22	25.266
508.56	25.337
508.90	25.398
509.24	25.453
509.58	25.525
509.92	25.608
510.26	25.692
510.60	25.779
510.94	25.833
511.28	25.897
511.63	25.968
511.97	26.055
512.31	26.121
512.65	26.197
512.99	26.273
513.33	26.342
513.67	26.415
514.01	26.482
514.35	26.543
514.69	26.636
515.03	26.737
515.37	26.818
515.71	26.913
516.05	26.996
516.39	27.051
516.73	27.127
517.07	27.167
517.41	27.239
517.75	27.292
518.09	27.351
518.43	27.376
518.77	27.414
519.11	27.475
519.45	27.512
519.79	27.578
520.13	27.688
520.47	27.753
520.81	27.836
521.15	27.911
521.49	27.993
521.83	28.074
522.17	28.154
522.51	28.240
522.85	28.319
523.19	28.433
523.53	28.585
523.87	28.762
524.21	28.979
524.55	29.197
524.89	29.381
525.23	29.550
525.57	29.722
525.91	29.867
526.25	30.030
526.58	30.174
526.92	30.283
527.26	30.374
527.60	30.441
527.94	30.479
528.28	30.521
528.62	30.543
528.96	30.580
529.30	30.563
529.64	30.585
529.97	30.574
530.31	30.566
530.65	30.597
530.99	30.606
531.33	30.638
531.67	30.673
532.01	30.702
532.35	30.740
532.68	30.762
533.02	30.816
533.36	30.854
533.70	30.908
534.04	30.963
534.38	31.013
534.71	31.078
535.05	31.132
535.39	31.194
535.73	31.250
536.07	31.348
536.41	31.496
536.74	31.634
537.08	31.792
537.42	31.931
537.76	32.071
538.10	32.215
538.43	32.373
538.77	32.530
539.11	32.656
539.45	32.782
539.79	32.867
540.12	32.945
540.46	33.021
540.80	33.064
541.14	33.120
541.47	33.179
541.81	33.220
542.15	33.253
542.49	33.295
542.82	33.330
543.16	33.365
543.50	33.442
543.84	33.490
544.17	33.545
544.51	33.604
544.85	33.646
545.18	33.726
545.52	33.789
545.86	33.853
546.20	33.911
546.53	33.975
546.87	34.066
547.21	34.142
547.54	34.213
547.88	34.319
548.22	34.441
548.55	34.597
548.89	34.670
549.23	34.772
549.56	34.872
549.90	34.925
550.24	35.038
550.57	35.117
550.91	35.207
551.25	35.298
551.58	35.351
551.92	35.398
552.26	35.448
552.59	35.563
552.93	35.645
553.27	35.739
553.60	35.841
553.94	35.930
554.27	36.000
554.61	36.079
554.95	36.168
555.28	36.276
555.62	36.386
555.95	36.468
556.29	36.505
556.63	36.613
556.96	36.696
557.30	36.801
557.63	36.895
557.97	37.007
558.31	37.072
558.64	37.167
558.98	37.294
559.31	37.395
559.65	37.453
559.98	37.558
560.32	37.630
560.65	37.749
560.99	37.789
561.33	37.856
561.66	37.965
562.00	38.114
562.33	38.195
562.67	38.239
563.00	38.307
563.34	38.391
563.67	38.500
564.01	38.551
564.34	38.639
564.68	38.770
565.01	38.881
565.35	38.981
565.68	39.013
566.02	39.113
566.35	39.213
566.69	39.305
567.02	39.399
567.36	39.451
567.69	39.526
568.03	39.584
568.36	39.647
568.69	39.683
569.03	39.707
569.36	39.807
569.70	39.866
570.03	39.965
570.37	39.999
570.70	40.080
571.04	40.132
571.37	40.235
571.70	40.252
572.04	40.287
572.37	40.379
572.71	40.429
573.04	40.482
573.37	40.553
573.71	40.578
574.04	40.674
574.38	40.748
574.71	40.834
575.04	40.919
575.38	41.013
575.71	41.079
576.05	41.140
576.38	41.221
576.71	41.272
577.05	41.354
577.38	41.426
577.71	41.454
578.05	41.485
578.38	41.499
578.71	41.547
579.05	41.611
579.38	41.715
579.71	41.755
580.05	41.801
580.38	41.838
580.71	41.853
581.05	41.944
581.38	42.015
581.71	42.122
582.05	42.251
582.38	42.259
582.71	42.303
583.04	42.341
583.38	42.396
583.71	42.445
584.04	42.516
584.38	42.549
584.71	42.571
585.04	42.651
585.37	42.712
585.71	42.750
586.04	42.860
586.37	42.933
586.70	43.011
587.04	43.103
587.37	43.172
587.70	43.284
588.03	43.420
588.37	43.545
588.70	43.616
589.03	43.653
589.36	43.710
589.69	43.768
590.03	43.871
590.36	43.914
590.69	43.975
591.02	44.116
591.35	44.120
591.69	44.180
592.02	44.177
592.35	44.225
592.68	44.317
593.01	44.382
593.35	44.454
593.68	44.482
594.01	44.553
594.34	44.594
594.67	44.596
595.00	44.677
595.34	44.702
595.67	44.754
596.00	44.893
596.33	44.928
596.66	45.051
596.99	45.136
597.32	45.242
597.65	45.327
597.99	45.445
598.32	45.537
598.65	45.619
598.98	45.711
599.31	45.840
599.64	45.815
599.97	45.886
600.30	45.875
600.63	45.845
600.96	45.890
601.30	45.867
601.63	45.861
601.96	45.929
602.29	46.006
602.62	46.070
602.95	46.079
603.28	46.158
603.61	46.202
603.94	46.297
604.27	46.409
604.60	46.456
604.93	46.631
605.26	46.730
605.59	46.797
605.92	46.822
606.25	46.803
606.58	46.913
606.91	46.990
607.24	47.034
607.57	47.067
607.90	47.153
608.23	47.260
608.56	47.273
608.89	47.382
609.22	47.440
609.55	47.534
609.88	47.660
610.21	47.748
610.54	47.785
610.87	47.874
611.20	47.973
611.53	48.028
611.86	48.067
612.19	48.146
612.52	48.104
612.85	48.121
613.18	48.215
613.51	48.337
613.84	48.364
614.17	48.476
614.49	48.573
614.82	48.602
615.15	48.652
615.48	48.780
615.81	48.805
616.14	48.904
616.47	48.966
616.80	48.974
617.13	48.987
617.46	49.027
617.78	49.061
618.11	49.103
618.44	49.239
618.77	49.310
619.10	49.344
619.43	49.471
619.76	49.541
620.09	49.622
620.41	49.744
620.74	49.770
621.07	49.850
621.40	49.933
621.73	50.065
622.06	50.067
622.38	50.166
622.71	50.118
623.04	50.146
623.37	50.231
623.70	50.277
624.02	50.308
624.35	50.452
624.68	50.513
625.01	50.518
625.34	50.524
625.66	50.620
625.99	50.680
626.32	50.823
626.65	50.945
626.98	51.004
627.30	51.149
627.63	51.231
627.96	51.298
628.29	51.374
628.61	51.526
628.94	51.590
629.27	51.638
629.60	51.670
629.92	51.712
630.25	51.733
630.58	51.766
630.91	51.742
631.23	51.772
631.56	51.802
631.89	51.860
632.21	51.885
632.54	51.924
632.87	52.012
633.19	52.113
633.52	52.167
633.85	52.128
634.18	52.211
634.50	52.268
634.83	52.360
635.16	52.443
635.48	52.537
635.81	52.611
636.14	52.663
636.46	52.645
636.79	52.634
637.11	52.631
637.44	52.775
637.77	52.836
638.09	52.929
638.42	52.899
638.75	52.933
639.07	52.949
639.40	52.961
639.73	53.027
640.05	53.119
640.38	53.175
640.70	53.266
641.03	53.278
641.36	53.396
641.68	53.472
642.01	53.584
642.33	53.575
642.66	53.572
642.98	53.579
643.31	53.646
643.64	53.663
643.96	53.675
644.29	53.780
644.61	53.827
644.94	53.732
645.26	53.700
645.59	53.744
645.91	53.814
646.24	53.881
646.56	53.933
646.89	53.957
647.22	54.033
647.54	54.116
647.87	54.060
648.19	54.106
648.52	54.211
648.84	54.183
649.17	54.182
649.49	54.213
649.82	54.298
650.14	54.417
650.47	54.483
650.79	54.521
651.11	54.561
651.44	54.641
651.76	54.792
652.09	54.768
652.41	54.980
652.74	55.096
653.06	55.148
653.39	55.129
653.71	55.160
654.04	55.131
654.36	55.123
654.68	55.144
655.01	55.177
655.33	55.130
655.66	55.142
655.98	55.043
656.30	54.948
656.63	54.942
656.95	54.958
657.28	54.989
657.60	55.040
657.92	55.058
658.25	55.080
658.57	55.107
658.90	55.087
659.22	55.122
659.54	55.169
659.87	55.187
660.19	55.172
660.51	55.169
660.84	55.115
661.16	55.179
661.48	55.208
661.81	55.120
662.13	55.063
662.45	55.118
662.78	55.072
663.10	55.073
663.42	55.227
663.75	55.293
664.07	55.298
664.39	55.316
664.72	55.263
665.04	55.223
665.36	55.209
665.69	55.239
666.01	55.179
666.33	55.290
666.65	55.315
666.98	55.348
667.30	55.421
667.62	55.393
667.94	55.464
668.27	55.479
668.59	55.463
668.91	55.566
669.23	55.654
669.56	55.752
669.88	55.799
670.20	55.751
670.52	55.606
670.85	55.621
671.17	55.747
671.49	55.717
671.81	55.604
672.13	55.618
672.46	55.641
672.78	55.561
673.10	55.536
673.42	55.434
673.74	55.563
674.07	55.672
674.39	55.639
674.71	55.650
675.03	55.664
675.35	55.785
675.67	55.755
676.00	55.769
676.32	55.823
676.64	55.841
676.96	55.823
677.28	55.723
677.60	55.653
677.92	55.587
678.25	55.531
678.57	55.479
678.89	55.517
679.21	55.559
679.53	55.552
679.85	55.532
680.17	55.499
680.49	55.595
680.81	55.692
681.13	55.783
681.46	55.852
681.78	55.850
682.10	55.871
682.42	55.882
682.74	55.959
683.06	55.969
683.38	55.883
683.70	55.984
684.02	55.881
684.34	55.849
684.66	55.687
684.98	55.681
685.30	55.700
685.62	55.824
685.94	55.895
686.26	55.815
686.58	55.822
686.90	55.863
687.22	55.763
687.54	55.861
687.86	55.855
688.18	55.957
688.50	55.857
688.82	55.876
689.14	55.808
689.46	55.660
689.78	55.753
690.10	55.735
690.42	55.934
690.74	55.859
691.06	55.832
691.38	55.853
691.70	55.894
692.02	55.976
692.34	55.988
692.66	55.968
692.98	55.958
693.30	55.943
693.62	55.852
693.94	55.662
694.26	55.756
694.57	55.787
694.89	55.920
695.21	55.919
695.53	55.960
695.85	55.979
696.17	55.904
696.49	56.033
696.81	56.024
697.13	56.098
697.44	56.119
697.76	56.082
698.08	56.130
698.40	56.002
698.72	56.033
699.04	55.991
699.36	56.016
699.67	56.075
699.99	55.973
700.31	55.877
700.63	55.834
700.95	55.933
701.27	55.959
701.58	55.829
701.90	55.872
702.22	55.731
702.54	55.757
702.86	55.590
703.17	55.605
703.49	55.558
703.81	55.624
704.13	55.610
704.45	55.479
704.76	55.574
705.08	55.609
705.40	55.487
705.72	55.600
706.03	55.547
706.35	55.616
706.67	55.540
706.99	55.537
707.30	55.600
707.62	55.691
707.94	55.812
708.26	55.579
708.57	55.461
708.89	55.461
709.21	55.316
709.53	55.307
709.84	55.194
710.16	55.383
710.48	55.344
710.79	55.165
711.11	55.071
711.43	54.946
711.74	55.036
712.06	55.109
712.38	55.129
712.69	55.230
713.01	55.104
713.33	55.133
713.64	54.936
713.96	55.084
714.28	55.194
714.59	55.169
714.91	55.241
715.23	55.278
715.54	55.306
715.86	55.343
716.17	55.340
716.49	55.556
716.81	55.551
717.12	55.582
717.44	55.415
717.76	55.474
718.07	55.603
718.39	55.381
718.70	55.332
719.02	55.271
719.33	55.198
719.65	55.109
719.97	54.927
720.28	54.978
720.60	54.938
720.91	54.846
721.23	54.693
721.54	54.517
721.86	54.471
722.17	54.603
722.49	54.477
722.81	54.522
723.12	54.548
723.44	54.680
723.75	54.650
724.07	54.551
724.38	54.596
724.70	54.679
725.01	54.755
725.33	54.783
725.64	54.658
725.96	54.611
726.27	54.385
726.59	54.317
726.90	54.173
727.22	54.081
727.53	54.098
727.84	53.936
728.16	53.878
728.47	53.839
728.79	53.925
729.10	53.909
729.42	53.955
729.73	54.020
730.05	53.990
730.36	53.973
730.67	54.038
730.99	54.062
731.30	54.077
731.62	54.038
731.93	53.915
732.24	53.817
732.56	53.677
732.87	53.588
733.19	53.698
733.50	53.611
733.81	53.619
734.13	53.549
734.44	53.356
734.76	53.432
735.07	53.386
735.38	53.316
735.70	53.235
736.01	53.421
736.32	53.283
736.64	53.130
736.95	53.060
737.26	52.957
737.58	52.929
737.89	53.009
738.20	52.939
738.52	52.797
738.83	52.851
739.14	52.713
739.45	52.256
739.77	52.289
740.08	52.134
740.39	52.226
740.71	52.163
741.02	52.071
741.33	52.028
741.64	52.006
741.96	51.801
742.27	51.683
742.58	51.788
742.90	52.053
743.21	52.047
743.52	51.961
743.83	51.763
744.14	51.759
744.46	51.611
744.77	51.432
745.08	51.212
745.39	51.322
745.71	51.097
746.02	50.910
746.33	50.697
746.64	50.724
746.95	50.825
747.27	50.761
747.58	50.633
747.89	50.660
748.20	50.593
748.51	50.679
748.82	50.555
749.14	50.913
749.45	50.793
749.76	50.782
750.07	50.811
750.38	50.658
750.69	50.746
751.01	50.664
751.32	50.719
751.63	50.853
751.94	50.831
752.25	51.011
752.56	50.582
752.87	50.666
753.18	50.561
753.49	50.513
753.81	50.485
754.12	50.310
754.43	50.337
754.74	49.975
755.05	49.545
755.36	49.327
755.67	49.067
755.98	49.009
756.29	49.011
756.60	48.918
756.91	48.829
757.22	48.859
757.53	48.771
757.84	48.811
758.15	49.061
758.46	49.422
758.77	49.452
759.09	49.750
759.40	49.922
759.71	49.906
760.02	49.795
760.33	49.567
760.64	49.547
760.95	49.580
761.26	49.397
761.57	49.313
761.88	49.183
762.18	49.131
762.49	48.755
762.80	48.580
763.11	48.567
763.42	48.706
763.73	48.716
764.04	48.577
764.35	48.633
764.66	48.608
764.97	48.581
765.28	48.512
765.59	48.446
765.90	48.472
766.21	48.611
766.52	48.684
766.83	48.565
767.14	48.578
767.44	48.440
767.75	48.368
768.06	48.204
768.37	47.923
768.68	47.715
768.99	47.601
769.30	47.622
769.61	47.337
769.91	46.893
770.22	46.548
770.53	46.423
770.84	46.535
771.15	46.416
771.46	46.277
771.77	46.155
772.07	46.235
772.38	46.176
772.69	46.074
773.00	45.856
773.31	45.968
773.61	46.026
773.92	46.355
774.23	46.119
774.54	45.910
774.85	45.941
775.15	45.873
775.46	45.927
775.77	46.037
776.08	45.669
776.39	45.582
776.69	45.174
777.00	45.067
777.31	44.876
777.62	45.037
777.92	44.809
778.23	44.857
778.54	44.777
778.85	44.674
779.15	44.237
779.46	44.420
779.77	44.132
780.07	44.294
780.38	44.480
780.69	44.240
781.00	43.698
781.30	43.872
781.61	43.777
781.92	43.752
782.22	43.386
782.53	43.661
782.84	43.716
783.14	44.092
783.45	43.837
783.76	43.610
784.06	43.315
784.37	43.473
784.68	43.012
784.98	43.059
785.29	43.249
785.60	43.103
785.90	43.060
786.21	42.711
786.51	42.948
786.82	42.975
787.13	42.907
787.43	42.857
787.74	42.962
788.04	43.412
788.35	43.379
788.66	43.378
788.96	43.500
789.27	43.526
789.57	43.438
789.88	43.143
790.19	42.944
790.49	43.166
790.80	43.269
791.10	43.410
791.41	42.851
791.71	42.686
792.02	42.497
792.32	42.290
792.63	42.102
792.93	42.445
793.24	42.207
793.54	42.411
793.85	42.089
794.15	42.198
794.46	41.961
794.76	42.316
795.07	42.337
795.37	42.169
795.68	42.170
795.98	41.958
796.29	42.047
796.59	41.984
796.90	41.831
797.20	41.916
797.51	41.628
797.81	41.494
798.12	41.032
798.42	40.994
798.72	41.519
799.03	41.414
799.33	41.413
799.64	41.480
799.94	41.393
800.25	41.595
800.55	41.140
800.85	41.236
801.16	40.964
801.46	41.515
801.77	41.049
802.07	40.645
802.37	40.921
802.68	41.061
802.98	40.675
803.28	41.019
803.59	40.685
803.89	41.139
804.20	41.097
804.50	41.695
804.80	41.268
805.11	41.669
805.41	41.152
805.71	41.155
806.02	41.213
806.32	41.013
806.62	40.793
806.93	40.629
807.23	40.408
807.53	40.398
807.83	39.759
808.14	39.490
808.44	39.447
808.74	39.838
809.05	38.983
809.35	38.579
809.65	39.107
809.95	38.986
810.26	39.239
810.56	39.388
810.86	39.171
811.16	39.474
811.47	40.106
811.77	40.237
812.07	39.836
812.37	40.437
812.68	40.173
812.98	39.706
813.28	40.040
813.58	40.075
813.88	40.067
814.19	40.334
814.49	40.203
814.79	39.101
815.09	38.811
815.39	39.161
815.70	39.041
816.00	39.606
816.30	39.959
816.60	39.990
816.90	39.897
817.20	39.678
817.50	39.438
817.81	39.849
818.11	39.867
818.41	39.700
818.71	39.505
819.01	39.550
819.31	39.428
819.61	39.329
819.92	39.105
820.22	39.037
820.52	38.953
820.82	38.914
821.12	38.800
821.42	38.879
821.72	38.964
822.02	38.975
822.32	38.779
822.62	38.753
822.92	38.646
823.22	38.703
823.52	38.741
823.83	38.721
824.13	38.756
824.43	38.735
824.73	38.616
825.03	38.457
825.33	38.443
825.63	38.649
825.93	38.575
826.23	38.608
826.53	38.591
826.83	38.383
827.13	38.493
827.43	38.166
827.73	38.046
828.03	38.026
828.33	37.718
828.63	37.512
828.93	37.321
829.23	37.082
829.53	36.866
829.83	36.454
830.13	36.461
830.42	36.499
830.72	36.663
831.02	36.686
831.32	36.490
831.62	36.823
831.92	37.040
832.22	37.089
832.52	37.400
832.82	37.656
833.12	38.031
833.42	37.982
833.72	37.657
834.01	37.717
834.31	37.560
834.61	37.654
834.91	37.658
835.21	37.121
835.51	36.763
835.81	36.387
836.11	36.367
836.40	36.018
836.70	35.836
837.00	36.023
837.30	36.048
837.60	36.194
837.90	36.275
838.19	36.562
838.49	37.793
838.79	37.971
839.09	37.624
839.39	36.645
839.68	36.476
839.98	36.892
840.28	36.410
840.58	36.173
840.88	36.398
841.17	36.603
841.47	35.599
841.77	34.755
842.07	34.839
842.36	35.404
842.66	36.068
842.96	35.816
843.26	34.180
843.55	34.341
843.85	35.416
844.15	34.783
844.45	34.070
844.74	34.414
845.04	34.246
845.34	35.304
845.63	35.697
845.93	34.834
846.23	33.958
846.53	35.659
846.82	36.127
847.12	34.635
847.42	34.190
847.71	34.348
848.01	35.039
848.31	34.882
848.60	34.551
848.90	33.033
849.19	34.371
849.49	35.154
849.79	34.640
850.08	33.584
850.38	34.078
850.68	35.884
850.97	35.309
851.27	34.909
851.56	35.212
851.86	34.495
852.16	35.483
852.45	34.084
852.75	33.284
853.04	33.395
853.34	33.746
853.64	34.268
853.93	31.184
854.23	31.906
854.52	32.185
854.82	32.456
855.11	33.195
855.41	32.135
855.70	31.900
856.00	33.655
856.30	33.683
856.59	34.195
856.89	33.631
857.18	35.973
857.48	35.273
857.77	35.004
858.07	34.494
858.36	35.049
858.66	36.372
858.95	37.760
859.25	36.530
859.54	36.243
859.84	35.493
860.13	33.853
860.42	33.826
860.72	34.557
861.01	32.919
861.31	32.843
861.60	31.933
861.90	31.326
862.19	30.644
862.49	31.113
862.78	30.730
863.07	31.665
863.37	34.155
863.66	32.806
863.96	31.601
864.25	33.267
864.54	32.994
864.84	33.414
865.13	33.412
865.43	33.814
865.72	36.905
866.01	31.400
866.31	40.525
866.60	33.013
866.89	35.705
>>>>>End Spectral Data<<<<<
