OOIBase32 Version 2.0.0.6 Data File
++++++++++++++++++++++++++++++++++++
Date: 01-22-2012, 21:21:04
User: Valued Ocean Optics Customer
Spectrometer Serial Number: USB2E2917
Spectrometer Channel: Master
Integration Time (msec): 4
Spectra Averaged: 10
Boxcar Smoothing: 5
Correct for Electrical Dark: Enabled
Time Normalized: Disabled
Dual-beam Reference: Disabled
Reference Channel: Master
Temperature: Not acquired
Spectrometer Type: S2000
ADC Type: USB2000
Number of Pixels in File: 2048
Graph Title: 
>>>>>Begin Spectral Data<<<<<
180.30	0.000
180.67	0.000
181.03	-186.928
181.40	-0.800
181.77	-96.299
182.14	80.091
182.51	936.141
182.88	148.031
183.25	210.539
183.62	-110.001
183.99	79.083
184.36	0.899
184.73	-102.859
185.10	3272.387
185.46	204.855
185.83	-6.869
186.20	76.599
186.57	225.028
186.94	95.841
187.31	20.608
187.68	-161.864
188.05	146.219
188.42	106.883
188.78	-8.896
189.15	27.402
189.52	42.956
189.89	31.062
190.26	45.461
190.63	47.623
191.00	42.956
191.37	16.080
191.73	-0.920
192.10	-28.841
192.47	-28.612
192.84	-100.514
193.21	-150.734
193.58	-158.706
193.94	-174.255
194.31	-84.095
194.68	-44.300
195.05	-40.956
195.42	-58.302
195.79	-29.626
196.15	-6.862
196.52	22.003
196.89	32.080
197.26	38.017
197.63	6.382
198.00	37.332
198.36	36.662
198.73	85.627
199.10	66.671
199.47	81.265
199.84	67.342
200.20	83.735
200.57	75.543
200.94	83.430
201.31	78.946
201.68	93.906
202.04	87.755
202.41	78.055
202.78	73.269
203.15	73.358
203.51	64.547
203.88	66.366
204.25	52.114
204.62	31.895
204.98	22.047
205.35	-1.615
205.72	-50.579
206.09	-137.152
206.46	-79.890
206.82	-131.418
207.19	-142.643
207.56	-147.340
207.92	-168.733
208.29	-105.187
208.66	-70.286
209.03	-87.066
209.39	-46.669
209.76	-20.303
210.13	14.598
210.50	14.545
210.86	0.718
211.23	-4.478
211.60	-34.021
211.96	-49.207
212.33	-84.765
212.70	5659.493
213.07	536.633
213.43	446.731
213.80	1082.033
214.17	282.839
214.53	1346.342
214.90	-142.184
215.27	-48.314
215.63	-54.570
216.00	-22.032
216.37	-14.361
216.74	2.123
217.10	12.408
217.47	5.463
217.84	-4.222
218.20	1.649
218.57	6.694
218.94	9.127
219.30	5.117
219.67	14.302
220.04	19.971
220.40	23.425
220.77	35.226
221.13	33.311
221.50	37.806
221.87	34.310
222.23	35.340
222.60	22.986
222.97	14.330
223.33	5.819
223.70	-4.347
224.07	-4.644
224.43	-3.987
224.80	-1.906
225.16	-2.501
225.53	-1.693
225.90	-2.450
226.26	0.464
226.63	2.245
226.99	2.996
227.36	5.550
227.73	7.840
228.09	6.925
228.46	8.285
228.82	7.382
229.19	8.071
229.56	6.001
229.92	7.531
230.29	5.469
230.65	7.099
231.02	6.207
231.38	6.381
231.75	4.935
232.12	5.565
232.48	2.109
232.85	2.572
233.21	2.121
233.58	6.063
233.94	7.853
234.31	8.638
234.68	6.598
235.04	8.728
235.41	8.129
235.77	7.369
236.14	6.948
236.50	10.262
236.87	10.807
237.23	10.647
237.60	7.985
237.96	6.511
238.33	6.481
238.69	6.589
239.06	4.782
239.42	3.657
239.79	3.986
240.15	4.522
240.52	4.043
240.88	3.185
241.25	2.991
241.61	3.031
241.98	3.173
242.34	2.542
242.71	2.460
243.07	2.968
243.44	3.638
243.80	3.746
244.17	3.157
244.53	2.498
244.90	2.793
245.26	3.040
245.63	3.039
245.99	2.713
246.36	2.970
246.72	2.969
247.09	2.794
247.45	2.865
247.81	2.834
248.18	3.139
248.54	3.666
248.91	3.600
249.27	2.868
249.64	3.177
250.00	3.788
250.36	4.059
250.73	3.785
251.09	3.760
251.46	3.037
251.82	2.925
252.19	3.192
252.55	2.804
252.91	3.265
253.28	3.667
253.64	3.527
254.01	3.013
254.37	3.111
254.73	3.393
255.10	3.278
255.46	3.846
255.83	3.755
256.19	3.454
256.55	3.601
256.92	3.468
257.28	3.427
257.65	3.478
258.01	3.314
258.37	3.126
258.74	3.119
259.10	3.196
259.46	3.071
259.83	3.013
260.19	3.070
260.55	2.979
260.92	2.769
261.28	2.774
261.64	2.595
262.01	2.449
262.37	2.056
262.73	2.128
263.10	2.011
263.46	2.082
263.82	2.228
264.19	1.867
264.55	2.016
264.91	2.456
265.28	2.742
265.64	2.597
266.00	2.692
266.37	3.158
266.73	3.099
267.09	3.225
267.46	2.993
267.82	3.079
268.18	3.412
268.54	3.463
268.91	3.472
269.27	3.313
269.63	3.213
270.00	3.306
270.36	3.251
270.72	3.152
271.08	3.283
271.45	3.461
271.81	3.530
272.17	3.743
272.53	3.855
272.90	3.894
273.26	3.756
273.62	4.093
273.98	4.357
274.35	4.286
274.71	4.231
275.07	4.222
275.43	4.181
275.80	4.213
276.16	3.915
276.52	3.655
276.88	3.606
277.25	3.360
277.61	3.401
277.97	3.355
278.33	3.498
278.69	3.650
279.06	3.451
279.42	3.457
279.78	3.251
280.14	3.216
280.50	3.212
280.87	3.096
281.23	3.433
281.59	3.537
281.95	3.473
282.31	3.319
282.68	3.321
283.04	3.405
283.40	3.357
283.76	3.457
284.12	3.481
284.48	3.591
284.85	3.464
285.21	3.497
285.57	3.343
285.93	3.374
286.29	3.308
286.65	3.302
287.02	3.447
287.38	3.466
287.74	3.459
288.10	3.414
288.46	3.040
288.82	2.890
289.18	2.531
289.54	2.391
289.91	2.266
290.27	2.529
290.63	2.766
290.99	2.667
291.35	2.525
291.71	2.414
292.07	2.405
292.43	2.680
292.79	3.008
293.16	3.483
293.52	3.702
293.88	3.770
294.24	3.656
294.60	3.520
294.96	3.421
295.32	3.591
295.68	3.552
296.04	3.670
296.40	3.673
296.76	3.653
297.12	3.655
297.49	3.675
297.85	3.809
298.21	3.899
298.57	3.708
298.93	3.948
299.29	4.002
299.65	4.264
300.01	4.230
300.37	4.267
300.73	4.245
301.09	4.101
301.45	3.868
301.81	3.835
302.17	3.787
302.53	3.912
302.89	3.832
303.25	3.718
303.61	3.522
303.97	3.486
304.33	3.516
304.69	3.652
305.05	3.820
305.41	3.980
305.77	3.829
306.13	3.750
306.49	3.816
306.85	3.770
307.21	3.666
307.57	3.590
307.93	3.681
308.29	3.854
308.65	3.718
309.01	3.512
309.37	3.433
309.73	3.624
310.09	3.731
310.45	3.690
310.81	3.783
311.17	3.866
311.53	3.977
311.89	3.980
312.25	3.885
312.61	4.041
312.96	4.307
313.32	4.382
313.68	4.241
314.04	4.123
314.40	4.118
314.76	3.995
315.12	4.109
315.48	4.090
315.84	3.902
316.20	3.678
316.56	3.589
316.92	3.375
317.27	3.392
317.63	3.332
317.99	3.455
318.35	3.549
318.71	3.696
319.07	3.761
319.43	3.761
319.79	3.854
320.15	4.184
320.50	4.259
320.86	4.332
321.22	4.549
321.58	4.555
321.94	4.561
322.30	4.699
322.66	4.703
323.01	4.653
323.37	4.743
323.73	4.742
324.09	4.789
324.45	4.806
324.81	4.899
325.17	4.763
325.52	4.900
325.88	4.799
326.24	4.675
326.60	4.576
326.96	4.573
327.31	4.475
327.67	4.599
328.03	4.504
328.39	4.415
328.75	4.283
329.11	4.285
329.46	4.276
329.82	4.364
330.18	4.391
330.54	4.472
330.90	4.415
331.25	4.438
331.61	4.373
331.97	4.348
332.33	4.480
332.68	4.573
333.04	4.611
333.40	4.632
333.76	4.703
334.11	4.689
334.47	4.698
334.83	4.738
335.19	4.816
335.54	4.743
335.90	4.711
336.26	4.699
336.62	4.660
336.97	4.572
337.33	4.546
337.69	4.506
338.05	4.600
338.40	4.525
338.76	4.595
339.12	4.531
339.48	4.540
339.83	4.614
340.19	4.602
340.55	4.645
340.90	4.701
341.26	4.625
341.62	4.607
341.97	4.465
342.33	4.435
342.69	4.462
343.04	4.474
343.40	4.508
343.76	4.352
344.12	4.285
344.47	4.214
344.83	4.196
345.19	4.241
345.54	4.330
345.90	4.395
346.26	4.450
346.61	4.327
346.97	4.407
347.32	4.423
347.68	4.553
348.04	4.635
348.39	4.626
348.75	4.673
349.11	4.562
349.46	4.512
349.82	4.489
350.18	4.527
350.53	4.631
350.89	4.559
351.24	4.662
351.60	4.613
351.96	4.568
352.31	4.612
352.67	4.536
353.02	4.602
353.38	4.579
353.74	4.611
354.09	4.639
354.45	4.595
354.80	4.518
355.16	4.450
355.52	4.498
355.87	4.510
356.23	4.576
356.58	4.581
356.94	4.610
357.29	4.607
357.65	4.559
358.00	4.545
358.36	4.576
358.72	4.630
359.07	4.603
359.43	4.597
359.78	4.634
360.14	4.636
360.49	4.678
360.85	4.670
361.20	4.642
361.56	4.642
361.91	4.644
362.27	4.608
362.62	4.627
362.98	4.682
363.33	4.681
363.69	4.659
364.04	4.585
364.40	4.565
364.75	4.558
365.11	4.598
365.46	4.630
365.82	4.579
366.17	4.556
366.53	4.558
366.88	4.516
367.24	4.524
367.59	4.516
367.95	4.577
368.30	4.610
368.66	4.614
369.01	4.658
369.37	4.647
369.72	4.707
370.08	4.762
370.43	4.789
370.78	4.844
371.14	4.789
371.49	4.773
371.85	4.749
372.20	4.793
372.56	4.876
372.91	4.836
373.26	4.886
373.62	4.878
373.97	4.895
374.33	4.923
374.68	4.916
375.03	4.962
375.39	4.942
375.74	4.959
376.10	4.962
376.45	4.961
376.80	5.006
377.16	4.959
377.51	4.968
377.87	5.012
378.22	5.057
378.57	5.097
378.93	5.110
379.28	5.189
379.63	5.227
379.99	5.246
380.34	5.247
380.70	5.296
381.05	5.351
381.40	5.350
381.76	5.354
382.11	5.311
382.46	5.321
382.82	5.354
383.17	5.338
383.52	5.380
383.88	5.415
384.23	5.514
384.58	5.526
384.94	5.589
385.29	5.650
385.64	5.677
385.99	5.732
386.35	5.772
386.70	5.798
387.05	5.859
387.41	5.848
387.76	5.814
388.11	5.780
388.47	5.749
388.82	5.774
389.17	5.787
389.52	5.769
389.88	5.782
390.23	5.799
390.58	5.811
390.93	5.857
391.29	5.937
391.64	6.026
391.99	6.092
392.34	6.141
392.70	6.159
393.05	6.213
393.40	6.313
393.75	6.357
394.11	6.362
394.46	6.434
394.81	6.448
395.16	6.473
395.52	6.510
395.87	6.509
396.22	6.536
396.57	6.547
396.92	6.529
397.28	6.521
397.63	6.509
397.98	6.596
398.33	6.629
398.68	6.683
399.04	6.698
399.39	6.709
399.74	6.746
400.09	6.788
400.44	6.811
400.80	6.866
401.15	6.867
401.50	6.929
401.85	6.920
402.20	6.935
402.55	6.968
402.90	6.983
403.26	6.996
403.61	7.026
403.96	7.073
404.31	7.155
404.66	7.184
405.01	7.237
405.36	7.264
405.72	7.280
406.07	7.299
406.42	7.324
406.77	7.350
407.12	7.394
407.47	7.419
407.82	7.405
408.17	7.379
408.53	7.403
408.88	7.457
409.23	7.445
409.58	7.486
409.93	7.526
410.28	7.533
410.63	7.574
410.98	7.580
411.33	7.585
411.68	7.639
412.03	7.654
412.38	7.649
412.73	7.673
413.09	7.689
413.44	7.693
413.79	7.723
414.14	7.754
414.49	7.761
414.84	7.805
415.19	7.808
415.54	7.794
415.89	7.780
416.24	7.813
416.59	7.784
416.94	7.830
417.29	7.836
417.64	7.826
417.99	7.815
418.34	7.821
418.69	7.805
419.04	7.828
419.39	7.868
419.74	7.922
420.09	7.939
420.44	7.965
420.79	7.989
421.14	8.017
421.49	8.061
421.84	8.094
422.19	8.125
422.54	8.169
422.89	8.211
423.24	8.229
423.59	8.263
423.94	8.312
424.29	8.368
424.64	8.401
424.99	8.468
425.34	8.514
425.68	8.562
426.03	8.642
426.38	8.691
426.73	8.741
427.08	8.794
427.43	8.823
427.78	8.827
428.13	8.839
428.48	8.879
428.83	8.878
429.18	8.888
429.53	8.939
429.87	8.934
430.22	8.940
430.57	8.971
430.92	8.981
431.27	9.009
431.62	9.039
431.97	9.062
432.32	9.071
432.67	9.102
433.01	9.134
433.36	9.129
433.71	9.163
434.06	9.206
434.41	9.204
434.76	9.263
435.11	9.297
435.45	9.306
435.80	9.304
436.15	9.310
436.50	9.327
436.85	9.358
437.20	9.360
437.54	9.370
437.89	9.379
438.24	9.406
438.59	9.402
438.94	9.386
439.29	9.410
439.63	9.453
439.98	9.479
440.33	9.515
440.68	9.517
441.03	9.543
441.37	9.545
441.72	9.551
442.07	9.554
442.42	9.578
442.76	9.614
443.11	9.625
443.46	9.624
443.81	9.627
444.16	9.613
444.50	9.628
444.85	9.639
445.20	9.665
445.55	9.687
445.89	9.703
446.24	9.702
446.59	9.727
446.94	9.781
447.28	9.833
447.63	9.867
447.98	9.910
448.32	9.941
448.67	9.981
449.02	10.019
449.37	10.050
449.71	10.100
450.06	10.162
450.41	10.192
450.75	10.182
451.10	10.190
451.45	10.228
451.79	10.255
452.14	10.288
452.49	10.324
452.84	10.334
453.18	10.371
453.53	10.374
453.88	10.410
454.22	10.414
454.57	10.442
454.92	10.477
455.26	10.478
455.61	10.481
455.95	10.469
456.30	10.477
456.65	10.458
456.99	10.440
457.34	10.461
457.69	10.445
458.03	10.434
458.38	10.459
458.73	10.464
459.07	10.486
459.42	10.522
459.76	10.549
460.11	10.586
460.46	10.657
460.80	10.709
461.15	10.724
461.49	10.760
461.84	10.810
462.19	10.825
462.53	10.862
462.88	10.900
463.22	10.922
463.57	10.954
463.91	10.980
464.26	11.005
464.61	11.025
464.95	11.062
465.30	11.097
465.64	11.136
465.99	11.170
466.33	11.196
466.68	11.195
467.02	11.203
467.37	11.210
467.71	11.215
468.06	11.229
468.41	11.253
468.75	11.284
469.10	11.292
469.44	11.299
469.79	11.300
470.13	11.301
470.48	11.345
470.82	11.364
471.17	11.373
471.51	11.393
471.86	11.425
472.20	11.419
472.55	11.421
472.89	11.441
473.23	11.426
473.58	11.428
473.92	11.403
474.27	11.394
474.61	11.407
474.96	11.421
475.30	11.434
475.65	11.424
475.99	11.447
476.34	11.434
476.68	11.440
477.02	11.474
477.37	11.491
477.71	11.515
478.06	11.521
478.40	11.533
478.75	11.564
479.09	11.609
479.43	11.656
479.78	11.734
480.12	11.826
480.47	11.918
480.81	12.027
481.15	12.138
481.50	12.271
481.84	12.431
482.19	12.597
482.53	12.725
482.87	12.769
483.22	12.727
483.56	12.601
483.90	12.457
484.25	12.358
484.59	12.301
484.94	12.235
485.28	12.141
485.62	12.010
485.97	11.858
486.31	11.734
486.65	11.690
487.00	11.757
487.34	11.909
487.68	12.090
488.03	12.203
488.37	12.231
488.71	12.254
489.06	12.284
489.40	12.305
489.74	12.330
490.09	12.361
490.43	12.396
490.77	12.410
491.11	12.438
491.46	12.453
491.80	12.478
492.14	12.511
492.49	12.545
492.83	12.568
493.17	12.598
493.51	12.615
493.86	12.650
494.20	12.666
494.54	12.707
494.88	12.737
495.23	12.758
495.57	12.779
495.91	12.797
496.25	12.811
496.60	12.841
496.94	12.885
497.28	12.943
497.62	12.988
497.97	13.035
498.31	13.073
498.65	13.113
498.99	13.170
499.33	13.197
499.68	13.242
500.02	13.293
500.36	13.337
500.70	13.379
501.04	13.400
501.39	13.429
501.73	13.465
502.07	13.483
502.41	13.521
502.75	13.540
503.09	13.586
503.44	13.622
503.78	13.651
504.12	13.659
504.46	13.665
504.80	13.698
505.14	13.713
505.49	13.749
505.83	13.776
506.17	13.785
506.51	13.809
506.85	13.830
507.19	13.852
507.53	13.867
507.87	13.916
508.22	13.956
508.56	14.000
508.90	14.049
509.24	14.074
509.58	14.114
509.92	14.146
510.26	14.184
510.60	14.223
510.94	14.256
511.28	14.304
511.63	14.340
511.97	14.374
512.31	14.391
512.65	14.428
512.99	14.475
513.33	14.509
513.67	14.541
514.01	14.569
514.35	14.612
514.69	14.642
515.03	14.658
515.37	14.674
515.71	14.706
516.05	14.719
516.39	14.739
516.73	14.754
517.07	14.780
517.41	14.833
517.75	14.876
518.09	14.902
518.43	14.945
518.77	15.005
519.11	15.043
519.45	15.091
519.79	15.147
520.13	15.180
520.47	15.218
520.81	15.266
521.15	15.278
521.49	15.288
521.83	15.306
522.17	15.320
522.51	15.313
522.85	15.334
523.19	15.370
523.53	15.419
523.87	15.495
524.21	15.577
524.55	15.676
524.89	15.780
525.23	15.871
525.57	15.953
525.91	16.032
526.25	16.111
526.58	16.190
526.92	16.260
527.26	16.330
527.60	16.373
527.94	16.407
528.28	16.419
528.62	16.416
528.96	16.433
529.30	16.429
529.64	16.438
529.97	16.451
530.31	16.456
530.65	16.443
530.99	16.431
531.33	16.446
531.67	16.476
532.01	16.507
532.35	16.548
532.68	16.585
533.02	16.621
533.36	16.644
533.70	16.672
534.04	16.706
534.38	16.748
534.71	16.803
535.05	16.828
535.39	16.831
535.73	16.860
536.07	16.891
536.41	16.926
536.74	16.951
537.08	17.001
537.42	17.042
537.76	17.092
538.10	17.145
538.43	17.190
538.77	17.252
539.11	17.325
539.45	17.361
539.79	17.405
540.12	17.450
540.46	17.517
540.80	17.541
541.14	17.583
541.47	17.607
541.81	17.642
542.15	17.666
542.49	17.692
542.82	17.716
543.16	17.759
543.50	17.814
543.84	17.851
544.17	17.884
544.51	17.928
544.85	17.987
545.18	18.042
545.52	18.112
545.86	18.169
546.20	18.222
546.53	18.274
546.87	18.343
547.21	18.411
547.54	18.464
547.88	18.521
548.22	18.584
548.55	18.611
548.89	18.662
549.23	18.700
549.56	18.749
549.90	18.816
550.24	18.848
550.57	18.896
550.91	18.923
551.25	18.971
551.58	19.025
551.92	19.102
552.26	19.171
552.59	19.230
552.93	19.288
553.27	19.349
553.60	19.365
553.94	19.449
554.27	19.490
554.61	19.532
554.95	19.573
555.28	19.619
555.62	19.659
555.95	19.711
556.29	19.753
556.63	19.777
556.96	19.810
557.30	19.868
557.63	19.903
557.97	19.925
558.31	19.945
558.64	19.996
558.98	20.028
559.31	20.078
559.65	20.089
559.98	20.116
560.32	20.149
560.65	20.191
560.99	20.210
561.33	20.214
561.66	20.265
562.00	20.298
562.33	20.278
562.67	20.302
563.00	20.330
563.34	20.373
563.67	20.401
564.01	20.408
564.34	20.412
564.68	20.463
565.01	20.504
565.35	20.537
565.68	20.571
566.02	20.643
566.35	20.697
566.69	20.713
567.02	20.717
567.36	20.777
567.69	20.793
568.03	20.824
568.36	20.842
568.69	20.897
569.03	20.899
569.36	20.926
569.70	20.954
570.03	20.962
570.37	20.976
570.70	21.039
571.04	21.045
571.37	21.121
571.70	21.151
572.04	21.187
572.37	21.220
572.71	21.277
573.04	21.327
573.37	21.365
573.71	21.414
574.04	21.493
574.38	21.535
574.71	21.593
575.04	21.648
575.38	21.745
575.71	21.834
576.05	21.895
576.38	21.949
576.71	22.018
577.05	22.116
577.38	22.200
577.71	22.266
578.05	22.337
578.38	22.394
578.71	22.446
579.05	22.447
579.38	22.478
579.71	22.514
580.05	22.583
580.38	22.631
580.71	22.659
581.05	22.664
581.38	22.688
581.71	22.697
582.05	22.735
582.38	22.738
582.71	22.776
583.04	22.792
583.38	22.822
583.71	22.829
584.04	22.852
584.38	22.856
584.71	22.894
585.04	22.886
585.37	22.915
585.71	22.932
586.04	22.961
586.37	23.001
586.70	23.051
587.04	23.098
587.37	23.106
587.70	23.108
588.03	23.107
588.37	23.141
588.70	23.238
589.03	23.275
589.36	23.302
589.69	23.325
590.03	23.370
590.36	23.372
590.69	23.360
591.02	23.403
591.35	23.427
591.69	23.451
592.02	23.425
592.35	23.402
592.68	23.386
593.01	23.384
593.35	23.396
593.68	23.346
594.01	23.344
594.34	23.351
594.67	23.350
595.00	23.330
595.34	23.304
595.67	23.300
596.00	23.296
596.33	23.339
596.66	23.381
596.99	23.408
597.32	23.506
597.65	23.533
597.99	23.560
598.32	23.599
598.65	23.674
598.98	23.727
599.31	23.807
599.64	23.845
599.97	23.810
600.30	23.815
600.63	23.819
600.96	23.805
601.30	23.818
601.63	23.831
601.96	23.848
602.29	23.858
602.62	23.919
602.95	23.946
603.28	23.972
603.61	24.037
603.94	24.054
604.27	24.082
604.60	24.123
604.93	24.194
605.26	24.236
605.59	24.262
605.92	24.303
606.25	24.286
606.58	24.316
606.91	24.323
607.24	24.352
607.57	24.380
607.90	24.447
608.23	24.477
608.56	24.501
608.89	24.554
609.22	24.602
609.55	24.635
609.88	24.721
610.21	24.773
610.54	24.850
610.87	24.915
611.20	24.949
611.53	24.988
611.86	25.067
612.19	25.092
612.52	25.100
612.85	25.171
613.18	25.214
613.51	25.243
613.84	25.281
614.17	25.317
614.49	25.334
614.82	25.456
615.15	25.494
615.48	25.515
615.81	25.586
616.14	25.671
616.47	25.696
616.80	25.705
617.13	25.797
617.46	25.824
617.78	25.837
618.11	25.916
618.44	25.958
618.77	25.985
619.10	25.998
619.43	26.064
619.76	26.082
620.09	26.129
620.41	26.207
620.74	26.197
621.07	26.231
621.40	26.311
621.73	26.307
622.06	26.315
622.38	26.378
622.71	26.427
623.04	26.389
623.37	26.411
623.70	26.412
624.02	26.398
624.35	26.435
624.68	26.457
625.01	26.424
625.34	26.457
625.66	26.462
625.99	26.437
626.32	26.489
626.65	26.562
626.98	26.616
627.30	26.683
627.63	26.765
627.96	26.765
628.29	26.837
628.61	26.894
628.94	26.919
629.27	26.944
629.60	27.044
629.92	27.048
630.25	27.033
630.58	27.037
630.91	27.031
631.23	27.008
631.56	27.069
631.89	27.039
632.21	27.093
632.54	27.137
632.87	27.178
633.19	27.204
633.52	27.223
633.85	27.250
634.18	27.237
634.50	27.284
634.83	27.389
635.16	27.428
635.48	27.504
635.81	27.585
636.14	27.598
636.46	27.657
636.79	27.686
637.11	27.736
637.44	27.813
637.77	27.919
638.09	27.918
638.42	27.915
638.75	27.949
639.07	28.002
639.40	27.996
639.73	28.083
640.05	28.112
640.38	28.088
640.70	28.079
641.03	28.097
641.36	28.092
641.68	28.108
642.01	28.172
642.33	28.255
642.66	28.316
642.98	28.385
643.31	28.373
643.64	28.404
643.96	28.462
644.29	28.564
644.61	28.593
644.94	28.666
645.26	28.822
645.59	28.823
645.91	28.862
646.24	28.869
646.56	28.860
646.89	28.947
647.22	29.006
647.54	29.034
647.87	29.052
648.19	29.085
648.52	29.106
648.84	28.990
649.17	29.044
649.49	28.967
649.82	28.955
650.14	28.967
650.47	28.900
650.79	28.912
651.11	28.898
651.44	28.903
651.76	28.982
652.09	29.033
652.41	29.153
652.74	29.172
653.06	29.195
653.39	29.241
653.71	29.324
654.04	29.397
654.36	29.391
654.68	29.457
655.01	29.465
655.33	29.453
655.66	29.423
655.98	29.380
656.30	29.385
656.63	29.385
656.95	29.358
657.28	29.268
657.60	29.234
657.92	29.196
658.25	29.186
658.57	29.178
658.90	29.158
659.22	29.181
659.54	29.168
659.87	29.133
660.19	29.164
660.51	29.244
660.84	29.285
661.16	29.379
661.48	29.444
661.81	29.505
662.13	29.498
662.45	29.597
662.78	29.588
663.10	29.705
663.42	29.771
663.75	29.808
664.07	29.867
664.39	29.896
664.72	29.940
665.04	30.043
665.36	30.007
665.69	30.123
666.01	30.059
666.33	30.099
666.65	30.119
666.98	30.112
667.30	30.163
667.62	30.113
667.94	30.213
668.27	30.206
668.59	30.168
668.91	30.257
669.23	30.187
669.56	30.227
669.88	30.230
670.20	30.145
670.52	30.199
670.85	30.251
671.17	30.241
671.49	30.157
671.81	30.191
672.13	30.260
672.46	30.239
672.78	30.356
673.10	30.331
673.42	30.364
673.74	30.426
674.07	30.508
674.39	30.455
674.71	30.421
675.03	30.487
675.35	30.418
675.67	30.355
676.00	30.381
676.32	30.300
676.64	30.376
676.96	30.429
677.28	30.491
677.60	30.433
677.92	30.492
678.25	30.535
678.57	30.527
678.89	30.621
679.21	30.645
679.53	30.652
679.85	30.716
680.17	30.733
680.49	30.674
680.81	30.717
681.13	30.774
681.46	30.747
681.78	30.831
682.10	30.950
682.42	30.955
682.74	30.960
683.06	30.916
683.38	30.923
683.70	30.982
684.02	31.033
684.34	30.971
684.66	30.986
684.98	31.016
685.30	31.047
685.62	31.017
685.94	31.018
686.26	31.048
686.58	31.140
686.90	31.128
687.22	31.118
687.54	31.164
687.86	31.183
688.18	31.229
688.50	31.321
688.82	31.359
689.14	31.341
689.46	31.345
689.78	31.417
690.10	31.462
690.42	31.452
690.74	31.431
691.06	31.456
691.38	31.474
691.70	31.376
692.02	31.301
692.34	31.208
692.66	31.204
692.98	31.177
693.30	31.107
693.62	30.999
693.94	31.063
694.26	31.018
694.57	30.955
694.89	30.888
695.21	30.888
695.53	30.906
695.85	30.863
696.17	30.770
696.49	30.725
696.81	30.795
697.13	30.833
697.44	30.850
697.76	30.911
698.08	30.939
698.40	31.024
698.72	30.965
699.04	30.902
699.36	30.921
699.67	30.986
699.99	31.042
700.31	30.960
700.63	30.914
700.95	30.805
701.27	30.718
701.58	30.626
701.90	30.548
702.22	30.629
702.54	30.686
702.86	30.711
703.17	30.743
703.49	30.625
703.81	30.626
704.13	30.652
704.45	30.714
704.76	30.704
705.08	30.773
705.40	30.786
705.72	30.824
706.03	30.830
706.35	30.888
706.67	30.874
706.99	30.878
707.30	30.860
707.62	30.965
707.94	30.953
708.26	30.930
708.57	30.901
708.89	30.924
709.21	30.936
709.53	30.881
709.84	30.839
710.16	30.770
710.48	30.854
710.79	30.847
711.11	30.662
711.43	30.639
711.74	30.636
712.06	30.733
712.38	30.775
712.69	30.744
713.01	30.777
713.33	30.763
713.64	30.908
713.96	30.939
714.28	31.022
714.59	31.175
714.91	31.307
715.23	31.468
715.54	31.394
715.86	31.370
716.17	31.382
716.49	31.403
716.81	31.463
717.12	31.378
717.44	31.437
717.76	31.456
718.07	31.431
718.39	31.318
718.70	31.204
719.02	31.250
719.33	31.154
719.65	31.147
719.97	31.083
720.28	31.020
720.60	31.152
720.91	31.156
721.23	31.001
721.54	30.961
721.86	30.961
722.17	31.051
722.49	31.045
722.81	31.173
723.12	31.211
723.44	31.437
723.75	31.485
724.07	31.387
724.38	31.412
724.70	31.456
725.01	31.475
725.33	31.495
725.64	31.397
725.96	31.393
726.27	31.448
726.59	31.449
726.90	31.186
727.22	31.223
727.53	31.215
727.84	31.045
728.16	31.039
728.47	31.021
728.79	30.994
729.10	30.993
729.42	30.937
729.73	30.776
730.05	30.575
730.36	30.566
730.67	30.433
730.99	30.470
731.30	30.384
731.62	30.363
731.93	30.369
732.24	30.246
732.56	30.161
732.87	30.089
733.19	30.091
733.50	30.174
733.81	30.086
734.13	29.966
734.44	29.821
734.76	29.937
735.07	29.812
735.38	29.597
735.70	29.574
736.01	29.491
736.32	29.508
736.64	29.527
736.95	29.407
737.26	29.490
737.58	29.612
737.89	29.560
738.20	29.424
738.52	29.370
738.83	29.339
739.14	29.435
739.45	29.419
739.77	29.290
740.08	29.134
740.39	29.105
740.71	28.952
741.02	28.848
741.33	28.766
741.64	28.669
741.96	28.606
742.27	28.737
742.58	28.636
742.90	28.509
743.21	28.482
743.52	28.429
743.83	28.297
744.14	28.248
744.46	28.030
744.77	28.004
745.08	27.951
745.39	28.011
745.71	27.867
746.02	27.563
746.33	27.628
746.64	27.639
746.95	27.531
747.27	27.569
747.58	27.577
747.89	27.507
748.20	27.398
748.51	27.380
748.82	27.480
749.14	27.317
749.45	27.432
749.76	27.402
750.07	27.388
750.38	27.303
750.69	27.275
751.01	27.383
751.32	27.314
751.63	27.293
751.94	27.341
752.25	27.209
752.56	27.329
752.87	27.487
753.18	27.469
753.49	27.404
753.81	27.492
754.12	27.466
754.43	27.380
754.74	27.598
755.05	27.684
755.36	27.743
755.67	27.802
755.98	28.146
756.29	28.137
756.60	28.245
756.91	28.419
757.22	28.663
757.53	28.901
757.84	29.127
758.15	29.365
758.46	29.618
758.77	29.813
759.09	30.010
759.40	29.989
759.71	30.018
760.02	30.045
760.33	30.022
760.64	30.146
760.95	30.204
761.26	30.193
761.57	30.222
761.88	30.125
762.18	30.103
762.49	30.138
762.80	30.084
763.11	30.093
763.42	30.037
763.73	29.961
764.04	29.732
764.35	29.571
764.66	29.430
764.97	29.133
765.28	28.840
765.59	28.503
765.90	28.052
766.21	27.567
766.52	27.176
766.83	26.814
767.14	26.571
767.44	26.382
767.75	26.139
768.06	25.924
768.37	25.760
768.68	25.740
768.99	25.685
769.30	25.290
769.61	25.241
769.91	25.214
770.22	25.100
770.53	25.017
770.84	24.852
771.15	24.700
771.46	24.601
771.77	24.599
772.07	24.538
772.38	24.321
772.69	24.534
773.00	24.367
773.31	24.306
773.61	24.310
773.92	24.374
774.23	24.447
774.54	24.371
774.85	24.274
775.15	24.041
775.46	23.864
775.77	23.901
776.08	23.921
776.39	23.933
776.69	23.743
777.00	23.831
777.31	23.673
777.62	23.353
777.92	23.661
778.23	23.468
778.54	23.413
778.85	23.629
779.15	23.526
779.46	23.741
779.77	23.999
780.07	24.101
780.38	24.141
780.69	23.957
781.00	24.140
781.30	23.935
781.61	23.909
781.92	23.945
782.22	23.743
782.53	23.953
782.84	23.720
783.14	23.695
783.45	23.874
783.76	23.924
784.06	24.103
784.37	24.518
784.68	24.244
784.98	24.440
785.29	24.657
785.60	25.002
785.90	25.073
786.21	25.113
786.51	25.278
786.82	25.124
787.13	25.279
787.43	25.314
787.74	25.075
788.04	25.183
788.35	25.385
788.66	25.423
788.96	25.267
789.27	25.081
789.57	25.098
789.88	24.709
790.19	24.882
790.49	24.738
790.80	24.702
791.10	24.470
791.41	24.631
791.71	24.271
792.02	23.949
792.32	23.705
792.63	23.841
792.93	23.719
793.24	23.846
793.54	23.822
793.85	23.670
794.15	23.512
794.46	23.787
794.76	23.938
795.07	24.088
795.37	24.050
795.68	24.514
795.98	24.567
796.29	24.750
796.59	24.550
796.90	24.269
797.20	24.565
797.51	24.725
797.81	24.573
798.12	24.477
798.42	24.526
798.72	24.698
799.03	24.577
799.33	24.308
799.64	23.953
799.94	24.138
800.25	24.011
800.55	23.496
800.85	23.399
801.16	23.162
801.46	22.870
801.77	22.935
802.07	23.261
802.37	23.040
802.68	23.450
802.98	23.952
803.28	23.818
803.59	24.055
803.89	24.021
804.20	24.371
804.50	24.496
804.80	24.523
805.11	24.137
805.41	24.020
805.71	24.065
806.02	23.588
806.32	23.049
806.62	23.013
806.93	22.995
807.23	23.371
807.53	23.140
807.83	23.497
808.14	23.977
808.44	24.296
808.74	23.906
809.05	23.635
809.35	23.933
809.65	24.414
809.95	24.965
810.26	25.225
810.56	25.377
810.86	25.676
811.16	25.337
811.47	25.006
811.77	25.127
812.07	25.737
812.37	25.811
812.68	26.220
812.98	25.741
813.28	25.850
813.58	25.802
813.88	25.395
814.19	25.691
814.49	25.897
814.79	26.103
815.09	25.880
815.39	25.929
815.70	26.516
816.00	26.339
816.30	26.852
816.60	26.547
816.90	26.531
817.20	26.967
817.50	26.601
817.81	26.642
818.11	26.631
818.41	26.747
818.71	26.536
819.01	26.509
819.31	26.493
819.61	26.543
819.92	26.565
820.22	26.689
820.52	26.625
820.82	26.671
821.12	26.717
821.42	26.751
821.72	26.780
822.02	26.864
822.32	26.928
822.62	27.019
822.92	27.024
823.22	27.082
823.52	27.049
823.83	27.066
824.13	27.058
824.43	27.002
824.73	26.952
825.03	26.950
825.33	26.924
825.63	26.749
825.93	26.557
826.23	26.380
826.53	26.300
826.83	26.231
827.13	26.246
827.43	26.175
827.73	26.129
828.03	26.046
828.33	26.067
828.63	25.858
828.93	25.811
829.23	25.808
829.53	25.805
829.83	25.666
830.13	25.633
830.42	25.431
830.72	25.400
831.02	25.284
831.32	25.307
831.62	25.024
831.92	25.144
832.22	25.259
832.52	25.075
832.82	25.351
833.12	25.330
833.42	25.371
833.72	25.307
834.01	25.157
834.31	25.154
834.61	25.210
834.91	25.048
835.21	24.895
835.51	24.769
835.81	24.557
836.11	24.151
836.40	23.778
836.70	23.361
837.00	23.494
837.30	23.693
837.60	24.133
837.90	24.254
838.19	24.563
838.49	24.865
838.79	24.634
839.09	25.326
839.39	25.107
839.68	24.842
839.98	24.715
840.28	24.722
840.58	24.572
840.88	23.752
841.17	22.724
841.47	23.058
841.77	22.236
842.07	22.462
842.36	22.179
842.66	22.136
842.96	23.400
843.26	23.425
843.55	22.701
843.85	22.374
844.15	22.409
844.45	22.658
844.74	22.331
845.04	22.782
845.34	21.894
845.63	21.378
845.93	22.003
846.23	22.198
846.53	22.410
846.82	21.811
847.12	22.718
847.42	22.895
847.71	23.479
848.01	22.809
848.31	23.371
848.60	23.960
848.90	23.425
849.19	22.736
849.49	20.793
849.79	20.944
850.08	22.771
850.38	21.790
850.68	21.529
850.97	21.697
851.27	21.740
851.56	21.602
851.86	20.273
852.16	20.933
852.45	21.675
852.75	23.362
853.04	22.174
853.34	21.046
853.64	20.766
853.93	20.992
854.23	21.833
854.52	22.032
854.82	21.244
855.11	22.936
855.41	22.024
855.70	21.101
856.00	20.067
856.30	20.179
856.59	20.008
856.89	19.726
857.18	19.450
857.48	18.317
857.77	17.920
858.07	18.552
858.36	17.117
858.66	18.191
858.95	17.991
859.25	18.344
859.54	20.092
859.84	20.190
860.13	20.856
860.42	22.265
860.72	22.307
861.01	22.349
861.31	22.100
861.60	23.848
861.90	24.303
862.19	24.457
862.49	25.596
862.78	25.310
863.07	24.475
863.37	24.181
863.66	23.269
863.96	23.700
864.25	23.655
864.54	24.017
864.84	22.332
865.13	22.117
865.43	22.230
865.72	21.011
866.01	22.953
866.31	15.257
866.60	22.345
866.89	20.247
>>>>>End Spectral Data<<<<<
