OOIBase32 Version 2.0.0.6 Data File
++++++++++++++++++++++++++++++++++++
Date: 01-19-2012, 15:41:49
User: Valued Ocean Optics Customer
Spectrometer Serial Number: USB2E2917
Spectrometer Channel: Master
Integration Time (msec): 5
Spectra Averaged: 10
Boxcar Smoothing: 5
Correct for Electrical Dark: Enabled
Time Normalized: Disabled
Dual-beam Reference: Disabled
Reference Channel: Master
Temperature: Not acquired
Spectrometer Type: S2000
ADC Type: USB2000
Number of Pixels in File: 2048
Graph Title: 
>>>>>Begin Spectral Data<<<<<
180.30	0.000
180.67	0.000
181.03	-293.687
181.40	55.241
181.77	-266.143
182.14	65.364
182.51	179.500
182.88	44.083
183.25	145.223
183.62	88.789
183.99	-17001.215
184.36	428.337
184.73	-448.412
185.10	157.056
185.46	161.447
185.83	109.173
186.20	-20.886
186.57	24.599
186.94	-62.611
187.31	92.575
187.68	194.343
188.05	42.672
188.42	69.948
188.78	66.552
189.15	74.943
189.52	76.689
189.89	78.410
190.26	45.696
190.63	32.862
191.00	21.179
191.37	22.428
191.73	3.980
192.10	14.251
192.47	-8.649
192.84	-0.629
193.21	-2.298
193.58	-11.865
193.94	-16.154
194.31	-5.948
194.68	-34.221
195.05	-34.868
195.42	-11.807
195.79	4.188
196.15	4.624
196.52	11.462
196.89	7.400
197.26	5.381
197.63	6.249
198.00	32.532
198.36	-2.488
198.73	29.478
199.10	29.354
199.47	47.301
199.84	77.518
200.20	79.672
200.57	74.763
200.94	85.367
201.31	78.288
201.68	85.283
202.04	70.563
202.41	82.561
202.78	61.704
203.15	60.563
203.51	42.054
203.88	27.069
204.25	14.957
204.62	27.691
204.98	24.332
205.35	25.666
205.72	13.633
206.09	20.180
206.46	7.347
206.82	18.107
207.19	12.034
207.56	37.170
207.92	32.576
208.29	32.034
208.66	15.606
209.03	3.064
209.39	-4.876
209.76	2.276
210.13	-8.878
210.50	0.729
210.86	4.494
211.23	-17.149
211.60	-45.135
211.96	-36.983
212.33	-50.555
212.70	-65.519
213.07	-85.825
213.43	-74.933
213.80	-62.043
214.17	-20.276
214.53	-24.735
214.90	-19.262
215.27	-1.105
215.63	5.325
216.00	10.067
216.37	34.918
216.74	23.452
217.10	36.334
217.47	32.090
217.84	30.502
218.20	15.109
218.57	16.182
218.94	14.449
219.30	15.759
219.67	17.499
220.04	13.231
220.40	4.042
220.77	12.761
221.13	10.492
221.50	7.503
221.87	-0.393
222.23	3.967
222.60	7.497
222.97	12.762
223.33	13.623
223.70	9.621
224.07	10.757
224.43	13.838
224.80	13.609
225.16	10.854
225.53	9.775
225.90	11.344
226.26	10.975
226.63	8.122
226.99	4.732
227.36	5.842
227.73	6.720
228.09	6.764
228.46	7.010
228.82	6.624
229.19	6.923
229.56	6.290
229.92	6.194
230.29	5.590
230.65	7.237
231.02	8.633
231.38	6.457
231.75	5.205
232.12	4.428
232.48	1.824
232.85	1.197
233.21	2.405
233.58	4.554
233.94	4.583
234.31	6.024
234.68	4.901
235.04	3.533
235.41	5.466
235.77	5.431
236.14	6.125
236.50	7.869
236.87	6.940
237.23	5.758
237.60	6.237
237.96	5.699
238.33	4.854
238.69	4.998
239.06	5.871
239.42	5.762
239.79	5.155
240.15	5.177
240.52	4.322
240.88	4.717
241.25	5.462
241.61	4.768
241.98	5.030
242.34	4.782
242.71	5.418
243.07	5.791
243.44	5.908
243.80	6.121
244.17	5.733
244.53	5.887
244.90	5.994
245.26	5.644
245.63	5.701
245.99	5.551
246.36	5.556
246.72	5.276
247.09	5.217
247.45	5.191
247.81	5.484
248.18	5.934
248.54	5.805
248.91	5.410
249.27	5.243
249.64	5.305
250.00	5.352
250.36	5.449
250.73	5.513
251.09	5.328
251.46	4.919
251.82	4.550
252.19	4.200
252.55	4.622
252.91	5.072
253.28	5.639
253.64	5.486
254.01	5.651
254.37	5.387
254.73	5.329
255.10	5.098
255.46	4.953
255.83	5.155
256.19	5.266
256.55	5.189
256.92	5.199
257.28	5.125
257.65	5.143
258.01	5.397
258.37	5.676
258.74	5.682
259.10	5.796
259.46	5.970
259.83	5.823
260.19	5.733
260.55	5.519
260.92	5.235
261.28	5.241
261.64	5.437
262.01	5.156
262.37	4.958
262.73	4.806
263.10	4.620
263.46	4.080
263.82	4.276
264.19	4.487
264.55	4.748
264.91	4.573
265.28	4.148
265.64	3.959
266.00	3.811
266.37	3.818
266.73	4.308
267.09	3.987
267.46	4.141
267.82	3.901
268.18	3.818
268.54	3.775
268.91	3.943
269.27	3.993
269.63	3.942
270.00	4.017
270.36	3.942
270.72	3.759
271.08	3.950
271.45	4.071
271.81	4.393
272.17	4.342
272.53	4.517
272.90	4.789
273.26	5.136
273.62	5.227
273.98	5.329
274.35	5.361
274.71	5.066
275.07	5.019
275.43	4.898
275.80	4.720
276.16	4.509
276.52	4.168
276.88	4.066
277.25	4.211
277.61	3.877
277.97	3.617
278.33	3.828
278.69	4.019
279.06	4.136
279.42	4.121
279.78	4.296
280.14	4.773
280.50	4.854
280.87	4.858
281.23	4.655
281.59	4.833
281.95	5.006
282.31	5.008
282.68	5.061
283.04	5.203
283.40	5.272
283.76	5.040
284.12	4.854
284.48	4.883
284.85	4.751
285.21	4.865
285.57	4.836
285.93	4.641
286.29	4.472
286.65	4.224
287.02	4.234
287.38	4.401
287.74	4.387
288.10	4.386
288.46	4.512
288.82	4.493
289.18	4.169
289.54	4.287
289.91	4.467
290.27	4.712
290.63	5.014
290.99	4.847
291.35	4.533
291.71	4.610
292.07	4.818
292.43	4.939
292.79	4.869
293.16	5.036
293.52	5.231
293.88	5.473
294.24	5.470
294.60	5.393
294.96	5.689
295.32	5.912
295.68	5.865
296.04	5.763
296.40	5.834
296.76	6.011
297.12	6.025
297.49	5.941
297.85	5.776
298.21	5.706
298.57	5.842
298.93	5.880
299.29	5.859
299.65	5.916
300.01	5.852
300.37	5.723
300.73	5.666
301.09	5.690
301.45	5.567
301.81	5.568
302.17	5.490
302.53	5.522
302.89	5.434
303.25	5.555
303.61	5.840
303.97	6.003
304.33	6.055
304.69	6.318
305.05	6.261
305.41	6.228
305.77	6.309
306.13	6.188
306.49	6.012
306.85	5.757
307.21	5.768
307.57	5.661
307.93	5.680
308.29	5.541
308.65	5.342
309.01	5.431
309.37	5.469
309.73	5.487
310.09	5.830
310.45	5.849
310.81	5.998
311.17	6.016
311.53	5.958
311.89	5.863
312.25	5.935
312.61	6.123
312.96	6.242
313.32	6.285
313.68	6.168
314.04	5.950
314.40	5.946
314.76	5.911
315.12	5.879
315.48	5.823
315.84	5.829
316.20	5.824
316.56	5.853
316.92	5.718
317.27	5.755
317.63	5.683
317.99	5.578
318.35	5.553
318.71	5.497
319.07	5.344
319.43	5.289
319.79	5.296
320.15	5.417
320.50	5.336
320.86	5.538
321.22	5.646
321.58	5.676
321.94	5.910
322.30	5.904
322.66	6.088
323.01	6.271
323.37	6.568
323.73	6.737
324.09	6.664
324.45	6.783
324.81	6.732
325.17	6.884
325.52	7.018
325.88	6.961
326.24	7.082
326.60	7.236
326.96	7.220
327.31	7.226
327.67	7.180
328.03	7.347
328.39	7.314
328.75	7.351
329.11	7.187
329.46	7.439
329.82	7.493
330.18	7.799
330.54	7.719
330.90	7.934
331.25	8.098
331.61	8.213
331.97	8.199
332.33	8.339
332.68	8.533
333.04	8.622
333.40	8.563
333.76	8.594
334.11	8.524
334.47	8.560
334.83	8.330
335.19	8.406
335.54	8.353
335.90	8.405
336.26	8.436
336.62	8.411
336.97	8.383
337.33	8.397
337.69	8.459
338.05	8.365
338.40	8.266
338.76	8.461
339.12	8.207
339.48	8.264
339.83	8.335
340.19	8.333
340.55	8.316
340.90	8.501
341.26	8.472
341.62	8.536
341.97	8.624
342.33	8.818
342.69	8.796
343.04	8.983
343.40	8.833
343.76	8.744
344.12	8.625
344.47	8.568
344.83	8.419
345.19	8.390
345.54	8.351
345.90	8.276
346.26	8.010
346.61	7.973
346.97	7.908
347.32	7.956
347.68	7.866
348.04	7.906
348.39	7.973
348.75	8.048
349.11	8.095
349.46	8.126
349.82	8.095
350.18	8.248
350.53	8.238
350.89	8.208
351.24	8.295
351.60	8.356
351.96	8.375
352.31	8.223
352.67	8.164
353.02	8.157
353.38	8.072
353.74	8.241
354.09	8.216
354.45	8.316
354.80	8.380
355.16	8.343
355.52	8.390
355.87	8.522
356.23	8.593
356.58	8.647
356.94	8.686
357.29	8.756
357.65	8.698
358.00	8.703
358.36	8.653
358.72	8.636
359.07	8.693
359.43	8.704
359.78	8.666
360.14	8.769
360.49	8.688
360.85	8.703
361.20	8.695
361.56	8.620
361.91	8.687
362.27	8.621
362.62	8.577
362.98	8.601
363.33	8.519
363.69	8.461
364.04	8.397
364.40	8.419
364.75	8.365
365.11	8.335
365.46	8.378
365.82	8.355
366.17	8.429
366.53	8.556
366.88	8.496
367.24	8.564
367.59	8.623
367.95	8.699
368.30	8.817
368.66	8.961
369.01	9.083
369.37	9.112
369.72	9.146
370.08	9.208
370.43	9.217
370.78	9.310
371.14	9.382
371.49	9.416
371.85	9.471
372.20	9.466
372.56	9.492
372.91	9.531
373.26	9.649
373.62	9.731
373.97	9.795
374.33	9.814
374.68	9.896
375.03	9.941
375.39	10.055
375.74	10.082
376.10	10.133
376.45	10.137
376.80	10.178
377.16	10.240
377.51	10.318
377.87	10.428
378.22	10.523
378.57	10.621
378.93	10.775
379.28	10.909
379.63	11.043
379.99	11.211
380.34	11.380
380.70	11.568
381.05	11.705
381.40	11.849
381.76	11.936
382.11	12.109
382.46	12.232
382.82	12.325
383.17	12.362
383.52	12.492
383.88	12.606
384.23	12.664
384.58	12.735
384.94	12.852
385.29	12.944
385.64	12.987
385.99	13.054
386.35	13.169
386.70	13.278
387.05	13.419
387.41	13.517
387.76	13.625
388.11	13.753
388.47	13.883
388.82	13.967
389.17	14.071
389.52	14.257
389.88	14.418
390.23	14.524
390.58	14.653
390.93	14.821
391.29	14.965
391.64	15.091
391.99	15.191
392.34	15.259
392.70	15.389
393.05	15.473
393.40	15.519
393.75	15.589
394.11	15.661
394.46	15.757
394.81	15.762
395.16	15.759
395.52	15.765
395.87	15.770
396.22	15.745
396.57	15.696
396.92	15.702
397.28	15.673
397.63	15.711
397.98	15.722
398.33	15.712
398.68	15.719
399.04	15.752
399.39	15.823
399.74	15.902
400.09	16.013
400.44	16.142
400.80	16.216
401.15	16.334
401.50	16.391
401.85	16.498
402.20	16.550
402.55	16.674
402.90	16.759
403.26	16.833
403.61	16.929
403.96	16.988
404.31	16.996
404.66	17.051
405.01	17.133
405.36	17.172
405.72	17.173
406.07	17.261
406.42	17.252
406.77	17.306
407.12	17.335
407.47	17.371
407.82	17.460
408.17	17.531
408.53	17.606
408.88	17.624
409.23	17.619
409.58	17.645
409.93	17.652
410.28	17.700
410.63	17.673
410.98	17.695
411.33	17.714
411.68	17.738
412.03	17.772
412.38	17.779
412.73	17.878
413.09	17.976
413.44	18.074
413.79	18.243
414.14	18.360
414.49	18.499
414.84	18.611
415.19	18.736
415.54	18.786
415.89	18.846
416.24	18.956
416.59	19.069
416.94	19.138
417.29	19.197
417.64	19.215
417.99	19.228
418.34	19.279
418.69	19.301
419.04	19.339
419.39	19.411
419.74	19.487
420.09	19.532
420.44	19.534
420.79	19.558
421.14	19.579
421.49	19.617
421.84	19.646
422.19	19.658
422.54	19.696
422.89	19.677
423.24	19.657
423.59	19.668
423.94	19.642
424.29	19.618
424.64	19.627
424.99	19.597
425.34	19.540
425.68	19.532
426.03	19.514
426.38	19.476
426.73	19.517
427.08	19.542
427.43	19.533
427.78	19.586
428.13	19.610
428.48	19.637
428.83	19.733
429.18	19.774
429.53	19.862
429.87	19.902
430.22	19.942
430.57	19.948
430.92	19.976
431.27	19.971
431.62	19.980
431.97	19.984
432.32	19.990
432.67	19.974
433.01	19.990
433.36	19.939
433.71	19.926
434.06	19.928
434.41	19.931
434.76	19.941
435.11	19.997
435.45	20.002
435.80	20.062
436.15	20.117
436.50	20.146
436.85	20.203
437.20	20.264
437.54	20.311
437.89	20.335
438.24	20.378
438.59	20.389
438.94	20.361
439.29	20.394
439.63	20.386
439.98	20.364
440.33	20.345
440.68	20.311
441.03	20.289
441.37	20.290
441.72	20.328
442.07	20.309
442.42	20.332
442.76	20.375
443.11	20.380
443.46	20.398
443.81	20.418
444.16	20.446
444.50	20.486
444.85	20.487
445.20	20.480
445.55	20.426
445.89	20.405
446.24	20.354
446.59	20.308
446.94	20.253
447.28	20.191
447.63	20.138
447.98	20.103
448.32	20.027
448.67	19.990
449.02	19.986
449.37	20.000
449.71	20.011
450.06	20.045
450.41	20.071
450.75	20.106
451.10	20.125
451.45	20.157
451.79	20.166
452.14	20.177
452.49	20.158
452.84	20.168
453.18	20.174
453.53	20.219
453.88	20.230
454.22	20.289
454.57	20.358
454.92	20.440
455.26	20.497
455.61	20.575
455.95	20.649
456.30	20.760
456.65	20.821
456.99	20.911
457.34	20.971
457.69	21.062
458.03	21.079
458.38	21.080
458.73	21.110
459.07	21.127
459.42	21.130
459.76	21.125
460.11	21.083
460.46	21.055
460.80	21.040
461.15	21.015
461.49	20.963
461.84	20.950
462.19	20.980
462.53	20.984
462.88	20.984
463.22	21.008
463.57	21.085
463.91	21.162
464.26	21.190
464.61	21.219
464.95	21.275
465.30	21.345
465.64	21.376
465.99	21.395
466.33	21.405
466.68	21.459
467.02	21.467
467.37	21.459
467.71	21.491
468.06	21.528
468.41	21.528
468.75	21.541
469.10	21.550
469.44	21.560
469.79	21.571
470.13	21.579
470.48	21.525
470.82	21.552
471.17	21.539
471.51	21.547
471.86	21.556
472.20	21.577
472.55	21.533
472.89	21.523
473.23	21.517
473.58	21.509
473.92	21.530
474.27	21.589
474.61	21.598
474.96	21.623
475.30	21.621
475.65	21.650
475.99	21.674
476.34	21.765
476.68	21.764
477.02	21.824
477.37	21.865
477.71	21.949
478.06	22.062
478.40	22.232
478.75	22.512
479.09	22.826
479.43	23.156
479.78	23.494
480.12	23.757
480.47	24.035
480.81	24.281
481.15	24.531
481.50	24.717
481.84	24.929
482.19	25.120
482.53	25.276
482.87	25.389
483.22	25.436
483.56	25.443
483.90	25.448
484.25	25.441
484.59	25.409
484.94	25.350
485.28	25.284
485.62	25.163
485.97	25.051
486.31	24.929
486.65	24.827
487.00	24.779
487.34	24.750
487.68	24.738
488.03	24.690
488.37	24.668
488.71	24.655
489.06	24.657
489.40	24.674
489.74	24.665
490.09	24.648
490.43	24.600
490.77	24.531
491.11	24.471
491.46	24.383
491.80	24.345
492.14	24.286
492.49	24.219
492.83	24.176
493.17	24.112
493.51	24.051
493.86	24.024
494.20	24.063
494.54	24.088
494.88	24.129
495.23	24.192
495.57	24.249
495.91	24.342
496.25	24.407
496.60	24.467
496.94	24.532
497.28	24.611
497.62	24.666
497.97	24.682
498.31	24.753
498.65	24.796
498.99	24.896
499.33	24.981
499.68	25.015
500.02	25.127
500.36	25.232
500.70	25.295
501.04	25.332
501.39	25.378
501.73	25.453
502.07	25.501
502.41	25.614
502.75	25.688
503.09	25.758
503.44	25.868
503.78	25.941
504.12	25.985
504.46	26.124
504.80	26.247
505.14	26.366
505.49	26.512
505.83	26.682
506.17	26.761
506.51	26.858
506.85	26.982
507.19	27.090
507.53	27.182
507.87	27.296
508.22	27.357
508.56	27.460
508.90	27.565
509.24	27.629
509.58	27.665
509.92	27.755
510.26	27.792
510.60	27.824
510.94	27.871
511.28	27.937
511.63	27.997
511.97	28.066
512.31	28.088
512.65	28.140
512.99	28.223
513.33	28.357
513.67	28.471
514.01	28.659
514.35	28.814
514.69	28.958
515.03	29.076
515.37	29.228
515.71	29.359
516.05	29.503
516.39	29.630
516.73	29.712
517.07	29.768
517.41	29.803
517.75	29.831
518.09	29.877
518.43	29.903
518.77	29.933
519.11	29.902
519.45	29.886
519.79	29.873
520.13	29.858
520.47	29.893
520.81	29.935
521.15	30.026
521.49	30.081
521.83	30.157
522.17	30.260
522.51	30.417
522.85	30.615
523.19	30.852
523.53	31.185
523.87	31.536
524.21	31.881
524.55	32.230
524.89	32.533
525.23	32.810
525.57	33.038
525.91	33.291
526.25	33.493
526.58	33.656
526.92	33.801
527.26	33.883
527.60	33.948
527.94	33.933
528.28	33.896
528.62	33.863
528.96	33.799
529.30	33.758
529.64	33.645
529.97	33.541
530.31	33.473
530.65	33.397
530.99	33.330
531.33	33.272
531.67	33.292
532.01	33.293
532.35	33.285
532.68	33.277
533.02	33.256
533.36	33.250
533.70	33.216
534.04	33.177
534.38	33.148
534.71	33.091
535.05	33.024
535.39	32.971
535.73	32.930
536.07	32.928
536.41	32.996
536.74	33.102
537.08	33.227
537.42	33.403
537.76	33.561
538.10	33.747
538.43	33.933
538.77	34.086
539.11	34.243
539.45	34.404
539.79	34.501
540.12	34.572
540.46	34.629
540.80	34.665
541.14	34.654
541.47	34.610
541.81	34.553
542.15	34.503
542.49	34.458
542.82	34.372
543.16	34.234
543.50	34.160
543.84	34.072
544.17	33.990
544.51	33.886
544.85	33.828
545.18	33.814
545.52	33.739
545.86	33.674
546.20	33.654
546.53	33.628
546.87	33.631
547.21	33.606
547.54	33.608
547.88	33.607
548.22	33.634
548.55	33.648
548.89	33.701
549.23	33.769
549.56	33.862
549.90	33.888
550.24	33.948
550.57	33.970
550.91	34.000
551.25	34.041
551.58	34.068
551.92	34.122
552.26	34.117
552.59	34.148
552.93	34.201
553.27	34.223
553.60	34.192
553.94	34.171
554.27	34.204
554.61	34.261
554.95	34.310
555.28	34.328
555.62	34.400
555.95	34.504
556.29	34.524
556.63	34.517
556.96	34.511
557.30	34.589
557.63	34.650
557.97	34.710
558.31	34.768
558.64	34.864
558.98	34.977
559.31	34.989
559.65	35.018
559.98	35.067
560.32	35.132
560.65	35.221
560.99	35.307
561.33	35.409
561.66	35.525
562.00	35.599
562.33	35.621
562.67	35.673
563.00	35.754
563.34	35.866
563.67	35.977
564.01	36.113
564.34	36.227
564.68	36.307
565.01	36.339
565.35	36.406
565.68	36.442
566.02	36.523
566.35	36.571
566.69	36.660
567.02	36.695
567.36	36.758
567.69	36.812
568.03	36.855
568.36	36.911
568.69	36.994
569.03	37.071
569.36	37.151
569.70	37.200
570.03	37.287
570.37	37.365
570.70	37.452
571.04	37.485
571.37	37.530
571.70	37.563
572.04	37.636
572.37	37.703
572.71	37.767
573.04	37.854
573.37	37.931
573.71	38.020
574.04	38.027
574.38	38.066
574.71	38.113
575.04	38.137
575.38	38.174
575.71	38.202
576.05	38.199
576.38	38.216
576.71	38.188
577.05	38.214
577.38	38.134
577.71	38.136
578.05	38.136
578.38	38.135
578.71	38.151
579.05	38.212
579.38	38.248
579.71	38.320
580.05	38.354
580.38	38.415
580.71	38.412
581.05	38.523
581.38	38.639
581.71	38.725
582.05	38.835
582.38	38.892
582.71	38.926
583.04	38.972
583.38	39.022
583.71	39.043
584.04	39.174
584.38	39.256
584.71	39.353
585.04	39.425
585.37	39.517
585.71	39.614
586.04	39.726
586.37	39.845
586.70	39.945
587.04	40.050
587.37	40.229
587.70	40.283
588.03	40.441
588.37	40.455
588.70	40.534
589.03	40.590
589.36	40.658
589.69	40.741
590.03	40.784
590.36	40.859
590.69	40.978
591.02	41.024
591.35	41.127
591.69	41.187
592.02	41.326
592.35	41.458
592.68	41.576
593.01	41.640
593.35	41.729
593.68	41.899
594.01	42.028
594.34	42.150
594.67	42.218
595.00	42.292
595.34	42.411
595.67	42.519
596.00	42.544
596.33	42.582
596.66	42.640
596.99	42.675
597.32	42.699
597.65	42.774
597.99	42.764
598.32	42.828
598.65	42.866
598.98	42.898
599.31	42.947
599.64	43.044
599.97	43.210
600.30	43.368
600.63	43.554
600.96	43.670
601.30	43.802
601.63	43.889
601.96	43.980
602.29	44.121
602.62	44.199
602.95	44.259
603.28	44.339
603.61	44.421
603.94	44.547
604.27	44.571
604.60	44.651
604.93	44.726
605.26	44.840
605.59	44.978
605.92	45.062
606.25	45.161
606.58	45.328
606.91	45.416
607.24	45.478
607.57	45.515
607.90	45.630
608.23	45.696
608.56	45.753
608.89	45.805
609.22	45.804
609.55	45.825
609.88	45.887
610.21	45.863
610.54	45.872
610.87	45.868
611.20	45.880
611.53	45.855
611.86	45.957
612.19	45.986
612.52	46.030
612.85	46.120
613.18	46.217
613.51	46.308
613.84	46.431
614.17	46.594
614.49	46.747
614.82	46.867
615.15	47.000
615.48	47.002
615.81	47.108
616.14	47.231
616.47	47.300
616.80	47.380
617.13	47.432
617.46	47.548
617.78	47.644
618.11	47.670
618.44	47.700
618.77	47.813
619.10	47.934
619.43	47.971
619.76	48.042
620.09	48.104
620.41	48.224
620.74	48.342
621.07	48.445
621.40	48.584
621.73	48.719
622.06	48.902
622.38	48.919
622.71	49.028
623.04	49.136
623.37	49.271
623.70	49.501
624.02	49.610
624.35	49.696
624.68	49.769
625.01	49.848
625.34	49.950
625.66	50.026
625.99	50.236
626.32	50.281
626.65	50.412
626.98	50.470
627.30	50.512
627.63	50.551
627.96	50.673
628.29	50.778
628.61	50.793
628.94	50.904
629.27	50.965
629.60	50.958
629.92	51.131
630.25	51.183
630.58	51.309
630.91	51.402
631.23	51.486
631.56	51.587
631.89	51.675
632.21	51.794
632.54	51.809
632.87	51.884
633.19	51.921
633.52	51.967
633.85	52.068
634.18	52.128
634.50	52.114
634.83	52.174
635.16	52.139
635.48	52.183
635.81	52.230
636.14	52.371
636.46	52.445
636.79	52.524
637.11	52.504
637.44	52.524
637.77	52.566
638.09	52.745
638.42	52.880
638.75	52.965
639.07	53.017
639.40	53.026
639.73	53.060
640.05	53.117
640.38	53.270
640.70	53.450
641.03	53.510
641.36	53.539
641.68	53.543
642.01	53.523
642.33	53.569
642.66	53.614
642.98	53.725
643.31	53.732
643.64	53.808
643.96	53.824
644.29	53.889
644.61	53.997
644.94	54.087
645.26	54.158
645.59	54.212
645.91	54.306
646.24	54.341
646.56	54.482
646.89	54.568
647.22	54.596
647.54	54.678
647.87	54.767
648.19	54.813
648.52	54.911
648.84	54.928
649.17	54.995
649.49	55.077
649.82	55.183
650.14	55.183
650.47	55.251
650.79	55.273
651.11	55.373
651.44	55.343
651.76	55.395
652.09	55.440
652.41	55.526
652.74	55.591
653.06	55.678
653.39	55.662
653.71	55.719
654.04	55.855
654.36	55.942
654.68	56.019
655.01	56.121
655.33	56.286
655.66	56.364
655.98	56.384
656.30	56.461
656.63	56.429
656.95	56.585
657.28	56.639
657.60	56.641
657.92	56.726
658.25	56.749
658.57	56.730
658.90	56.677
659.22	56.683
659.54	56.700
659.87	56.601
660.19	56.627
660.51	56.605
660.84	56.609
661.16	56.532
661.48	56.559
661.81	56.609
662.13	56.681
662.45	56.647
662.78	56.601
663.10	56.545
663.42	56.608
663.75	56.644
664.07	56.580
664.39	56.602
664.72	56.755
665.04	56.757
665.36	56.701
665.69	56.651
666.01	56.757
666.33	56.853
666.65	56.990
666.98	57.060
667.30	57.204
667.62	57.260
667.94	57.341
668.27	57.352
668.59	57.337
668.91	57.396
669.23	57.435
669.56	57.392
669.88	57.392
670.20	57.346
670.52	57.425
670.85	57.412
671.17	57.496
671.49	57.417
671.81	57.519
672.13	57.546
672.46	57.579
672.78	57.684
673.10	57.728
673.42	57.762
673.74	57.897
674.07	57.953
674.39	58.057
674.71	58.120
675.03	58.222
675.35	58.182
675.67	58.356
676.00	58.321
676.32	58.396
676.64	58.415
676.96	58.537
677.28	58.597
677.60	58.622
677.92	58.582
678.25	58.557
678.57	58.576
678.89	58.615
679.21	58.588
679.53	58.680
679.85	58.659
680.17	58.692
680.49	58.680
680.81	58.673
681.13	58.661
681.46	58.660
681.78	58.677
682.10	58.677
682.42	58.629
682.74	58.686
683.06	58.749
683.38	58.750
683.70	58.846
684.02	58.883
684.34	58.964
684.66	59.126
684.98	59.129
685.30	59.205
685.62	59.329
685.94	59.407
686.26	59.388
686.58	59.320
686.90	59.407
687.22	59.379
687.54	59.411
687.86	59.365
688.18	59.305
688.50	59.350
688.82	59.262
689.14	59.296
689.46	59.299
689.78	59.298
690.10	59.341
690.42	59.263
690.74	59.283
691.06	59.306
691.38	59.313
691.70	59.219
692.02	59.183
692.34	59.278
692.66	59.171
692.98	59.292
693.30	59.330
693.62	59.380
693.94	59.477
694.26	59.515
694.57	59.458
694.89	59.621
695.21	59.806
695.53	59.839
695.85	59.869
696.17	60.086
696.49	60.080
696.81	60.126
697.13	60.203
697.44	60.199
697.76	60.207
698.08	60.231
698.40	60.094
698.72	60.003
699.04	59.991
699.36	59.976
699.67	59.725
699.99	59.697
700.31	59.524
700.63	59.376
700.95	59.434
701.27	59.296
701.58	59.196
701.90	59.090
702.22	59.001
702.54	58.970
702.86	58.972
703.17	58.953
703.49	58.942
703.81	58.989
704.13	59.019
704.45	58.770
704.76	58.789
705.08	58.785
705.40	58.864
705.72	58.895
706.03	58.860
706.35	58.802
706.67	58.824
706.99	58.800
707.30	58.790
707.62	58.742
707.94	58.897
708.26	59.027
708.57	59.143
708.89	59.205
709.21	59.168
709.53	59.242
709.84	59.222
710.16	59.293
710.48	59.209
710.79	59.201
711.11	59.241
711.43	59.119
711.74	58.918
712.06	58.954
712.38	58.997
712.69	59.124
713.01	59.123
713.33	59.148
713.64	59.173
713.96	59.103
714.28	59.127
714.59	59.085
714.91	59.171
715.23	59.298
715.54	59.233
715.86	59.192
716.17	59.119
716.49	59.077
716.81	59.115
717.12	58.958
717.44	59.132
717.76	59.002
718.07	58.937
718.39	58.794
718.70	58.745
719.02	58.645
719.33	58.439
719.65	58.421
719.97	58.149
720.28	58.136
720.60	58.224
720.91	58.108
721.23	58.295
721.54	58.246
721.86	58.376
722.17	58.297
722.49	58.255
722.81	58.393
723.12	58.335
723.44	58.616
723.75	58.481
724.07	58.361
724.38	58.239
724.70	58.183
725.01	58.322
725.33	58.425
725.64	58.517
725.96	58.553
726.27	58.410
726.59	58.399
726.90	58.390
727.22	58.434
727.53	58.463
727.84	58.516
728.16	58.420
728.47	58.278
728.79	58.124
729.10	58.130
729.42	57.992
729.73	58.009
730.05	58.010
730.36	58.065
730.67	58.110
730.99	58.073
731.30	58.044
731.62	58.033
731.93	58.119
732.24	58.067
732.56	57.761
732.87	57.743
733.19	57.717
733.50	57.549
733.81	57.358
734.13	57.214
734.44	57.069
734.76	56.999
735.07	56.937
735.38	56.765
735.70	56.779
736.01	57.193
736.32	57.339
736.64	57.405
736.95	57.491
737.26	57.437
737.58	57.480
737.89	57.582
738.20	57.559
738.52	57.546
738.83	57.584
739.14	57.301
739.45	56.849
739.77	56.602
740.08	56.378
740.39	56.264
740.71	56.068
741.02	55.860
741.33	55.750
741.64	55.546
741.96	55.361
742.27	55.178
742.58	55.150
742.90	55.141
743.21	55.128
743.52	55.145
743.83	55.015
744.14	55.031
744.46	54.670
744.77	54.559
745.08	54.599
745.39	54.655
745.71	54.500
746.02	54.627
746.33	54.477
746.64	54.288
746.95	54.148
747.27	54.076
747.58	53.997
747.89	54.189
748.20	54.055
748.51	53.822
748.82	53.669
749.14	53.711
749.45	53.559
749.76	53.596
750.07	53.658
750.38	53.623
750.69	53.497
751.01	53.652
751.32	53.756
751.63	53.812
751.94	53.676
752.25	53.711
752.56	53.565
752.87	53.586
753.18	53.367
753.49	53.197
753.81	53.085
754.12	53.224
754.43	52.988
754.74	52.892
755.05	52.785
755.36	53.128
755.67	53.260
755.98	53.524
756.29	53.661
756.60	53.909
756.91	54.108
757.22	54.434
757.53	54.435
757.84	54.786
758.15	55.006
758.46	55.128
758.77	55.011
759.09	55.051
759.40	54.882
759.71	54.748
760.02	54.812
760.33	54.831
760.64	54.768
760.95	54.834
761.26	54.638
761.57	54.541
761.88	54.567
762.18	54.588
762.49	54.325
762.80	54.320
763.11	54.249
763.42	54.158
763.73	53.968
764.04	53.696
764.35	53.400
764.66	53.123
764.97	52.844
765.28	52.473
765.59	52.121
765.90	51.891
766.21	51.588
766.52	51.084
766.83	50.488
767.14	50.078
767.44	49.926
767.75	49.682
768.06	49.453
768.37	49.165
768.68	49.032
768.99	48.768
769.30	48.447
769.61	48.325
769.91	48.397
770.22	48.412
770.53	48.358
770.84	48.001
771.15	48.068
771.46	48.018
771.77	47.845
772.07	47.827
772.38	47.887
772.69	47.922
773.00	47.564
773.31	47.387
773.61	47.480
773.92	47.441
774.23	47.278
774.54	47.084
774.85	46.917
775.15	46.824
775.46	46.786
775.77	46.960
776.08	46.805
776.39	46.878
776.69	46.897
777.00	47.087
777.31	47.028
777.62	46.970
777.92	46.920
778.23	46.909
778.54	47.059
778.85	46.747
779.15	46.662
779.46	46.760
779.77	46.469
780.07	46.418
780.38	45.586
780.69	45.709
781.00	45.899
781.30	45.712
781.61	45.881
781.92	45.817
782.22	45.699
782.53	45.144
782.84	44.986
783.14	45.372
783.45	45.221
783.76	45.831
784.06	45.604
784.37	45.398
784.68	45.260
784.98	44.982
785.29	44.969
785.60	45.386
785.90	45.475
786.21	45.784
786.51	45.363
786.82	45.352
787.13	45.234
787.43	45.329
787.74	45.233
788.04	45.474
788.35	45.379
788.66	45.351
788.96	44.942
789.27	45.038
789.57	44.561
789.88	44.688
790.19	44.585
790.49	44.219
790.80	43.660
791.10	43.647
791.41	43.262
791.71	43.754
792.02	43.525
792.32	43.124
792.63	43.162
792.93	43.597
793.24	43.706
793.54	44.155
793.85	44.598
794.15	44.756
794.46	44.847
794.76	44.860
795.07	44.413
795.37	44.389
795.68	44.447
795.98	44.565
796.29	44.249
796.59	44.154
796.90	43.346
797.20	42.853
797.51	43.266
797.81	43.180
798.12	43.153
798.42	42.988
798.72	42.981
799.03	43.263
799.33	42.786
799.64	42.910
799.94	42.531
800.25	43.093
800.55	42.876
800.85	42.113
801.16	41.961
801.46	42.174
801.77	42.342
802.07	42.142
802.37	42.011
802.68	42.226
802.98	41.489
803.28	41.664
803.59	41.034
803.89	41.582
804.20	42.215
804.50	41.795
804.80	41.691
805.11	41.774
805.41	42.110
805.71	41.947
806.02	41.652
806.32	41.873
806.62	41.410
806.93	41.595
807.23	41.438
807.53	40.925
807.83	41.234
808.14	41.524
808.44	41.561
808.74	41.093
809.05	41.290
809.35	41.497
809.65	42.143
809.95	42.947
810.26	43.266
810.56	42.770
810.86	42.598
811.16	42.706
811.47	42.168
811.77	41.667
812.07	42.119
812.37	42.314
812.68	42.220
812.98	41.859
813.28	41.565
813.58	41.677
813.88	41.706
814.19	42.030
814.49	42.000
814.79	41.842
815.09	41.837
815.39	42.085
815.70	41.560
816.00	41.896
816.30	42.245
816.60	42.104
816.90	42.402
817.20	42.733
817.50	42.954
817.81	43.125
818.11	43.526
818.41	43.801
818.71	43.824
819.01	44.122
819.31	44.210
819.61	44.337
819.92	44.612
820.22	44.626
820.52	44.752
820.82	44.854
821.12	44.886
821.42	44.818
821.72	44.812
822.02	44.851
822.32	44.830
822.62	44.762
822.92	44.640
823.22	44.589
823.52	44.517
823.83	44.398
824.13	44.275
824.43	44.248
824.73	44.200
825.03	44.038
825.33	43.742
825.63	43.656
825.93	43.610
826.23	43.559
826.53	43.251
826.83	43.202
827.13	43.064
827.43	42.940
827.73	42.890
828.03	42.976
828.33	43.018
828.63	42.980
828.93	42.720
829.23	42.454
829.53	42.193
829.83	42.374
830.13	42.317
830.42	42.037
830.72	42.076
831.02	41.656
831.32	41.479
831.62	41.409
831.92	41.888
832.22	41.749
832.52	41.991
832.82	42.301
833.12	41.945
833.42	41.748
833.72	41.826
834.01	41.200
834.31	41.090
834.61	40.864
834.91	40.632
835.21	39.951
835.51	39.863
835.81	39.092
836.11	38.417
836.40	38.081
836.70	37.246
837.00	36.768
837.30	36.281
837.60	36.127
837.90	35.573
838.19	35.502
838.49	35.023
838.79	35.761
839.09	35.810
839.39	35.981
839.68	35.554
839.98	35.660
840.28	34.307
840.58	35.302
840.88	35.455
841.17	35.344
841.47	35.450
841.77	35.762
842.07	34.912
842.36	34.221
842.66	33.373
842.96	33.422
843.26	33.615
843.55	35.194
843.85	34.110
844.15	32.703
844.45	31.676
844.74	29.580
845.04	28.702
845.34	26.573
845.63	28.899
845.93	28.002
846.23	28.691
846.53	26.907
846.82	25.458
847.12	25.226
847.42	25.010
847.71	25.897
848.01	25.874
848.31	27.008
848.60	29.721
848.90	27.456
849.19	26.111
849.49	25.337
849.79	26.119
850.08	26.616
850.38	26.921
850.68	27.424
850.97	26.753
851.27	27.608
851.56	27.367
851.86	24.984
852.16	24.989
852.45	26.555
852.75	25.510
853.04	26.655
853.34	28.097
853.64	27.426
853.93	29.022
854.23	27.998
854.52	28.896
854.82	27.802
855.11	28.620
855.41	29.282
855.70	29.276
856.00	31.611
856.30	29.632
856.59	28.161
856.89	26.536
857.18	24.983
857.48	26.540
857.77	23.851
858.07	26.115
858.36	26.142
858.66	25.525
858.95	25.279
859.25	22.489
859.54	24.063
859.84	24.414
860.13	27.006
860.42	26.686
860.72	27.022
861.01	31.671
861.31	29.223
861.60	30.245
861.90	30.699
862.19	31.090
862.49	31.051
862.78	30.527
863.07	30.941
863.37	31.313
863.66	30.924
863.96	31.469
864.25	28.849
864.54	30.762
864.84	27.948
865.13	28.010
865.43	29.804
865.72	18.772
866.01	40.618
866.31	11.563
866.60	31.343
866.89	49.334
>>>>>End Spectral Data<<<<<
