OOIBase32 Version 2.0.0.6 Data File
++++++++++++++++++++++++++++++++++++
Date: 01-22-2012, 21:08:49
User: Valued Ocean Optics Customer
Spectrometer Serial Number: USB2E2917
Spectrometer Channel: Master
Integration Time (msec): 4
Spectra Averaged: 10
Boxcar Smoothing: 5
Correct for Electrical Dark: Enabled
Time Normalized: Disabled
Dual-beam Reference: Disabled
Reference Channel: Master
Temperature: Not acquired
Spectrometer Type: S2000
ADC Type: USB2000
Number of Pixels in File: 2048
Graph Title: 
>>>>>Begin Spectral Data<<<<<
180.30	0.000
180.67	0.000
181.03	-184.563
181.40	54.967
181.77	-358.485
182.14	1.041
182.51	102.719
182.88	-31.038
183.25	58.507
183.62	-225.462
183.99	34.109
184.36	105.169
184.73	-23.249
185.10	2047.105
185.46	-27.757
185.83	6.987
186.20	99.635
186.57	658.216
186.94	160.711
187.31	75.149
187.68	-2864.025
188.05	296.992
188.42	175.813
188.78	244.672
189.15	167.505
189.52	142.063
189.89	102.806
190.26	87.455
190.63	76.606
191.00	94.152
191.37	89.279
191.73	122.220
192.10	100.708
192.47	72.210
192.84	5.391
193.21	-63.277
193.58	-71.972
193.94	-12.732
194.31	42.427
194.68	69.250
195.05	46.164
195.42	36.844
195.79	1.674
196.15	21.363
196.52	33.488
196.89	34.811
197.26	13.531
197.63	-5.772
198.00	4.515
198.36	-62.845
198.73	-270.913
199.10	-139.735
199.47	-67.746
199.84	-27.457
200.20	-62.206
200.57	-48.364
200.94	-18.782
201.31	7.889
201.68	16.854
202.04	6.816
202.41	-2.289
202.78	7.740
203.15	-2.698
203.51	7.434
203.88	-5.478
204.25	-21.594
204.62	-21.838
204.98	-28.142
205.35	-67.854
205.72	-116.208
206.09	-195.305
206.46	-117.429
206.82	-179.165
207.19	-182.284
207.56	-262.156
207.92	-255.344
208.29	-138.682
208.66	-109.103
209.03	-120.540
209.39	-70.587
209.76	-43.379
210.13	-8.891
210.50	-13.422
210.86	-49.034
211.23	-58.537
211.60	-51.836
211.96	-58.809
212.33	-139.773
212.70	5662.018
213.07	435.547
213.43	282.453
213.80	1135.462
214.17	252.810
214.53	1293.023
214.90	-72.436
215.27	-23.241
215.63	-50.073
216.00	-38.025
216.37	-29.889
216.74	-28.019
217.10	-19.544
217.47	-23.869
217.84	-15.688
218.20	-12.844
218.57	-7.197
218.94	-19.579
219.30	-11.211
219.67	11.529
220.04	16.713
220.40	31.603
220.77	39.539
221.13	46.538
221.50	42.797
221.87	37.828
222.23	41.556
222.60	41.530
222.97	33.496
223.33	29.435
223.70	9.120
224.07	5.981
224.43	0.769
224.80	0.172
225.16	-3.586
225.53	-2.952
225.90	-1.005
226.26	-0.666
226.63	-3.048
226.99	-3.057
227.36	-1.180
227.73	2.118
228.09	2.843
228.46	4.104
228.82	2.955
229.19	4.254
229.56	2.121
229.92	1.608
230.29	1.826
230.65	4.713
231.02	5.823
231.38	5.628
231.75	4.832
232.12	4.878
232.48	3.261
232.85	5.843
233.21	5.072
233.58	8.735
233.94	9.887
234.31	9.371
234.68	6.695
235.04	8.368
235.41	8.509
235.77	7.774
236.14	7.316
236.50	9.587
236.87	8.951
237.23	9.087
237.60	6.274
237.96	4.392
238.33	4.441
238.69	5.337
239.06	3.205
239.42	2.726
239.79	3.725
240.15	4.289
240.52	3.580
240.88	3.047
241.25	2.087
241.61	1.947
241.98	2.670
242.34	2.639
242.71	2.347
243.07	3.472
243.44	4.001
243.80	3.911
244.17	3.177
244.53	2.904
244.90	3.339
245.26	3.839
245.63	4.340
245.99	4.350
246.36	4.218
246.72	4.011
247.09	3.625
247.45	3.833
247.81	3.685
248.18	4.257
248.54	4.486
248.91	4.370
249.27	4.009
249.64	4.355
250.00	4.153
250.36	4.597
250.73	4.697
251.09	4.386
251.46	3.899
251.82	4.273
252.19	3.893
252.55	4.160
252.91	4.545
253.28	4.665
253.64	3.713
254.01	3.423
254.37	3.379
254.73	3.763
255.10	3.923
255.46	3.665
255.83	3.437
256.19	3.516
256.55	3.704
256.92	3.598
257.28	3.818
257.65	4.100
258.01	4.228
258.37	4.173
258.74	4.281
259.10	4.564
259.46	4.796
259.83	5.000
260.19	5.153
260.55	4.898
260.92	5.005
261.28	4.800
261.64	4.663
262.01	4.435
262.37	4.200
262.73	4.079
263.10	3.708
263.46	3.685
263.82	3.193
264.19	2.868
264.55	2.936
264.91	2.965
265.28	3.486
265.64	3.540
266.00	4.037
266.37	4.402
266.73	4.393
267.09	4.291
267.46	3.831
267.82	4.018
268.18	4.088
268.54	4.101
268.91	4.450
269.27	4.019
269.63	3.929
270.00	3.887
270.36	3.861
270.72	3.732
271.08	3.920
271.45	4.301
271.81	4.364
272.17	4.684
272.53	4.798
272.90	4.510
273.26	4.498
273.62	4.557
273.98	4.527
274.35	4.390
274.71	4.362
275.07	4.373
275.43	4.374
275.80	4.262
276.16	4.049
276.52	3.882
276.88	3.725
277.25	3.834
277.61	3.807
277.97	3.675
278.33	3.767
278.69	4.045
279.06	4.027
279.42	3.784
279.78	3.753
280.14	3.673
280.50	3.791
280.87	3.810
281.23	4.002
281.59	4.069
281.95	4.100
282.31	3.922
282.68	3.722
283.04	3.562
283.40	3.478
283.76	3.411
284.12	3.394
284.48	3.134
284.85	3.113
285.21	3.085
285.57	3.107
285.93	3.254
286.29	3.260
286.65	3.286
287.02	3.390
287.38	3.488
287.74	3.546
288.10	3.525
288.46	3.683
288.82	3.672
289.18	3.360
289.54	3.387
289.91	3.169
290.27	3.509
290.63	3.787
290.99	3.839
291.35	3.959
291.71	3.961
292.07	3.949
292.43	4.062
292.79	4.157
293.16	4.522
293.52	4.570
293.88	4.663
294.24	4.364
294.60	4.254
294.96	4.159
295.32	4.091
295.68	4.032
296.04	4.128
296.40	4.067
296.76	4.016
297.12	3.902
297.49	3.853
297.85	3.944
298.21	4.072
298.57	4.037
298.93	4.205
299.29	4.304
299.65	4.617
300.01	4.610
300.37	4.815
300.73	4.872
301.09	4.985
301.45	4.968
301.81	4.958
302.17	5.027
302.53	4.906
302.89	4.809
303.25	4.852
303.61	4.652
303.97	4.835
304.33	4.925
304.69	5.193
305.05	5.263
305.41	5.357
305.77	5.319
306.13	5.359
306.49	5.553
306.85	5.546
307.21	5.359
307.57	5.290
307.93	5.172
308.29	5.007
308.65	4.672
309.01	4.632
309.37	4.546
309.73	4.621
310.09	4.598
310.45	4.611
310.81	4.726
311.17	4.760
311.53	4.859
311.89	4.905
312.25	4.958
312.61	5.229
312.96	5.304
313.32	5.440
313.68	5.362
314.04	5.353
314.40	5.268
314.76	5.325
315.12	5.476
315.48	5.607
315.84	5.559
316.20	5.523
316.56	5.537
316.92	5.453
317.27	5.488
317.63	5.577
317.99	5.626
318.35	5.737
318.71	5.788
319.07	5.913
319.43	5.749
319.79	5.725
320.15	5.887
320.50	5.974
320.86	6.112
321.22	6.237
321.58	6.162
321.94	6.183
322.30	6.426
322.66	6.391
323.01	6.348
323.37	6.686
323.73	6.777
324.09	7.015
324.45	7.087
324.81	7.206
325.17	7.288
325.52	7.590
325.88	7.757
326.24	7.571
326.60	7.751
326.96	7.929
327.31	7.769
327.67	8.025
328.03	7.909
328.39	7.929
328.75	8.032
329.11	8.022
329.46	8.030
329.82	7.998
330.18	8.278
330.54	8.259
330.90	8.234
331.25	8.388
331.61	8.442
331.97	8.507
332.33	8.575
332.68	8.604
333.04	8.671
333.40	8.567
333.76	8.633
334.11	8.574
334.47	8.705
334.83	8.788
335.19	8.805
335.54	8.700
335.90	8.752
336.26	8.783
336.62	8.748
336.97	8.713
337.33	8.828
337.69	8.836
338.05	8.954
338.40	8.958
338.76	8.994
339.12	8.981
339.48	9.004
339.83	9.006
340.19	8.902
340.55	8.921
340.90	8.875
341.26	8.842
341.62	8.792
341.97	8.775
342.33	8.700
342.69	8.736
343.04	8.709
343.40	8.801
343.76	8.766
344.12	8.886
344.47	8.871
344.83	8.963
345.19	8.981
345.54	9.112
345.90	9.027
346.26	8.945
346.61	8.809
346.97	8.910
347.32	8.808
347.68	8.783
348.04	8.673
348.39	8.649
348.75	8.591
349.11	8.573
349.46	8.490
349.82	8.499
350.18	8.586
350.53	8.717
350.89	8.627
351.24	8.658
351.60	8.680
351.96	8.756
352.31	8.716
352.67	8.685
353.02	8.713
353.38	8.768
353.74	8.867
354.09	8.825
354.45	8.727
354.80	8.743
355.16	8.780
355.52	8.764
355.87	8.742
356.23	8.807
356.58	8.858
356.94	8.918
357.29	8.836
357.65	8.722
358.00	8.763
358.36	8.818
358.72	8.855
359.07	8.816
359.43	8.846
359.78	8.898
360.14	8.894
360.49	8.922
360.85	8.877
361.20	8.926
361.56	8.943
361.91	8.983
362.27	8.940
362.62	9.003
362.98	9.057
363.33	9.121
363.69	9.208
364.04	9.278
364.40	9.293
364.75	9.317
365.11	9.329
365.46	9.314
365.82	9.280
366.17	9.351
366.53	9.257
366.88	9.311
367.24	9.305
367.59	9.265
367.95	9.272
368.30	9.287
368.66	9.377
369.01	9.473
369.37	9.562
369.72	9.621
370.08	9.645
370.43	9.773
370.78	9.769
371.14	9.772
371.49	9.764
371.85	9.804
372.20	9.878
372.56	9.938
372.91	9.958
373.26	10.102
373.62	10.170
373.97	10.250
374.33	10.354
374.68	10.435
375.03	10.571
375.39	10.666
375.74	10.749
376.10	10.899
376.45	10.975
376.80	11.050
377.16	11.026
377.51	11.098
377.87	11.223
378.22	11.281
378.57	11.402
378.93	11.470
379.28	11.538
379.63	11.639
379.99	11.694
380.34	11.758
380.70	11.886
381.05	12.034
381.40	12.126
381.76	12.193
382.11	12.281
382.46	12.352
382.82	12.459
383.17	12.634
383.52	12.779
383.88	12.879
384.23	13.019
384.58	13.155
384.94	13.297
385.29	13.459
385.64	13.566
385.99	13.740
386.35	13.906
386.70	14.058
387.05	14.153
387.41	14.243
387.76	14.371
388.11	14.449
388.47	14.545
388.82	14.651
389.17	14.748
389.52	14.909
389.88	14.994
390.23	15.064
390.58	15.132
390.93	15.280
391.29	15.410
391.64	15.518
391.99	15.628
392.34	15.758
392.70	15.858
393.05	15.972
393.40	16.062
393.75	16.169
394.11	16.276
394.46	16.349
394.81	16.425
395.16	16.526
395.52	16.618
395.87	16.720
396.22	16.830
396.57	16.887
396.92	16.947
397.28	17.027
397.63	17.101
397.98	17.203
398.33	17.370
398.68	17.457
399.04	17.492
399.39	17.526
399.74	17.604
400.09	17.626
400.44	17.712
400.80	17.815
401.15	17.881
401.50	17.926
401.85	17.960
402.20	17.963
402.55	17.987
402.90	18.085
403.26	18.166
403.61	18.238
403.96	18.279
404.31	18.389
404.66	18.426
405.01	18.438
405.36	18.530
405.72	18.601
406.07	18.696
406.42	18.803
406.77	18.870
407.12	18.944
407.47	18.972
407.82	19.030
408.17	19.015
408.53	19.079
408.88	19.188
409.23	19.193
409.58	19.224
409.93	19.252
410.28	19.264
410.63	19.237
410.98	19.250
411.33	19.314
411.68	19.405
412.03	19.463
412.38	19.470
412.73	19.458
413.09	19.470
413.44	19.481
413.79	19.491
414.14	19.487
414.49	19.466
414.84	19.480
415.19	19.426
415.54	19.386
415.89	19.337
416.24	19.346
416.59	19.322
416.94	19.303
417.29	19.282
417.64	19.291
417.99	19.311
418.34	19.335
418.69	19.306
419.04	19.304
419.39	19.303
419.74	19.318
420.09	19.332
420.44	19.343
420.79	19.360
421.14	19.386
421.49	19.404
421.84	19.407
422.19	19.420
422.54	19.485
422.89	19.550
423.24	19.578
423.59	19.654
423.94	19.701
424.29	19.776
424.64	19.879
424.99	19.984
425.34	20.050
425.68	20.144
426.03	20.259
426.38	20.322
426.73	20.399
427.08	20.496
427.43	20.561
427.78	20.565
428.13	20.608
428.48	20.604
428.83	20.594
429.18	20.616
429.53	20.617
429.87	20.636
430.22	20.613
430.57	20.623
430.92	20.614
431.27	20.595
431.62	20.613
431.97	20.620
432.32	20.644
432.67	20.668
433.01	20.704
433.36	20.736
433.71	20.747
434.06	20.813
434.41	20.821
434.76	20.852
435.11	20.894
435.45	20.918
435.80	20.922
436.15	20.916
436.50	20.915
436.85	20.900
437.20	20.890
437.54	20.885
437.89	20.875
438.24	20.904
438.59	20.924
438.94	20.939
439.29	20.987
439.63	21.005
439.98	21.033
440.33	21.076
440.68	21.126
441.03	21.156
441.37	21.172
441.72	21.181
442.07	21.198
442.42	21.222
442.76	21.226
443.11	21.201
443.46	21.221
443.81	21.233
444.16	21.244
444.50	21.225
444.85	21.255
445.20	21.309
445.55	21.347
445.89	21.357
446.24	21.396
446.59	21.436
446.94	21.502
447.28	21.566
447.63	21.636
447.98	21.697
448.32	21.784
448.67	21.837
449.02	21.865
449.37	21.924
449.71	21.991
450.06	22.012
450.41	22.040
450.75	22.058
451.10	22.051
451.45	22.084
451.79	22.105
452.14	22.135
452.49	22.146
452.84	22.147
453.18	22.177
453.53	22.187
453.88	22.215
454.22	22.247
454.57	22.234
454.92	22.275
455.26	22.267
455.61	22.255
455.95	22.230
456.30	22.230
456.65	22.265
456.99	22.259
457.34	22.260
457.69	22.264
458.03	22.269
458.38	22.336
458.73	22.374
459.07	22.428
459.42	22.516
459.76	22.594
460.11	22.674
460.46	22.734
460.80	22.799
461.15	22.892
461.49	22.982
461.84	23.080
462.19	23.135
462.53	23.187
462.88	23.236
463.22	23.249
463.57	23.316
463.91	23.373
464.26	23.426
464.61	23.476
464.95	23.553
465.30	23.611
465.64	23.650
465.99	23.715
466.33	23.762
466.68	23.777
467.02	23.850
467.37	23.892
467.71	23.922
468.06	23.944
468.41	24.003
468.75	24.012
469.10	24.064
469.44	24.111
469.79	24.113
470.13	24.165
470.48	24.252
470.82	24.274
471.17	24.292
471.51	24.344
471.86	24.394
472.20	24.407
472.55	24.443
472.89	24.428
473.23	24.406
473.58	24.447
473.92	24.452
474.27	24.465
474.61	24.460
474.96	24.451
475.30	24.469
475.65	24.502
475.99	24.515
476.34	24.531
476.68	24.569
477.02	24.622
477.37	24.662
477.71	24.678
478.06	24.691
478.40	24.738
478.75	24.868
479.09	24.989
479.43	25.109
479.78	25.283
480.12	25.480
480.47	25.696
480.81	25.939
481.15	26.176
481.50	26.464
481.84	26.807
482.19	27.154
482.53	27.394
482.87	27.467
483.22	27.344
483.56	27.047
483.90	26.737
484.25	26.512
484.59	26.369
484.94	26.203
485.28	25.972
485.62	25.664
485.97	25.330
486.31	25.077
486.65	24.996
487.00	25.148
487.34	25.504
487.68	25.844
488.03	26.063
488.37	26.109
488.71	26.162
489.06	26.210
489.40	26.263
489.74	26.307
490.09	26.340
490.43	26.372
490.77	26.401
491.11	26.417
491.46	26.452
491.80	26.480
492.14	26.527
492.49	26.550
492.83	26.597
493.17	26.635
493.51	26.677
493.86	26.748
494.20	26.826
494.54	26.873
494.88	26.922
495.23	26.983
495.57	27.036
495.91	27.105
496.25	27.179
496.60	27.230
496.94	27.300
497.28	27.371
497.62	27.425
497.97	27.500
498.31	27.606
498.65	27.686
498.99	27.776
499.33	27.865
499.68	27.933
500.02	28.015
500.36	28.093
500.70	28.143
501.04	28.228
501.39	28.305
501.73	28.354
502.07	28.393
502.41	28.467
502.75	28.498
503.09	28.534
503.44	28.614
503.78	28.648
504.12	28.723
504.46	28.807
504.80	28.862
505.14	28.915
505.49	28.971
505.83	29.035
506.17	29.076
506.51	29.154
506.85	29.219
507.19	29.273
507.53	29.353
507.87	29.430
508.22	29.491
508.56	29.550
508.90	29.629
509.24	29.696
509.58	29.767
509.92	29.847
510.26	29.921
510.60	30.006
510.94	30.071
511.28	30.132
511.63	30.199
511.97	30.263
512.31	30.344
512.65	30.428
512.99	30.484
513.33	30.546
513.67	30.602
514.01	30.659
514.35	30.722
514.69	30.761
515.03	30.836
515.37	30.871
515.71	30.925
516.05	30.973
516.39	31.005
516.73	31.058
517.07	31.122
517.41	31.184
517.75	31.246
518.09	31.300
518.43	31.385
518.77	31.443
519.11	31.498
519.45	31.511
519.79	31.570
520.13	31.616
520.47	31.703
520.81	31.750
521.15	31.805
521.49	31.839
521.83	31.857
522.17	31.923
522.51	31.963
522.85	32.033
523.19	32.172
523.53	32.247
523.87	32.403
524.21	32.545
524.55	32.708
524.89	32.864
525.23	33.033
525.57	33.195
525.91	33.296
526.25	33.426
526.58	33.545
526.92	33.647
527.26	33.758
527.60	33.801
527.94	33.829
528.28	33.845
528.62	33.838
528.96	33.824
529.30	33.787
529.64	33.785
529.97	33.759
530.31	33.724
530.65	33.710
530.99	33.679
531.33	33.680
531.67	33.700
532.01	33.739
532.35	33.782
532.68	33.825
533.02	33.874
533.36	33.892
533.70	33.927
534.04	33.964
534.38	33.980
534.71	34.013
535.05	34.063
535.39	34.095
535.73	34.119
536.07	34.139
536.41	34.172
536.74	34.248
537.08	34.318
537.42	34.404
537.76	34.497
538.10	34.572
538.43	34.666
538.77	34.733
539.11	34.820
539.45	34.894
539.79	34.981
540.12	35.029
540.46	35.053
540.80	35.091
541.14	35.120
541.47	35.154
541.81	35.190
542.15	35.214
542.49	35.249
542.82	35.267
543.16	35.285
543.50	35.336
543.84	35.356
544.17	35.426
544.51	35.495
544.85	35.546
545.18	35.592
545.52	35.649
545.86	35.733
546.20	35.801
546.53	35.898
546.87	35.975
547.21	36.021
547.54	36.146
547.88	36.231
548.22	36.316
548.55	36.361
548.89	36.440
549.23	36.514
549.56	36.542
549.90	36.630
550.24	36.685
550.57	36.735
550.91	36.823
551.25	36.885
551.58	36.917
551.92	36.967
552.26	37.094
552.59	37.184
552.93	37.278
553.27	37.351
553.60	37.422
553.94	37.486
554.27	37.578
554.61	37.651
554.95	37.734
555.28	37.803
555.62	37.864
555.95	37.893
556.29	37.926
556.63	37.999
556.96	38.064
557.30	38.138
557.63	38.190
557.97	38.268
558.31	38.337
558.64	38.380
558.98	38.463
559.31	38.534
559.65	38.597
559.98	38.657
560.32	38.720
560.65	38.792
560.99	38.802
561.33	38.819
561.66	38.835
562.00	38.845
562.33	38.879
562.67	38.908
563.00	38.955
563.34	39.008
563.67	39.025
564.01	39.046
564.34	39.110
564.68	39.187
565.01	39.292
565.35	39.390
565.68	39.447
566.02	39.507
566.35	39.598
566.69	39.675
567.02	39.702
567.36	39.821
567.69	39.858
568.03	39.880
568.36	39.918
568.69	39.992
569.03	40.025
569.36	40.100
569.70	40.199
570.03	40.271
570.37	40.300
570.70	40.391
571.04	40.444
571.37	40.508
571.70	40.601
572.04	40.660
572.37	40.728
572.71	40.828
573.04	40.902
573.37	40.933
573.71	41.012
574.04	41.137
574.38	41.255
574.71	41.398
575.04	41.570
575.38	41.698
575.71	41.866
576.05	41.961
576.38	42.085
576.71	42.213
577.05	42.396
577.38	42.502
577.71	42.608
578.05	42.698
578.38	42.750
578.71	42.805
579.05	42.871
579.38	42.927
579.71	43.009
580.05	43.078
580.38	43.171
580.71	43.236
581.05	43.316
581.38	43.422
581.71	43.504
582.05	43.565
582.38	43.637
582.71	43.727
583.04	43.833
583.38	43.921
583.71	43.961
584.04	44.031
584.38	44.096
584.71	44.168
585.04	44.240
585.37	44.332
585.71	44.414
586.04	44.477
586.37	44.553
586.70	44.585
587.04	44.691
587.37	44.776
587.70	44.824
588.03	44.860
588.37	44.882
588.70	44.969
589.03	45.016
589.36	45.108
589.69	45.218
590.03	45.274
590.36	45.387
590.69	45.410
591.02	45.500
591.35	45.548
591.69	45.637
592.02	45.760
592.35	45.774
592.68	45.830
593.01	45.817
593.35	45.867
593.68	45.910
594.01	45.900
594.34	45.914
594.67	45.945
595.00	45.994
595.34	46.031
595.67	46.105
596.00	46.163
596.33	46.231
596.66	46.407
596.99	46.464
597.32	46.637
597.65	46.779
597.99	46.954
598.32	47.066
598.65	47.190
598.98	47.310
599.31	47.381
599.64	47.474
599.97	47.589
600.30	47.583
600.63	47.645
600.96	47.666
601.30	47.694
601.63	47.676
601.96	47.714
602.29	47.785
602.62	47.883
602.95	47.943
603.28	48.023
603.61	48.056
603.94	48.120
604.27	48.211
604.60	48.261
604.93	48.399
605.26	48.580
605.59	48.716
605.92	48.812
606.25	48.899
606.58	49.018
606.91	49.101
607.24	49.216
607.57	49.338
607.90	49.440
608.23	49.572
608.56	49.590
608.89	49.663
609.22	49.774
609.55	49.896
609.88	49.982
610.21	50.118
610.54	50.286
610.87	50.408
611.20	50.534
611.53	50.638
611.86	50.745
612.19	50.936
612.52	51.023
612.85	51.122
613.18	51.257
613.51	51.362
613.84	51.458
614.17	51.538
614.49	51.618
614.82	51.760
615.15	51.826
615.48	51.879
615.81	51.974
616.14	52.074
616.47	52.138
616.80	52.166
617.13	52.243
617.46	52.267
617.78	52.303
618.11	52.437
618.44	52.489
618.77	52.574
619.10	52.680
619.43	52.738
619.76	52.791
620.09	52.856
620.41	52.956
620.74	53.048
621.07	53.152
621.40	53.263
621.73	53.281
622.06	53.324
622.38	53.404
622.71	53.397
623.04	53.467
623.37	53.495
623.70	53.550
624.02	53.505
624.35	53.542
624.68	53.579
625.01	53.605
625.34	53.633
625.66	53.729
625.99	53.789
626.32	53.917
626.65	53.952
626.98	54.076
627.30	54.173
627.63	54.371
627.96	54.438
628.29	54.542
628.61	54.601
628.94	54.713
629.27	54.781
629.60	54.850
629.92	54.880
630.25	54.982
630.58	54.980
630.91	54.985
631.23	54.999
631.56	55.079
631.89	55.132
632.21	55.214
632.54	55.280
632.87	55.365
633.19	55.403
633.52	55.488
633.85	55.519
634.18	55.607
634.50	55.688
634.83	55.768
635.16	55.879
635.48	55.916
635.81	55.983
636.14	56.056
636.46	56.098
636.79	56.234
637.11	56.312
637.44	56.421
637.77	56.507
638.09	56.636
638.42	56.683
638.75	56.719
639.07	56.871
639.40	56.973
639.73	56.979
640.05	56.974
640.38	56.962
640.70	57.014
641.03	57.046
641.36	57.082
641.68	57.022
642.01	57.129
642.33	57.150
642.66	57.108
642.98	57.161
643.31	57.184
643.64	57.301
643.96	57.329
644.29	57.386
644.61	57.417
644.94	57.418
645.26	57.469
645.59	57.436
645.91	57.436
646.24	57.444
646.56	57.391
646.89	57.474
647.22	57.461
647.54	57.487
647.87	57.502
648.19	57.448
648.52	57.540
648.84	57.574
649.17	57.570
649.49	57.646
649.82	57.672
650.14	57.681
650.47	57.700
650.79	57.717
651.11	57.723
651.44	57.729
651.76	57.851
652.09	57.838
652.41	57.849
652.74	57.899
653.06	57.763
653.39	57.820
653.71	57.884
654.04	57.875
654.36	57.859
654.68	57.892
655.01	57.885
655.33	57.876
655.66	57.805
655.98	57.801
656.30	57.782
656.63	57.858
656.95	57.835
657.28	57.839
657.60	57.846
657.92	57.844
658.25	57.872
658.57	57.860
658.90	57.798
659.22	57.854
659.54	57.860
659.87	57.917
660.19	57.945
660.51	57.949
660.84	57.939
661.16	58.069
661.48	58.142
661.81	58.163
662.13	58.202
662.45	58.349
662.78	58.428
663.10	58.469
663.42	58.511
663.75	58.556
664.07	58.622
664.39	58.691
664.72	58.596
665.04	58.559
665.36	58.588
665.69	58.605
666.01	58.594
666.33	58.570
666.65	58.596
666.98	58.597
667.30	58.663
667.62	58.702
667.94	58.721
668.27	58.720
668.59	58.796
668.91	58.881
669.23	58.949
669.56	58.969
669.88	59.062
670.20	59.093
670.52	59.102
670.85	59.104
671.17	59.224
671.49	59.262
671.81	59.267
672.13	59.265
672.46	59.245
672.78	59.254
673.10	59.264
673.42	59.124
673.74	59.126
674.07	59.119
674.39	59.038
674.71	58.932
675.03	58.847
675.35	58.844
675.67	58.755
676.00	58.759
676.32	58.676
676.64	58.608
676.96	58.684
677.28	58.622
677.60	58.564
677.92	58.600
678.25	58.592
678.57	58.689
678.89	58.777
679.21	58.852
679.53	58.766
679.85	58.845
680.17	58.887
680.49	58.846
680.81	58.895
681.13	58.984
681.46	58.991
681.78	58.946
682.10	58.924
682.42	58.893
682.74	58.915
683.06	58.934
683.38	58.885
683.70	59.017
684.02	59.140
684.34	59.194
684.66	59.211
684.98	59.216
685.30	59.315
685.62	59.356
685.94	59.318
686.26	59.315
686.58	59.384
686.90	59.371
687.22	59.337
687.54	59.273
687.86	59.254
688.18	59.191
688.50	59.246
688.82	59.240
689.14	59.264
689.46	59.318
689.78	59.242
690.10	59.246
690.42	59.321
690.74	59.207
691.06	59.165
691.38	59.156
691.70	59.201
692.02	59.016
692.34	59.010
692.66	58.863
692.98	58.832
693.30	58.909
693.62	58.933
693.94	58.838
694.26	58.798
694.57	58.914
694.89	58.817
695.21	58.817
695.53	58.788
695.85	58.629
696.17	58.525
696.49	58.439
696.81	58.402
697.13	58.323
697.44	58.279
697.76	58.349
698.08	58.232
698.40	58.218
698.72	58.136
699.04	58.145
699.36	58.199
699.67	58.274
699.99	58.348
700.31	58.340
700.63	58.326
700.95	58.382
701.27	58.337
701.58	58.256
701.90	58.392
702.22	58.437
702.54	58.606
702.86	58.549
703.17	58.580
703.49	58.599
703.81	58.590
704.13	58.633
704.45	58.632
704.76	58.520
705.08	58.480
705.40	58.348
705.72	58.301
706.03	58.183
706.35	58.258
706.67	58.159
706.99	57.960
707.30	57.974
707.62	57.891
707.94	57.896
708.26	57.899
708.57	57.875
708.89	57.800
709.21	57.671
709.53	57.542
709.84	57.491
710.16	57.523
710.48	57.478
710.79	57.346
711.11	57.313
711.43	57.188
711.74	57.113
712.06	57.170
712.38	57.249
712.69	57.215
713.01	57.349
713.33	57.163
713.64	57.005
713.96	57.037
714.28	56.982
714.59	57.050
714.91	57.087
715.23	57.189
715.54	57.095
715.86	57.021
716.17	57.077
716.49	57.056
716.81	57.256
717.12	57.370
717.44	57.382
717.76	57.504
718.07	57.235
718.39	57.182
718.70	57.021
719.02	57.059
719.33	56.946
719.65	56.905
719.97	56.641
720.28	56.490
720.60	56.549
720.91	56.571
721.23	56.300
721.54	56.368
721.86	56.330
722.17	56.221
722.49	56.241
722.81	56.393
723.12	56.422
723.44	56.468
723.75	56.522
724.07	56.336
724.38	56.212
724.70	56.205
725.01	56.166
725.33	56.183
725.64	56.215
725.96	56.203
726.27	55.976
726.59	55.895
726.90	55.753
727.22	55.582
727.53	55.422
727.84	55.420
728.16	55.463
728.47	55.409
728.79	55.219
729.10	55.026
729.42	54.831
729.73	54.756
730.05	54.569
730.36	54.526
730.67	54.350
730.99	54.379
731.30	54.224
731.62	54.195
731.93	54.089
732.24	54.035
732.56	53.996
732.87	53.882
733.19	53.792
733.50	53.751
733.81	53.712
734.13	53.837
734.44	53.848
734.76	53.871
735.07	53.516
735.38	53.431
735.70	53.306
736.01	53.423
736.32	53.554
736.64	53.673
736.95	53.416
737.26	53.567
737.58	53.306
737.89	53.117
738.20	53.028
738.52	53.158
738.83	53.033
739.14	52.951
739.45	52.766
739.77	52.523
740.08	52.200
740.39	52.223
740.71	51.783
741.02	51.741
741.33	51.761
741.64	51.604
741.96	51.498
742.27	51.457
742.58	51.399
742.90	51.312
743.21	51.280
743.52	51.359
743.83	51.376
744.14	51.261
744.46	51.157
744.77	50.964
745.08	50.802
745.39	50.711
745.71	50.745
746.02	50.625
746.33	50.688
746.64	50.695
746.95	50.629
747.27	50.679
747.58	50.671
747.89	50.665
748.20	50.612
748.51	50.531
748.82	50.419
749.14	50.240
749.45	50.132
749.76	49.787
750.07	49.697
750.38	49.475
750.69	49.233
751.01	49.364
751.32	49.165
751.63	48.974
751.94	49.035
752.25	49.003
752.56	48.752
752.87	48.754
753.18	48.702
753.49	48.476
753.81	48.425
754.12	48.509
754.43	48.391
754.74	48.366
755.05	48.269
755.36	48.222
755.67	48.318
755.98	48.582
756.29	48.775
756.60	48.942
756.91	49.098
757.22	49.281
757.53	49.378
757.84	49.372
758.15	49.595
758.46	49.738
758.77	49.870
759.09	49.944
759.40	49.900
759.71	49.990
760.02	50.070
760.33	50.046
760.64	49.939
760.95	49.788
761.26	49.672
761.57	49.562
761.88	49.442
762.18	49.436
762.49	49.322
762.80	49.303
763.11	49.106
763.42	48.954
763.73	48.790
764.04	48.667
764.35	48.415
764.66	48.278
764.97	48.134
765.28	47.956
765.59	47.695
765.90	47.350
766.21	47.105
766.52	46.798
766.83	46.489
767.14	46.335
767.44	46.116
767.75	46.101
768.06	45.994
768.37	45.810
768.68	45.812
768.99	45.589
769.30	45.500
769.61	45.328
769.91	45.101
770.22	44.929
770.53	44.577
770.84	44.455
771.15	44.264
771.46	44.247
771.77	44.006
772.07	43.817
772.38	43.657
772.69	43.484
773.00	42.984
773.31	42.953
773.61	42.837
773.92	43.025
774.23	42.869
774.54	42.578
774.85	42.367
775.15	42.210
775.46	41.946
775.77	41.578
776.08	41.522
776.39	41.783
776.69	41.803
777.00	41.854
777.31	41.578
777.62	41.480
777.92	41.810
778.23	41.425
778.54	41.333
778.85	41.638
779.15	41.920
779.46	41.876
779.77	41.675
780.07	41.532
780.38	41.436
780.69	41.335
781.00	41.238
781.30	40.973
781.61	41.071
781.92	41.170
782.22	40.881
782.53	40.797
782.84	40.811
783.14	40.868
783.45	40.556
783.76	40.620
784.06	40.828
784.37	40.882
784.68	41.010
784.98	41.294
785.29	41.421
785.60	41.616
785.90	41.779
786.21	42.123
786.51	42.315
786.82	42.485
787.13	42.257
787.43	42.056
787.74	42.207
788.04	42.243
788.35	42.173
788.66	42.113
788.96	42.225
789.27	41.870
789.57	41.678
789.88	41.405
790.19	41.400
790.49	41.608
790.80	41.650
791.10	41.555
791.41	41.399
791.71	41.118
792.02	40.975
792.32	40.823
792.63	40.630
792.93	40.339
793.24	40.202
793.54	40.080
793.85	39.897
794.15	39.833
794.46	39.692
794.76	39.661
795.07	39.773
795.37	39.668
795.68	39.411
795.98	39.534
796.29	39.473
796.59	39.277
796.90	39.315
797.20	39.248
797.51	39.037
797.81	38.979
798.12	38.855
798.42	38.960
798.72	38.975
799.03	38.877
799.33	38.997
799.64	39.043
799.94	39.358
800.25	39.185
800.55	39.243
800.85	39.610
801.16	39.538
801.46	39.527
801.77	39.447
802.07	39.544
802.37	39.843
802.68	39.741
802.98	39.458
803.28	39.292
803.59	39.541
803.89	39.237
804.20	39.128
804.50	39.079
804.80	38.778
805.11	38.497
805.41	38.440
805.71	37.905
806.02	37.480
806.32	37.380
806.62	37.381
806.93	37.393
807.23	37.624
807.53	37.941
807.83	38.191
808.14	38.279
808.44	38.598
808.74	38.709
809.05	38.915
809.35	39.196
809.65	39.561
809.95	39.718
810.26	39.369
810.56	39.611
810.86	38.889
811.16	38.629
811.47	38.747
811.77	38.772
812.07	38.822
812.37	38.820
812.68	39.452
812.98	39.782
813.28	39.858
813.58	40.204
813.88	39.753
814.19	40.461
814.49	41.033
814.79	41.566
815.09	41.522
815.39	41.290
815.70	41.545
816.00	41.056
816.30	41.049
816.60	40.820
816.90	40.443
817.20	40.849
817.50	40.458
817.81	40.100
818.11	39.676
818.41	39.636
818.71	39.525
819.01	39.511
819.31	39.453
819.61	39.387
819.92	39.490
820.22	39.620
820.52	39.570
820.82	39.714
821.12	39.696
821.42	39.718
821.72	39.699
822.02	39.795
822.32	39.808
822.62	39.867
822.92	39.848
823.22	39.801
823.52	39.794
823.83	39.766
824.13	39.661
824.43	39.680
824.73	39.714
825.03	39.698
825.33	39.685
825.63	39.476
825.93	39.353
826.23	39.376
826.53	39.402
826.83	39.393
827.13	39.327
827.43	39.207
827.73	39.051
828.03	38.935
828.33	38.928
828.63	38.649
828.93	38.812
829.23	38.823
829.53	38.711
829.83	38.528
830.13	38.238
830.42	38.136
830.72	38.036
831.02	38.180
831.32	38.071
831.62	38.005
831.92	38.046
832.22	38.012
832.52	37.816
832.82	37.894
833.12	37.851
833.42	37.771
833.72	37.749
834.01	37.643
834.31	37.463
834.61	37.598
834.91	37.499
835.21	37.314
835.51	37.125
835.81	37.076
836.11	36.624
836.40	36.581
836.70	36.089
837.00	36.289
837.30	36.387
837.60	36.674
837.90	36.501
838.19	36.438
838.49	36.726
838.79	37.164
839.09	37.288
839.39	37.419
839.68	36.742
839.98	37.060
840.28	36.657
840.58	36.524
840.88	36.437
841.17	36.020
841.47	36.465
841.77	35.916
842.07	35.396
842.36	35.304
842.66	35.033
842.96	35.992
843.26	35.521
843.55	34.888
843.85	34.457
844.15	32.969
844.45	33.166
844.74	32.574
845.04	32.579
845.34	32.740
845.63	32.833
845.93	33.274
846.23	32.949
846.53	34.168
846.82	34.350
847.12	34.254
847.42	34.238
847.71	33.841
848.01	33.224
848.31	32.956
848.60	33.069
848.90	32.655
849.19	32.201
849.49	30.613
849.79	29.806
850.08	29.864
850.38	28.792
850.68	28.540
850.97	29.383
851.27	28.493
851.56	27.772
851.86	26.640
852.16	26.982
852.45	26.729
852.75	29.181
853.04	28.208
853.34	28.443
853.64	29.306
853.93	30.529
854.23	30.223
854.52	31.307
854.82	32.406
855.11	34.488
855.41	34.423
855.70	35.395
856.00	33.575
856.30	35.347
856.59	34.460
856.89	34.493
857.18	34.356
857.48	34.667
857.77	34.692
858.07	35.411
858.36	33.795
858.66	32.512
858.95	32.086
859.25	32.947
859.54	33.202
859.84	34.078
860.13	34.048
860.42	34.310
860.72	34.728
861.01	34.924
861.31	35.555
861.60	36.123
861.90	37.067
862.19	35.407
862.49	35.043
862.78	34.233
863.07	32.899
863.37	34.276
863.66	34.728
863.96	33.997
864.25	34.709
864.54	34.157
864.84	34.009
865.13	34.209
865.43	35.356
865.72	43.860
866.01	38.325
866.31	38.679
866.60	33.438
866.89	29.530
>>>>>End Spectral Data<<<<<
