OOIBase32 Version 2.0.0.6 Data File
++++++++++++++++++++++++++++++++++++
Date: 01-22-2012, 21:10:07
User: Valued Ocean Optics Customer
Spectrometer Serial Number: USB2E2917
Spectrometer Channel: Master
Integration Time (msec): 4
Spectra Averaged: 10
Boxcar Smoothing: 5
Correct for Electrical Dark: Enabled
Time Normalized: Disabled
Dual-beam Reference: Disabled
Reference Channel: Master
Temperature: Not acquired
Spectrometer Type: S2000
ADC Type: USB2000
Number of Pixels in File: 2048
Graph Title: 
>>>>>Begin Spectral Data<<<<<
180.30	0.000
180.67	0.000
181.03	171.020
181.40	-82.492
181.77	59.914
182.14	11.882
182.51	-96.840
182.88	51.833
183.25	-5.337
183.62	449.936
183.99	1.992
184.36	62.570
184.73	35.541
185.10	3110.899
185.46	-163.230
185.83	-26.714
186.20	-19.383
186.57	133.135
186.94	110.635
187.31	-1.261
187.68	-2476.182
188.05	-434.533
188.42	-192.855
188.78	220.066
189.15	124.834
189.52	76.865
189.89	55.285
190.26	60.434
190.63	31.228
191.00	11.533
191.37	-0.525
191.73	2.102
192.10	-11.454
192.47	-21.453
192.84	-218.834
193.21	-349.853
193.58	-313.974
193.94	-261.014
194.31	-130.937
194.68	-64.733
195.05	-58.107
195.42	-61.352
195.79	-33.431
196.15	-0.071
196.52	30.727
196.89	60.261
197.26	49.720
197.63	59.745
198.00	108.451
198.36	155.628
198.73	322.713
199.10	213.555
199.47	92.434
199.84	73.771
200.20	64.849
200.57	27.819
200.94	40.348
201.31	52.806
201.68	60.694
202.04	57.479
202.41	40.553
202.78	37.494
203.15	39.207
203.51	47.399
203.88	43.281
204.25	38.248
204.62	44.874
204.98	45.859
205.35	36.223
205.72	8.480
206.09	-63.961
206.46	-29.381
206.82	-74.555
207.19	-86.937
207.56	-111.331
207.92	-143.980
208.29	-80.818
208.66	-58.155
209.03	-86.234
209.39	-42.976
209.76	-29.547
210.13	-0.714
210.50	-8.988
210.86	-14.724
211.23	-29.829
211.60	-50.177
211.96	-43.518
212.33	-100.495
212.70	5278.382
213.07	488.191
213.43	436.385
213.80	1016.497
214.17	187.741
214.53	981.118
214.90	-79.132
215.27	-28.017
215.63	-25.866
216.00	-9.948
216.37	-4.472
216.74	-3.328
217.10	-0.239
217.47	-5.081
217.84	-8.819
218.20	-7.685
218.57	-4.421
218.94	-16.158
219.30	-11.434
219.67	-9.212
220.04	-6.177
220.40	1.983
220.77	5.774
221.13	10.771
221.50	13.044
221.87	11.045
222.23	11.076
222.60	10.963
222.97	10.694
223.33	-0.394
223.70	-2.806
224.07	-5.139
224.43	-8.357
224.80	-2.036
225.16	-7.436
225.53	-6.027
225.90	-4.687
226.26	-2.207
226.63	-2.272
226.99	-2.069
227.36	1.649
227.73	3.146
228.09	2.365
228.46	3.169
228.82	1.446
229.19	4.774
229.56	4.289
229.92	5.942
230.29	4.793
230.65	5.834
231.02	5.022
231.38	4.567
231.75	3.988
232.12	4.582
232.48	2.904
232.85	4.283
233.21	4.608
233.58	6.709
233.94	6.893
234.31	8.169
234.68	8.552
235.04	11.268
235.41	10.763
235.77	8.828
236.14	10.147
236.50	12.911
236.87	11.982
237.23	10.373
237.60	7.955
237.96	5.693
238.33	4.837
238.69	4.901
239.06	3.947
239.42	3.391
239.79	3.275
240.15	2.956
240.52	2.488
240.88	2.131
241.25	1.725
241.61	1.951
241.98	2.815
242.34	2.701
242.71	2.420
243.07	2.899
243.44	3.216
243.80	3.709
244.17	3.361
244.53	3.006
244.90	3.520
245.26	3.913
245.63	4.160
245.99	4.062
246.36	4.076
246.72	3.945
247.09	3.428
247.45	3.710
247.81	3.899
248.18	4.336
248.54	4.538
248.91	4.138
249.27	3.485
249.64	3.513
250.00	3.680
250.36	4.170
250.73	4.113
251.09	3.877
251.46	3.359
251.82	3.135
252.19	2.799
252.55	2.755
252.91	3.039
253.28	3.400
253.64	2.983
254.01	2.623
254.37	2.650
254.73	2.872
255.10	3.396
255.46	3.270
255.83	3.449
256.19	3.575
256.55	3.715
256.92	3.758
257.28	3.929
257.65	4.075
258.01	3.982
258.37	3.907
258.74	3.908
259.10	4.247
259.46	4.410
259.83	4.539
260.19	4.719
260.55	4.701
260.92	4.761
261.28	4.742
261.64	4.720
262.01	4.674
262.37	4.482
262.73	4.723
263.10	4.071
263.46	4.337
263.82	3.816
264.19	3.651
264.55	3.619
264.91	3.638
265.28	3.787
265.64	3.577
266.00	3.254
266.37	3.633
266.73	3.501
267.09	3.505
267.46	3.160
267.82	3.302
268.18	3.375
268.54	3.273
268.91	3.332
269.27	3.216
269.63	3.322
270.00	3.593
270.36	3.536
270.72	3.733
271.08	3.833
271.45	3.897
271.81	4.170
272.17	4.257
272.53	4.631
272.90	4.497
273.26	4.534
273.62	4.614
273.98	5.058
274.35	4.982
274.71	4.896
275.07	5.096
275.43	5.141
275.80	4.785
276.16	4.551
276.52	4.420
276.88	4.342
277.25	3.982
277.61	3.888
277.97	3.447
278.33	3.308
278.69	3.223
279.06	3.019
279.42	3.084
279.78	3.325
280.14	3.195
280.50	3.043
280.87	3.088
281.23	3.285
281.59	3.553
281.95	3.748
282.31	3.879
282.68	4.025
283.04	3.913
283.40	3.614
283.76	3.598
284.12	3.680
284.48	3.613
284.85	3.697
285.21	3.803
285.57	3.717
285.93	3.632
286.29	3.426
286.65	3.239
287.02	3.510
287.38	3.796
287.74	3.716
288.10	3.712
288.46	3.798
288.82	3.722
289.18	3.498
289.54	3.285
289.91	3.248
290.27	3.468
290.63	3.634
290.99	3.518
291.35	3.567
291.71	3.498
292.07	3.366
292.43	3.395
292.79	3.432
293.16	3.740
293.52	3.984
293.88	4.070
294.24	3.950
294.60	3.902
294.96	3.848
295.32	3.723
295.68	3.675
296.04	3.789
296.40	3.825
296.76	3.836
297.12	3.701
297.49	3.536
297.85	3.721
298.21	3.766
298.57	3.765
298.93	3.854
299.29	3.980
299.65	4.304
300.01	4.543
300.37	4.607
300.73	4.523
301.09	4.522
301.45	4.513
301.81	4.349
302.17	4.363
302.53	4.384
302.89	4.295
303.25	4.204
303.61	3.965
303.97	3.777
304.33	3.756
304.69	4.036
305.05	4.098
305.41	4.253
305.77	4.408
306.13	4.585
306.49	4.761
306.85	4.997
307.21	4.995
307.57	4.947
307.93	4.978
308.29	5.091
308.65	4.839
309.01	4.812
309.37	4.747
309.73	4.654
310.09	4.512
310.45	4.297
310.81	4.213
311.17	4.220
311.53	4.349
311.89	4.404
312.25	4.202
312.61	4.326
312.96	4.506
313.32	4.505
313.68	4.476
314.04	4.591
314.40	4.723
314.76	4.765
315.12	4.852
315.48	4.883
315.84	4.540
316.20	4.687
316.56	4.750
316.92	4.489
317.27	4.619
317.63	4.579
317.99	4.556
318.35	4.716
318.71	4.764
319.07	4.864
319.43	4.794
319.79	5.017
320.15	5.101
320.50	5.199
320.86	5.424
321.22	5.414
321.58	5.470
321.94	5.512
322.30	5.556
322.66	5.624
323.01	5.594
323.37	5.823
323.73	5.914
324.09	6.074
324.45	6.135
324.81	6.211
325.17	6.324
325.52	6.516
325.88	6.637
326.24	6.561
326.60	6.622
326.96	6.821
327.31	6.730
327.67	6.926
328.03	6.851
328.39	6.797
328.75	6.878
329.11	6.997
329.46	7.064
329.82	7.106
330.18	7.378
330.54	7.476
330.90	7.554
331.25	7.676
331.61	7.676
331.97	7.676
332.33	7.896
332.68	8.052
333.04	8.139
333.40	8.195
333.76	8.316
334.11	8.230
334.47	8.312
334.83	8.309
335.19	8.385
335.54	8.479
335.90	8.530
336.26	8.544
336.62	8.534
336.97	8.501
337.33	8.557
337.69	8.487
338.05	8.600
338.40	8.578
338.76	8.685
339.12	8.722
339.48	8.631
339.83	8.736
340.19	8.764
340.55	8.757
340.90	8.720
341.26	8.776
341.62	8.902
341.97	8.896
342.33	8.978
342.69	9.005
343.04	9.068
343.40	9.155
343.76	9.128
344.12	9.085
344.47	9.009
344.83	9.042
345.19	8.961
345.54	8.905
345.90	8.866
346.26	8.791
346.61	8.631
346.97	8.565
347.32	8.576
347.68	8.648
348.04	8.718
348.39	8.771
348.75	8.862
349.11	8.896
349.46	8.993
349.82	8.989
350.18	9.014
350.53	9.212
350.89	9.226
351.24	9.202
351.60	9.171
351.96	9.108
352.31	9.111
352.67	9.126
353.02	9.202
353.38	9.196
353.74	9.300
354.09	9.304
354.45	9.243
354.80	9.296
355.16	9.398
355.52	9.433
355.87	9.490
356.23	9.607
356.58	9.549
356.94	9.511
357.29	9.450
357.65	9.463
358.00	9.494
358.36	9.492
358.72	9.481
359.07	9.434
359.43	9.496
359.78	9.547
360.14	9.543
360.49	9.649
360.85	9.653
361.20	9.695
361.56	9.653
361.91	9.691
362.27	9.722
362.62	9.792
362.98	9.840
363.33	9.860
363.69	9.916
364.04	9.973
364.40	9.930
364.75	9.964
365.11	10.014
365.46	10.091
365.82	10.098
366.17	10.117
366.53	10.110
366.88	10.155
367.24	10.253
367.59	10.288
367.95	10.264
368.30	10.317
368.66	10.391
369.01	10.446
369.37	10.476
369.72	10.536
370.08	10.652
370.43	10.760
370.78	10.850
371.14	10.794
371.49	10.772
371.85	10.771
372.20	10.843
372.56	10.903
372.91	10.934
373.26	11.012
373.62	11.016
373.97	11.026
374.33	11.020
374.68	11.047
375.03	11.074
375.39	11.048
375.74	11.146
376.10	11.168
376.45	11.221
376.80	11.262
377.16	11.290
377.51	11.403
377.87	11.498
378.22	11.553
378.57	11.619
378.93	11.704
379.28	11.859
379.63	11.943
379.99	12.050
380.34	12.108
380.70	12.233
381.05	12.317
381.40	12.334
381.76	12.358
382.11	12.421
382.46	12.469
382.82	12.493
383.17	12.544
383.52	12.599
383.88	12.641
384.23	12.763
384.58	12.842
384.94	12.921
385.29	13.038
385.64	13.106
385.99	13.197
386.35	13.319
386.70	13.491
387.05	13.597
387.41	13.714
387.76	13.800
388.11	13.785
388.47	13.842
388.82	13.940
389.17	14.014
389.52	14.096
389.88	14.218
390.23	14.305
390.58	14.322
390.93	14.407
391.29	14.531
391.64	14.652
391.99	14.795
392.34	14.888
392.70	14.936
393.05	15.008
393.40	15.118
393.75	15.197
394.11	15.207
394.46	15.319
394.81	15.434
395.16	15.461
395.52	15.502
395.87	15.576
396.22	15.653
396.57	15.727
396.92	15.806
397.28	15.868
397.63	15.919
397.98	16.058
398.33	16.165
398.68	16.237
399.04	16.297
399.39	16.388
399.74	16.463
400.09	16.531
400.44	16.613
400.80	16.707
401.15	16.773
401.50	16.848
401.85	16.881
402.20	16.930
402.55	16.980
402.90	17.041
403.26	17.125
403.61	17.209
403.96	17.266
404.31	17.402
404.66	17.503
405.01	17.595
405.36	17.659
405.72	17.748
406.07	17.854
406.42	17.974
406.77	18.109
407.12	18.228
407.47	18.295
407.82	18.440
408.17	18.463
408.53	18.514
408.88	18.586
409.23	18.671
409.58	18.773
409.93	18.858
410.28	18.924
410.63	18.945
410.98	18.969
411.33	19.045
411.68	19.084
412.03	19.114
412.38	19.154
412.73	19.223
413.09	19.271
413.44	19.291
413.79	19.278
414.14	19.266
414.49	19.289
414.84	19.295
415.19	19.281
415.54	19.242
415.89	19.228
416.24	19.237
416.59	19.207
416.94	19.188
417.29	19.163
417.64	19.172
417.99	19.163
418.34	19.165
418.69	19.139
419.04	19.139
419.39	19.158
419.74	19.212
420.09	19.210
420.44	19.242
420.79	19.287
421.14	19.324
421.49	19.361
421.84	19.383
422.19	19.435
422.54	19.522
422.89	19.594
423.24	19.659
423.59	19.740
423.94	19.829
424.29	19.908
424.64	19.999
424.99	20.114
425.34	20.192
425.68	20.333
426.03	20.417
426.38	20.522
426.73	20.624
427.08	20.712
427.43	20.760
427.78	20.778
428.13	20.810
428.48	20.839
428.83	20.842
429.18	20.871
429.53	20.879
429.87	20.942
430.22	20.939
430.57	20.946
430.92	20.967
431.27	20.962
431.62	21.003
431.97	21.029
432.32	21.062
432.67	21.113
433.01	21.165
433.36	21.226
433.71	21.234
434.06	21.272
434.41	21.295
434.76	21.340
435.11	21.396
435.45	21.407
435.80	21.383
436.15	21.362
436.50	21.339
436.85	21.330
437.20	21.302
437.54	21.308
437.89	21.309
438.24	21.319
438.59	21.306
438.94	21.310
439.29	21.325
439.63	21.338
439.98	21.342
440.33	21.378
440.68	21.407
441.03	21.441
441.37	21.434
441.72	21.427
442.07	21.416
442.42	21.403
442.76	21.384
443.11	21.368
443.46	21.386
443.81	21.383
444.16	21.404
444.50	21.388
444.85	21.389
445.20	21.412
445.55	21.422
445.89	21.441
446.24	21.471
446.59	21.511
446.94	21.587
447.28	21.646
447.63	21.731
447.98	21.759
448.32	21.834
448.67	21.886
449.02	21.928
449.37	21.992
449.71	22.052
450.06	22.104
450.41	22.129
450.75	22.132
451.10	22.170
451.45	22.190
451.79	22.226
452.14	22.259
452.49	22.297
452.84	22.333
453.18	22.355
453.53	22.340
453.88	22.345
454.22	22.330
454.57	22.315
454.92	22.292
455.26	22.242
455.61	22.189
455.95	22.164
456.30	22.145
456.65	22.116
456.99	22.114
457.34	22.167
457.69	22.193
458.03	22.237
458.38	22.300
458.73	22.359
459.07	22.441
459.42	22.528
459.76	22.589
460.11	22.679
460.46	22.797
460.80	22.879
461.15	22.967
461.49	23.022
461.84	23.120
462.19	23.199
462.53	23.257
462.88	23.331
463.22	23.429
463.57	23.514
463.91	23.594
464.26	23.669
464.61	23.739
464.95	23.806
465.30	23.904
465.64	23.967
465.99	24.026
466.33	24.061
466.68	24.108
467.02	24.104
467.37	24.133
467.71	24.143
468.06	24.148
468.41	24.179
468.75	24.191
469.10	24.209
469.44	24.224
469.79	24.227
470.13	24.314
470.48	24.369
470.82	24.440
471.17	24.490
471.51	24.520
471.86	24.573
472.20	24.592
472.55	24.589
472.89	24.596
473.23	24.568
473.58	24.579
473.92	24.511
474.27	24.493
474.61	24.447
474.96	24.409
475.30	24.388
475.65	24.339
475.99	24.327
476.34	24.333
476.68	24.315
477.02	24.351
477.37	24.350
477.71	24.350
478.06	24.320
478.40	24.301
478.75	24.369
479.09	24.438
479.43	24.520
479.78	24.662
480.12	24.811
480.47	25.019
480.81	25.202
481.15	25.427
481.50	25.670
481.84	25.993
482.19	26.327
482.53	26.538
482.87	26.605
483.22	26.477
483.56	26.153
483.90	25.817
484.25	25.547
484.59	25.413
484.94	25.239
485.28	25.021
485.62	24.705
485.97	24.369
486.31	24.116
486.65	24.037
487.00	24.181
487.34	24.528
487.68	24.890
488.03	25.132
488.37	25.185
488.71	25.240
489.06	25.309
489.40	25.361
489.74	25.419
490.09	25.495
490.43	25.558
490.77	25.611
491.11	25.662
491.46	25.740
491.80	25.796
492.14	25.878
492.49	25.958
492.83	26.038
493.17	26.134
493.51	26.227
493.86	26.338
494.20	26.427
494.54	26.503
494.88	26.612
495.23	26.685
495.57	26.804
495.91	26.914
496.25	26.975
496.60	27.060
496.94	27.192
497.28	27.314
497.62	27.417
497.97	27.533
498.31	27.704
498.65	27.833
498.99	27.991
499.33	28.139
499.68	28.264
500.02	28.469
500.36	28.631
500.70	28.749
501.04	28.902
501.39	29.027
501.73	29.147
502.07	29.256
502.41	29.407
502.75	29.520
503.09	29.627
503.44	29.748
503.78	29.847
504.12	29.957
504.46	30.087
504.80	30.191
505.14	30.275
505.49	30.401
505.83	30.514
506.17	30.599
506.51	30.710
506.85	30.823
507.19	30.957
507.53	31.059
507.87	31.196
508.22	31.310
508.56	31.425
508.90	31.570
509.24	31.692
509.58	31.814
509.92	31.932
510.26	32.064
510.60	32.201
510.94	32.331
511.28	32.469
511.63	32.602
511.97	32.746
512.31	32.886
512.65	33.011
512.99	33.141
513.33	33.286
513.67	33.421
514.01	33.524
514.35	33.642
514.69	33.711
515.03	33.794
515.37	33.869
515.71	33.907
516.05	33.960
516.39	34.017
516.73	34.097
517.07	34.165
517.41	34.239
517.75	34.333
518.09	34.394
518.43	34.494
518.77	34.577
519.11	34.655
519.45	34.757
519.79	34.869
520.13	34.961
520.47	35.038
520.81	35.118
521.15	35.195
521.49	35.232
521.83	35.252
522.17	35.267
522.51	35.255
522.85	35.265
523.19	35.324
523.53	35.405
523.87	35.570
524.21	35.712
524.55	35.877
524.89	36.026
525.23	36.174
525.57	36.317
525.91	36.448
526.25	36.607
526.58	36.748
526.92	36.861
527.26	36.954
527.60	36.986
527.94	37.008
528.28	36.987
528.62	36.962
528.96	36.943
529.30	36.928
529.64	36.905
529.97	36.834
530.31	36.776
530.65	36.723
530.99	36.678
531.33	36.674
531.67	36.671
532.01	36.693
532.35	36.738
532.68	36.786
533.02	36.793
533.36	36.795
533.70	36.847
534.04	36.876
534.38	36.905
534.71	36.938
535.05	36.944
535.39	36.934
535.73	36.942
536.07	36.925
536.41	36.930
536.74	36.954
537.08	37.015
537.42	37.049
537.76	37.094
538.10	37.120
538.43	37.161
538.77	37.205
539.11	37.287
539.45	37.345
539.79	37.370
540.12	37.384
540.46	37.413
540.80	37.392
541.14	37.404
541.47	37.383
541.81	37.383
542.15	37.364
542.49	37.379
542.82	37.348
543.16	37.340
543.50	37.359
543.84	37.350
544.17	37.351
544.51	37.404
544.85	37.440
545.18	37.482
545.52	37.549
545.86	37.595
546.20	37.613
546.53	37.677
546.87	37.722
547.21	37.799
547.54	37.890
547.88	37.975
548.22	38.023
548.55	38.029
548.89	38.086
549.23	38.127
549.56	38.163
549.90	38.165
550.24	38.162
550.57	38.160
550.91	38.142
551.25	38.146
551.58	38.123
551.92	38.138
552.26	38.200
552.59	38.226
552.93	38.236
553.27	38.247
553.60	38.266
553.94	38.299
554.27	38.343
554.61	38.364
554.95	38.381
555.28	38.405
555.62	38.388
555.95	38.393
556.29	38.415
556.63	38.372
556.96	38.369
557.30	38.374
557.63	38.355
557.97	38.320
558.31	38.298
558.64	38.308
558.98	38.294
559.31	38.294
559.65	38.231
559.98	38.144
560.32	38.122
560.65	38.102
560.99	38.058
561.33	38.000
561.66	37.918
562.00	37.865
562.33	37.821
562.67	37.757
563.00	37.702
563.34	37.676
563.67	37.677
564.01	37.634
564.34	37.599
564.68	37.582
565.01	37.586
565.35	37.611
565.68	37.635
566.02	37.545
566.35	37.565
566.69	37.554
567.02	37.513
567.36	37.488
567.69	37.472
568.03	37.411
568.36	37.391
568.69	37.363
569.03	37.317
569.36	37.216
569.70	37.230
570.03	37.165
570.37	37.114
570.70	37.086
571.04	37.039
571.37	36.997
571.70	37.018
572.04	36.982
572.37	36.970
572.71	36.958
573.04	37.008
573.37	37.001
573.71	36.991
574.04	37.050
574.38	37.089
574.71	37.117
575.04	37.177
575.38	37.183
575.71	37.206
576.05	37.207
576.38	37.230
576.71	37.228
577.05	37.257
577.38	37.263
577.71	37.209
578.05	37.187
578.38	37.166
578.71	37.134
579.05	37.104
579.38	37.082
579.71	37.059
580.05	37.047
580.38	37.009
580.71	36.972
581.05	37.014
581.38	37.008
581.71	36.992
582.05	36.964
582.38	36.926
582.71	36.899
583.04	36.875
583.38	36.823
583.71	36.744
584.04	36.728
584.38	36.660
584.71	36.535
585.04	36.484
585.37	36.419
585.71	36.374
586.04	36.319
586.37	36.261
586.70	36.233
587.04	36.207
587.37	36.158
587.70	36.039
588.03	35.962
588.37	35.919
588.70	35.847
589.03	35.774
589.36	35.669
589.69	35.630
590.03	35.529
590.36	35.414
590.69	35.323
591.02	35.289
591.35	35.261
591.69	35.174
592.02	35.034
592.35	34.926
592.68	34.841
593.01	34.737
593.35	34.592
593.68	34.496
594.01	34.372
594.34	34.270
594.67	34.147
595.00	34.033
595.34	33.955
595.67	33.958
596.00	33.902
596.33	33.869
596.66	33.873
596.99	33.855
597.32	33.851
597.65	33.831
597.99	33.751
598.32	33.680
598.65	33.635
598.98	33.556
599.31	33.433
599.64	33.333
599.97	33.225
600.30	33.101
600.63	32.984
600.96	32.882
601.30	32.785
601.63	32.741
601.96	32.681
602.29	32.590
602.62	32.547
602.95	32.508
603.28	32.459
603.61	32.366
603.94	32.307
604.27	32.316
604.60	32.284
604.93	32.264
605.26	32.189
605.59	32.131
605.92	32.099
606.25	32.077
606.58	32.001
606.91	31.939
607.24	31.899
607.57	31.855
607.90	31.767
608.23	31.688
608.56	31.623
608.89	31.606
609.22	31.563
609.55	31.561
609.88	31.509
610.21	31.513
610.54	31.514
610.87	31.509
611.20	31.506
611.53	31.441
611.86	31.423
612.19	31.409
612.52	31.353
612.85	31.341
613.18	31.270
613.51	31.179
613.84	31.116
614.17	31.058
614.49	30.945
614.82	30.877
615.15	30.870
615.48	30.780
615.81	30.724
616.14	30.702
616.47	30.575
616.80	30.503
617.13	30.440
617.46	30.359
617.78	30.248
618.11	30.228
618.44	30.161
618.77	30.056
619.10	29.998
619.43	29.906
619.76	29.811
620.09	29.728
620.41	29.645
620.74	29.616
621.07	29.502
621.40	29.425
621.73	29.293
622.06	29.185
622.38	29.119
622.71	29.013
623.04	28.854
623.37	28.780
623.70	28.725
624.02	28.617
624.35	28.520
624.68	28.512
625.01	28.432
625.34	28.403
625.66	28.330
625.99	28.239
626.32	28.213
626.65	28.259
626.98	28.180
627.30	28.150
627.63	28.104
627.96	28.031
628.29	27.969
628.61	27.935
628.94	27.857
629.27	27.838
629.60	27.757
629.92	27.694
630.25	27.568
630.58	27.510
630.91	27.451
631.23	27.380
631.56	27.279
631.89	27.163
632.21	27.113
632.54	27.068
632.87	26.959
633.19	26.916
633.52	26.806
633.85	26.747
634.18	26.671
634.50	26.585
634.83	26.517
635.16	26.491
635.48	26.420
635.81	26.367
636.14	26.313
636.46	26.264
636.79	26.208
637.11	26.183
637.44	26.151
637.77	26.141
638.09	26.081
638.42	26.053
638.75	25.955
639.07	25.923
639.40	25.837
639.73	25.754
640.05	25.678
640.38	25.633
640.70	25.578
641.03	25.500
641.36	25.401
641.68	25.349
642.01	25.310
642.33	25.339
642.66	25.266
642.98	25.254
643.31	25.210
643.64	25.240
643.96	25.168
644.29	25.085
644.61	25.065
644.94	25.006
645.26	24.978
645.59	24.915
645.91	24.845
646.24	24.831
646.56	24.715
646.89	24.666
647.22	24.549
647.54	24.494
647.87	24.489
648.19	24.399
648.52	24.369
648.84	24.279
649.17	24.222
649.49	24.135
649.82	24.044
650.14	24.001
650.47	23.927
650.79	23.921
651.11	23.886
651.44	23.778
651.76	23.754
652.09	23.716
652.41	23.672
652.74	23.595
653.06	23.491
653.39	23.407
653.71	23.358
654.04	23.328
654.36	23.189
654.68	23.131
655.01	23.071
655.33	23.032
655.66	22.962
655.98	22.877
656.30	22.812
656.63	22.799
656.95	22.765
657.28	22.710
657.60	22.665
657.92	22.614
658.25	22.540
658.57	22.448
658.90	22.364
659.22	22.306
659.54	22.217
659.87	22.184
660.19	22.101
660.51	22.085
660.84	21.996
661.16	21.888
661.48	21.895
661.81	21.889
662.13	21.886
662.45	21.860
662.78	21.830
663.10	21.867
663.42	21.785
663.75	21.815
664.07	21.814
664.39	21.812
664.72	21.763
665.04	21.721
665.36	21.647
665.69	21.685
666.01	21.605
666.33	21.511
666.65	21.446
666.98	21.482
667.30	21.419
667.62	21.266
667.94	21.221
668.27	21.210
668.59	21.094
668.91	21.047
669.23	20.959
669.56	20.968
669.88	20.904
670.20	20.885
670.52	20.838
670.85	20.799
671.17	20.845
671.49	20.778
671.81	20.755
672.13	20.801
672.46	20.770
672.78	20.740
673.10	20.659
673.42	20.653
673.74	20.584
674.07	20.481
674.39	20.428
674.71	20.367
675.03	20.378
675.35	20.284
675.67	20.183
676.00	20.170
676.32	20.130
676.64	20.154
676.96	20.165
677.28	20.171
677.60	20.130
677.92	20.125
678.25	20.097
678.57	20.028
678.89	20.049
679.21	20.065
679.53	20.040
679.85	20.055
680.17	19.972
680.49	19.910
680.81	19.910
681.13	19.949
681.46	19.892
681.78	19.854
682.10	19.912
682.42	19.913
682.74	19.852
683.06	19.809
683.38	19.785
683.70	19.800
684.02	19.803
684.34	19.801
684.66	19.837
684.98	19.893
685.30	19.892
685.62	19.839
685.94	19.811
686.26	19.799
686.58	19.754
686.90	19.648
687.22	19.654
687.54	19.694
687.86	19.657
688.18	19.673
688.50	19.563
688.82	19.545
689.14	19.472
689.46	19.399
689.78	19.387
690.10	19.379
690.42	19.336
690.74	19.217
691.06	19.086
691.38	18.983
691.70	18.793
692.02	18.719
692.34	18.632
692.66	18.582
692.98	18.502
693.30	18.518
693.62	18.467
693.94	18.507
694.26	18.523
694.57	18.551
694.89	18.509
695.21	18.444
695.53	18.442
695.85	18.430
696.17	18.470
696.49	18.445
696.81	18.410
697.13	18.403
697.44	18.355
697.76	18.368
698.08	18.294
698.40	18.267
698.72	18.216
699.04	18.131
699.36	18.076
699.67	17.908
699.99	17.816
700.31	17.773
700.63	17.633
700.95	17.544
701.27	17.375
701.58	17.309
701.90	17.239
702.22	17.247
702.54	17.254
702.86	17.157
703.17	17.196
703.49	17.222
703.81	17.174
704.13	17.174
704.45	17.257
704.76	17.176
705.08	17.119
705.40	17.084
705.72	17.078
706.03	17.180
706.35	17.183
706.67	17.160
706.99	17.171
707.30	17.066
707.62	17.146
707.94	17.107
708.26	17.139
708.57	17.102
708.89	17.114
709.21	17.138
709.53	17.019
709.84	17.152
710.16	17.194
710.48	17.220
710.79	17.229
711.11	17.133
711.43	17.175
711.74	17.228
712.06	17.381
712.38	17.444
712.69	17.366
713.01	17.361
713.33	17.240
713.64	17.267
713.96	17.310
714.28	17.424
714.59	17.541
714.91	17.575
715.23	17.607
715.54	17.485
715.86	17.468
716.17	17.599
716.49	17.630
716.81	17.705
717.12	17.644
717.44	17.564
717.76	17.457
718.07	17.394
718.39	17.237
718.70	17.158
719.02	17.132
719.33	16.974
719.65	16.865
719.97	16.844
720.28	16.717
720.60	16.717
720.91	16.727
721.23	16.660
721.54	16.629
721.86	16.727
722.17	16.729
722.49	16.742
722.81	16.884
723.12	16.933
723.44	16.988
723.75	17.087
724.07	17.080
724.38	17.144
724.70	17.119
725.01	17.101
725.33	17.024
725.64	17.000
725.96	17.012
726.27	17.040
726.59	17.052
726.90	16.997
727.22	17.048
727.53	17.044
727.84	16.922
728.16	16.910
728.47	17.022
728.79	16.948
729.10	16.898
729.42	16.871
729.73	16.787
730.05	16.644
730.36	16.494
730.67	16.404
730.99	16.236
731.30	16.165
731.62	16.267
731.93	16.135
732.24	16.057
732.56	16.096
732.87	16.058
733.19	15.992
733.50	16.090
733.81	16.117
734.13	15.934
734.44	16.067
734.76	16.086
735.07	15.846
735.38	15.683
735.70	15.648
736.01	15.498
736.32	15.422
736.64	15.307
736.95	15.089
737.26	15.087
737.58	15.158
737.89	14.942
738.20	14.837
738.52	14.783
738.83	14.752
739.14	14.752
739.45	14.797
739.77	14.727
740.08	14.715
740.39	14.769
740.71	14.741
741.02	14.561
741.33	14.534
741.64	14.405
741.96	14.420
742.27	14.372
742.58	14.236
742.90	14.112
743.21	14.141
743.52	14.059
743.83	13.968
744.14	13.810
744.46	13.678
744.77	13.752
745.08	13.973
745.39	13.870
745.71	13.875
746.02	13.911
746.33	13.958
746.64	13.845
746.95	13.919
747.27	13.706
747.58	13.669
747.89	13.840
748.20	13.745
748.51	13.592
748.82	13.540
749.14	13.407
749.45	13.396
749.76	13.270
750.07	13.392
750.38	13.268
750.69	13.361
751.01	13.516
751.32	13.458
751.63	13.322
751.94	13.428
752.25	13.582
752.56	13.635
752.87	13.707
753.18	13.763
753.49	13.679
753.81	13.615
754.12	13.649
754.43	13.670
754.74	13.810
755.05	14.202
755.36	14.116
755.67	14.267
755.98	14.612
756.29	14.779
756.60	14.908
756.91	15.141
757.22	15.575
757.53	15.834
757.84	15.994
758.15	16.297
758.46	16.305
758.77	16.519
759.09	16.701
759.40	16.746
759.71	16.876
760.02	17.004
760.33	17.086
760.64	17.047
760.95	17.244
761.26	17.241
761.57	17.059
761.88	17.087
762.18	17.132
762.49	17.091
762.80	17.065
763.11	16.936
763.42	16.809
763.73	16.501
764.04	16.288
764.35	15.953
764.66	15.845
764.97	15.775
765.28	15.480
765.59	15.103
765.90	14.839
766.21	14.560
766.52	14.175
766.83	13.864
767.14	13.867
767.44	13.668
767.75	13.593
768.06	13.210
768.37	13.058
768.68	13.069
768.99	13.121
769.30	12.758
769.61	12.452
769.91	12.435
770.22	12.213
770.53	12.237
770.84	12.021
771.15	11.936
771.46	12.240
771.77	12.120
772.07	11.990
772.38	11.865
772.69	11.860
773.00	11.942
773.31	12.149
773.61	12.413
773.92	12.553
774.23	12.856
774.54	12.636
774.85	12.558
775.15	12.439
775.46	12.332
775.77	12.309
776.08	12.424
776.39	12.327
776.69	12.365
777.00	12.372
777.31	12.190
777.62	12.236
777.92	12.554
778.23	12.276
778.54	12.416
778.85	12.547
779.15	12.660
779.46	12.624
779.77	12.911
780.07	12.643
780.38	12.731
780.69	12.548
781.00	12.661
781.30	12.485
781.61	12.629
781.92	12.613
782.22	12.482
782.53	12.293
782.84	12.476
783.14	12.237
783.45	12.299
783.76	12.263
784.06	12.576
784.37	12.680
784.68	12.690
784.98	12.812
785.29	12.952
785.60	13.132
785.90	13.281
786.21	13.293
786.51	13.571
786.82	13.535
787.13	13.487
787.43	13.388
787.74	13.217
788.04	13.423
788.35	13.394
788.66	13.458
788.96	13.349
789.27	13.397
789.57	13.349
789.88	13.313
790.19	13.644
790.49	13.881
790.80	14.012
791.10	14.228
791.41	13.968
791.71	13.847
792.02	13.410
792.32	13.448
792.63	13.641
792.93	13.651
793.24	13.429
793.54	13.396
793.85	13.323
794.15	13.169
794.46	13.179
794.76	13.335
795.07	13.451
795.37	13.865
795.68	14.338
795.98	14.218
796.29	14.341
796.59	14.474
796.90	14.396
797.20	14.535
797.51	14.393
797.81	14.366
798.12	14.498
798.42	14.656
798.72	14.475
799.03	14.220
799.33	14.234
799.64	14.304
799.94	14.411
800.25	14.156
800.55	14.076
800.85	14.274
801.16	14.221
801.46	14.031
801.77	14.128
802.07	14.257
802.37	14.263
802.68	14.468
802.98	14.718
803.28	14.571
803.59	15.153
803.89	15.155
804.20	15.386
804.50	15.288
804.80	15.207
805.11	14.853
805.41	14.679
805.71	14.586
806.02	14.438
806.32	13.995
806.62	14.227
806.93	14.055
807.23	13.955
807.53	13.891
807.83	14.294
808.14	14.601
808.44	14.700
808.74	14.880
809.05	15.225
809.35	15.554
809.65	15.887
809.95	15.968
810.26	15.956
810.56	16.270
810.86	16.194
811.16	15.976
811.47	15.763
811.77	16.011
812.07	15.761
812.37	15.456
812.68	15.645
812.98	15.609
813.28	15.436
813.58	15.804
813.88	15.545
814.19	16.065
814.49	16.454
814.79	17.087
815.09	17.018
815.39	17.648
815.70	18.061
816.00	17.456
816.30	17.573
816.60	17.550
816.90	17.196
817.20	17.715
817.50	17.616
817.81	17.593
818.11	17.573
818.41	17.722
818.71	17.784
819.01	17.652
819.31	17.759
819.61	17.921
819.92	18.055
820.22	18.109
820.52	18.089
820.82	18.118
821.12	18.143
821.42	18.101
821.72	18.123
822.02	18.133
822.32	18.190
822.62	18.192
822.92	18.114
823.22	18.029
823.52	18.156
823.83	18.131
824.13	18.065
824.43	18.001
824.73	18.050
825.03	18.001
825.33	18.037
825.63	17.932
825.93	17.933
826.23	17.856
826.53	17.968
826.83	17.716
827.13	17.678
827.43	17.669
827.73	17.663
828.03	17.551
828.33	17.539
828.63	17.258
828.93	17.458
829.23	17.406
829.53	17.406
829.83	17.281
830.13	17.360
830.42	17.350
830.72	17.465
831.02	17.484
831.32	17.471
831.62	17.474
831.92	17.629
832.22	17.519
832.52	17.506
832.82	17.523
833.12	17.401
833.42	17.264
833.72	17.269
834.01	17.223
834.31	17.064
834.61	17.129
834.91	17.038
835.21	16.833
835.51	16.672
835.81	16.464
836.11	16.488
836.40	16.357
836.70	16.061
837.00	15.841
837.30	15.787
837.60	16.133
837.90	16.248
838.19	16.284
838.49	16.229
838.79	16.372
839.09	16.199
839.39	16.337
839.68	16.411
839.98	16.860
840.28	16.884
840.58	16.561
840.88	16.282
841.17	15.937
841.47	16.621
841.77	16.280
842.07	16.274
842.36	16.760
842.66	16.248
842.96	15.738
843.26	15.098
843.55	14.402
843.85	13.783
844.15	12.514
844.45	11.734
844.74	10.964
845.04	11.796
845.34	11.366
845.63	11.241
845.93	12.150
846.23	13.704
846.53	14.430
846.82	14.211
847.12	14.625
847.42	15.292
847.71	17.342
848.01	16.431
848.31	16.223
848.60	16.536
848.90	17.442
849.19	16.471
849.49	14.441
849.79	14.100
850.08	15.972
850.38	16.779
850.68	17.028
850.97	16.476
851.27	16.487
851.56	16.120
851.86	15.044
852.16	15.412
852.45	16.150
852.75	17.300
853.04	16.847
853.34	15.557
853.64	15.537
853.93	15.998
854.23	15.119
854.52	15.486
854.82	15.667
855.11	16.903
855.41	14.525
855.70	13.280
856.00	12.087
856.30	12.000
856.59	10.957
856.89	9.435
857.18	8.117
857.48	8.226
857.77	8.018
858.07	8.666
858.36	8.196
858.66	9.838
858.95	10.249
859.25	10.982
859.54	11.782
859.84	13.157
860.13	14.352
860.42	16.212
860.72	16.736
861.01	17.697
861.31	18.079
861.60	18.473
861.90	18.512
862.19	17.407
862.49	17.471
862.78	18.448
863.07	17.583
863.37	18.107
863.66	17.942
863.96	18.091
864.25	17.248
864.54	17.532
864.84	16.526
865.13	16.157
865.43	16.448
865.72	17.773
866.01	22.864
866.31	6.999
866.60	13.313
866.89	2.972
>>>>>End Spectral Data<<<<<
