OOIBase32 Version 2.0.0.6 Data File
++++++++++++++++++++++++++++++++++++
Date: 01-22-2012, 21:08:43
User: Valued Ocean Optics Customer
Spectrometer Serial Number: USB2E2917
Spectrometer Channel: Master
Integration Time (msec): 4
Spectra Averaged: 10
Boxcar Smoothing: 5
Correct for Electrical Dark: Enabled
Time Normalized: Disabled
Dual-beam Reference: Disabled
Reference Channel: Master
Temperature: Not acquired
Spectrometer Type: S2000
ADC Type: USB2000
Number of Pixels in File: 2048
Graph Title: 
>>>>>Begin Spectral Data<<<<<
180.30	0.000
180.67	0.000
181.03	-41.698
181.40	32.124
181.77	-119.725
182.14	-62.246
182.51	735.875
182.88	248.292
183.25	-43.907
183.62	-233.998
183.99	82.511
184.36	130.909
184.73	78.726
185.10	792.743
185.46	26.225
185.83	34.914
186.20	38.719
186.57	53.939
186.94	97.369
187.31	78.394
187.68	1114.678
188.05	317.077
188.42	178.286
188.78	71.922
189.15	116.767
189.52	108.045
189.89	92.593
190.26	66.146
190.63	86.827
191.00	80.461
191.37	55.438
191.73	72.240
192.10	78.876
192.47	28.628
192.84	-106.993
193.21	-245.207
193.58	-233.217
193.94	-169.320
194.31	-3.846
194.68	5.528
195.05	2.986
195.42	-23.347
195.79	-6.559
196.15	23.353
196.52	40.110
196.89	21.019
197.26	-14.896
197.63	-35.587
198.00	-30.971
198.36	-57.411
198.73	-123.322
199.10	-73.123
199.47	20.377
199.84	10.539
200.20	-1.800
200.57	5.604
200.94	36.523
201.31	42.778
201.68	41.187
202.04	34.749
202.41	16.190
202.78	26.277
203.15	29.439
203.51	17.018
203.88	28.187
204.25	12.373
204.62	4.519
204.98	13.016
205.35	11.727
205.72	-1.930
206.09	-49.622
206.46	-32.463
206.82	-71.028
207.19	-76.121
207.56	-96.690
207.92	-166.917
208.29	-102.315
208.66	-79.240
209.03	-116.547
209.39	-74.362
209.76	-40.057
210.13	-3.097
210.50	-1.141
210.86	-19.027
211.23	-46.581
211.60	-37.310
211.96	-36.918
212.33	-88.018
212.70	3516.038
213.07	255.921
213.43	205.168
213.80	1065.768
214.17	268.631
214.53	1479.763
214.90	-159.734
215.27	-50.231
215.63	-100.878
216.00	-35.447
216.37	-2.257
216.74	2.806
217.10	2.769
217.47	0.303
217.84	0.583
218.20	3.455
218.57	20.998
218.94	11.029
219.30	12.832
219.67	26.789
220.04	24.474
220.40	19.821
220.77	14.510
221.13	12.748
221.50	9.925
221.87	10.397
222.23	18.611
222.60	8.404
222.97	6.560
223.33	-6.936
223.70	-13.876
224.07	-13.131
224.43	-11.581
224.80	-4.369
225.16	-4.351
225.53	-4.973
225.90	-0.607
226.26	-2.533
226.63	-1.197
226.99	-1.149
227.36	-0.216
227.73	-0.239
228.09	-0.460
228.46	1.065
228.82	-0.623
229.19	0.121
229.56	-0.016
229.92	-0.773
230.29	1.257
230.65	1.244
231.02	0.554
231.38	2.084
231.75	2.997
232.12	3.101
232.48	2.395
232.85	4.542
233.21	3.568
233.58	6.147
233.94	6.704
234.31	5.694
234.68	4.573
235.04	5.436
235.41	5.141
235.77	3.459
236.14	3.961
236.50	4.226
236.87	5.143
237.23	6.724
237.60	4.475
237.96	3.328
238.33	2.147
238.69	2.833
239.06	2.481
239.42	2.141
239.79	3.151
240.15	3.461
240.52	3.416
240.88	2.038
241.25	1.001
241.61	1.106
241.98	1.815
242.34	2.240
242.71	1.782
243.07	1.866
243.44	2.347
243.80	2.136
244.17	1.786
244.53	1.773
244.90	2.297
245.26	2.821
245.63	3.173
245.99	2.846
246.36	2.797
246.72	3.051
247.09	3.292
247.45	3.201
247.81	3.365
248.18	3.769
248.54	3.920
248.91	3.787
249.27	3.264
249.64	3.548
250.00	4.025
250.36	3.929
250.73	4.116
251.09	3.836
251.46	3.697
251.82	4.346
252.19	3.827
252.55	3.997
252.91	4.110
253.28	4.095
253.64	3.767
254.01	2.977
254.37	3.163
254.73	3.053
255.10	3.632
255.46	3.818
255.83	3.283
256.19	3.412
256.55	3.630
256.92	3.655
257.28	3.931
257.65	3.960
258.01	4.022
258.37	4.034
258.74	3.886
259.10	4.005
259.46	4.031
259.83	4.265
260.19	4.468
260.55	4.311
260.92	4.344
261.28	4.273
261.64	4.229
262.01	4.242
262.37	3.998
262.73	4.014
263.10	3.274
263.46	3.479
263.82	3.109
264.19	2.625
264.55	2.432
264.91	2.490
265.28	2.755
265.64	2.346
266.00	2.256
266.37	2.586
266.73	2.848
267.09	3.030
267.46	2.561
267.82	2.718
268.18	2.793
268.54	2.873
268.91	3.127
269.27	2.916
269.63	2.965
270.00	3.078
270.36	3.205
270.72	3.204
271.08	3.021
271.45	3.202
271.81	3.243
272.17	3.514
272.53	3.825
272.90	3.797
273.26	3.752
273.62	3.951
273.98	4.127
274.35	4.154
274.71	4.009
275.07	4.264
275.43	4.295
275.80	4.285
276.16	4.299
276.52	4.099
276.88	3.914
277.25	3.916
277.61	4.007
277.97	4.057
278.33	3.862
278.69	3.969
279.06	3.667
279.42	3.630
279.78	3.564
280.14	3.253
280.50	3.196
280.87	3.376
281.23	3.382
281.59	3.340
281.95	3.223
282.31	3.198
282.68	3.265
283.04	3.486
283.40	3.244
283.76	3.102
284.12	3.198
284.48	2.987
284.85	2.835
285.21	2.986
285.57	2.944
285.93	3.006
286.29	2.919
286.65	2.837
287.02	3.016
287.38	3.330
287.74	3.524
288.10	3.422
288.46	3.393
288.82	3.278
289.18	2.983
289.54	2.871
289.91	2.730
290.27	2.790
290.63	2.817
290.99	2.504
291.35	2.500
291.71	2.196
292.07	2.305
292.43	2.466
292.79	2.567
293.16	2.647
293.52	2.722
293.88	2.983
294.24	3.029
294.60	2.967
294.96	3.049
295.32	3.015
295.68	3.180
296.04	3.212
296.40	3.227
296.76	3.209
297.12	3.454
297.49	3.607
297.85	3.613
298.21	3.659
298.57	3.784
298.93	3.964
299.29	3.919
299.65	4.110
300.01	4.128
300.37	4.284
300.73	4.406
301.09	4.227
301.45	4.055
301.81	3.905
302.17	3.882
302.53	3.653
302.89	3.477
303.25	3.637
303.61	3.502
303.97	3.563
304.33	3.618
304.69	3.789
305.05	3.869
305.41	4.147
305.77	4.127
306.13	4.189
306.49	4.419
306.85	4.559
307.21	4.326
307.57	4.233
307.93	4.290
308.29	4.179
308.65	3.987
309.01	3.923
309.37	3.824
309.73	3.849
310.09	3.723
310.45	3.663
310.81	3.561
311.17	3.605
311.53	3.745
311.89	3.684
312.25	3.748
312.61	3.757
312.96	3.893
313.32	3.850
313.68	3.851
314.04	3.926
314.40	3.816
314.76	3.846
315.12	4.055
315.48	4.185
315.84	3.900
316.20	3.779
316.56	3.880
316.92	3.637
317.27	3.776
317.63	3.758
317.99	3.756
318.35	3.948
318.71	4.141
319.07	4.127
319.43	3.969
319.79	4.256
320.15	4.518
320.50	4.618
320.86	4.861
321.22	4.854
321.58	4.868
321.94	4.986
322.30	5.175
322.66	5.055
323.01	5.086
323.37	5.293
323.73	5.273
324.09	5.364
324.45	5.318
324.81	5.354
325.17	5.351
325.52	5.486
325.88	5.515
326.24	5.395
326.60	5.483
326.96	5.514
327.31	5.355
327.67	5.494
328.03	5.461
328.39	5.511
328.75	5.631
329.11	5.687
329.46	5.837
329.82	5.953
330.18	6.126
330.54	6.178
330.90	6.306
331.25	6.469
331.61	6.558
331.97	6.574
332.33	6.628
332.68	6.682
333.04	6.772
333.40	6.825
333.76	6.846
334.11	6.843
334.47	7.043
334.83	6.985
335.19	7.024
335.54	6.959
335.90	6.877
336.26	6.864
336.62	6.874
336.97	6.861
337.33	6.850
337.69	6.836
338.05	6.952
338.40	6.877
338.76	7.002
339.12	6.937
339.48	6.922
339.83	7.008
340.19	7.158
340.55	7.187
340.90	7.210
341.26	7.170
341.62	7.175
341.97	7.099
342.33	7.112
342.69	7.155
343.04	7.149
343.40	7.306
343.76	7.322
344.12	7.216
344.47	7.161
344.83	7.200
345.19	7.219
345.54	7.231
345.90	7.178
346.26	7.152
346.61	6.982
346.97	7.067
347.32	7.006
347.68	7.104
348.04	7.219
348.39	7.326
348.75	7.378
349.11	7.462
349.46	7.512
349.82	7.564
350.18	7.514
350.53	7.671
350.89	7.661
351.24	7.710
351.60	7.703
351.96	7.710
352.31	7.655
352.67	7.632
353.02	7.590
353.38	7.704
353.74	7.723
354.09	7.838
354.45	7.822
354.80	7.787
355.16	7.803
355.52	7.849
355.87	7.754
356.23	7.825
356.58	7.861
356.94	7.923
357.29	7.876
357.65	7.855
358.00	7.835
358.36	7.844
358.72	7.914
359.07	7.845
359.43	7.877
359.78	8.014
360.14	8.010
360.49	8.032
360.85	8.030
361.20	8.020
361.56	8.092
361.91	8.097
362.27	8.132
362.62	8.173
362.98	8.281
363.33	8.289
363.69	8.261
364.04	8.279
364.40	8.273
364.75	8.258
365.11	8.241
365.46	8.179
365.82	8.197
366.17	8.164
366.53	8.135
366.88	8.133
367.24	8.168
367.59	8.194
367.95	8.193
368.30	8.218
368.66	8.218
369.01	8.241
369.37	8.277
369.72	8.296
370.08	8.397
370.43	8.418
370.78	8.388
371.14	8.299
371.49	8.218
371.85	8.173
372.20	8.188
372.56	8.237
372.91	8.258
373.26	8.314
373.62	8.295
373.97	8.266
374.33	8.235
374.68	8.282
375.03	8.305
375.39	8.284
375.74	8.378
376.10	8.395
376.45	8.421
376.80	8.442
377.16	8.391
377.51	8.407
377.87	8.427
378.22	8.511
378.57	8.498
378.93	8.538
379.28	8.643
379.63	8.647
379.99	8.628
380.34	8.612
380.70	8.661
381.05	8.707
381.40	8.726
381.76	8.742
382.11	8.750
382.46	8.817
382.82	8.831
383.17	8.859
383.52	8.860
383.88	8.909
384.23	8.925
384.58	8.929
384.94	8.955
385.29	9.020
385.64	8.963
385.99	8.963
386.35	8.941
386.70	8.918
387.05	8.910
387.41	8.931
387.76	8.916
388.11	8.901
388.47	8.895
388.82	8.916
389.17	8.901
389.52	8.957
389.88	8.954
390.23	8.966
390.58	9.003
390.93	9.020
391.29	9.027
391.64	9.066
391.99	9.086
392.34	9.090
392.70	9.090
393.05	9.115
393.40	9.109
393.75	9.099
394.11	9.073
394.46	9.066
394.81	9.066
395.16	9.042
395.52	9.013
395.87	9.010
396.22	9.000
396.57	8.955
396.92	8.908
397.28	8.886
397.63	8.868
397.98	8.927
398.33	8.932
398.68	8.940
399.04	8.937
399.39	8.889
399.74	8.852
400.09	8.860
400.44	8.867
400.80	8.877
401.15	8.905
401.50	8.933
401.85	8.834
402.20	8.826
402.55	8.779
402.90	8.781
403.26	8.815
403.61	8.833
403.96	8.806
404.31	8.825
404.66	8.827
405.01	8.838
405.36	8.787
405.72	8.837
406.07	8.811
406.42	8.842
406.77	8.821
407.12	8.814
407.47	8.854
407.82	8.855
408.17	8.805
408.53	8.787
408.88	8.755
409.23	8.767
409.58	8.789
409.93	8.774
410.28	8.749
410.63	8.751
410.98	8.737
411.33	8.687
411.68	8.687
412.03	8.662
412.38	8.620
412.73	8.604
413.09	8.569
413.44	8.519
413.79	8.515
414.14	8.468
414.49	8.410
414.84	8.372
415.19	8.341
415.54	8.263
415.89	8.208
416.24	8.175
416.59	8.109
416.94	8.074
417.29	8.016
417.64	7.960
417.99	7.920
418.34	7.882
418.69	7.824
419.04	7.765
419.39	7.758
419.74	7.739
420.09	7.708
420.44	7.680
420.79	7.647
421.14	7.626
421.49	7.615
421.84	7.604
422.19	7.603
422.54	7.614
422.89	7.611
423.24	7.593
423.59	7.600
423.94	7.605
424.29	7.610
424.64	7.625
424.99	7.664
425.34	7.668
425.68	7.689
426.03	7.679
426.38	7.674
426.73	7.694
427.08	7.701
427.43	7.708
427.78	7.700
428.13	7.696
428.48	7.707
428.83	7.670
429.18	7.651
429.53	7.648
429.87	7.669
430.22	7.652
430.57	7.658
430.92	7.645
431.27	7.611
431.62	7.616
431.97	7.609
432.32	7.585
432.67	7.575
433.01	7.593
433.36	7.588
433.71	7.568
434.06	7.596
434.41	7.596
434.76	7.605
435.11	7.642
435.45	7.648
435.80	7.631
436.15	7.637
436.50	7.609
436.85	7.600
437.20	7.571
437.54	7.555
437.89	7.539
438.24	7.497
438.59	7.488
438.94	7.459
439.29	7.437
439.63	7.428
439.98	7.402
440.33	7.414
440.68	7.389
441.03	7.373
441.37	7.349
441.72	7.332
442.07	7.335
442.42	7.307
442.76	7.303
443.11	7.283
443.46	7.259
443.81	7.237
444.16	7.215
444.50	7.207
444.85	7.204
445.20	7.219
445.55	7.194
445.89	7.179
446.24	7.175
446.59	7.168
446.94	7.170
447.28	7.192
447.63	7.202
447.98	7.196
448.32	7.187
448.67	7.156
449.02	7.132
449.37	7.132
449.71	7.136
450.06	7.141
450.41	7.119
450.75	7.102
451.10	7.092
451.45	7.087
451.79	7.110
452.14	7.129
452.49	7.168
452.84	7.156
453.18	7.189
453.53	7.195
453.88	7.189
454.22	7.194
454.57	7.189
454.92	7.188
455.26	7.198
455.61	7.174
455.95	7.152
456.30	7.136
456.65	7.163
456.99	7.133
457.34	7.142
457.69	7.150
458.03	7.153
458.38	7.170
458.73	7.195
459.07	7.209
459.42	7.253
459.76	7.286
460.11	7.327
460.46	7.352
460.80	7.395
461.15	7.408
461.49	7.438
461.84	7.488
462.19	7.541
462.53	7.552
462.88	7.579
463.22	7.604
463.57	7.651
463.91	7.708
464.26	7.756
464.61	7.792
464.95	7.844
465.30	7.886
465.64	7.915
465.99	7.927
466.33	7.960
466.68	7.984
467.02	8.018
467.37	8.047
467.71	8.043
468.06	8.038
468.41	8.052
468.75	8.072
469.10	8.088
469.44	8.111
469.79	8.142
470.13	8.155
470.48	8.191
470.82	8.191
471.17	8.177
471.51	8.171
471.86	8.209
472.20	8.205
472.55	8.189
472.89	8.181
473.23	8.152
473.58	8.139
473.92	8.130
474.27	8.093
474.61	8.083
474.96	8.064
475.30	8.055
475.65	8.013
475.99	7.995
476.34	7.959
476.68	7.932
477.02	7.926
477.37	7.902
477.71	7.882
478.06	7.887
478.40	7.871
478.75	7.880
479.09	7.888
479.43	7.915
479.78	7.961
480.12	8.025
480.47	8.094
480.81	8.167
481.15	8.243
481.50	8.319
481.84	8.413
482.19	8.516
482.53	8.594
482.87	8.625
483.22	8.592
483.56	8.505
483.90	8.402
484.25	8.328
484.59	8.289
484.94	8.230
485.28	8.172
485.62	8.090
485.97	7.997
486.31	7.932
486.65	7.918
487.00	7.973
487.34	8.092
487.68	8.216
488.03	8.310
488.37	8.333
488.71	8.384
489.06	8.422
489.40	8.448
489.74	8.485
490.09	8.524
490.43	8.568
490.77	8.610
491.11	8.650
491.46	8.718
491.80	8.766
492.14	8.834
492.49	8.893
492.83	8.981
493.17	9.082
493.51	9.182
493.86	9.295
494.20	9.388
494.54	9.490
494.88	9.615
495.23	9.711
495.57	9.811
495.91	9.926
496.25	10.060
496.60	10.178
496.94	10.326
497.28	10.456
497.62	10.579
497.97	10.744
498.31	10.922
498.65	11.091
498.99	11.296
499.33	11.514
499.68	11.717
500.02	11.913
500.36	12.119
500.70	12.305
501.04	12.515
501.39	12.748
501.73	12.972
502.07	13.191
502.41	13.428
502.75	13.640
503.09	13.888
503.44	14.170
503.78	14.424
504.12	14.709
504.46	15.007
504.80	15.327
505.14	15.617
505.49	15.918
505.83	16.231
506.17	16.522
506.51	16.856
506.85	17.168
507.19	17.458
507.53	17.805
507.87	18.147
508.22	18.497
508.56	18.842
508.90	19.209
509.24	19.558
509.58	19.926
509.92	20.312
510.26	20.694
510.60	21.081
510.94	21.467
511.28	21.857
511.63	22.268
511.97	22.686
512.31	23.106
512.65	23.546
512.99	23.994
513.33	24.451
513.67	24.894
514.01	25.372
514.35	25.821
514.69	26.286
515.03	26.751
515.37	27.127
515.71	27.484
516.05	27.841
516.39	28.170
516.73	28.523
517.07	28.853
517.41	29.204
517.75	29.538
518.09	29.891
518.43	30.217
518.77	30.539
519.11	30.900
519.45	31.274
519.79	31.676
520.13	32.103
520.47	32.550
520.81	32.974
521.15	33.385
521.49	33.736
521.83	34.080
522.17	34.439
522.51	34.761
522.85	35.111
523.19	35.471
523.53	35.860
523.87	36.292
524.21	36.671
524.55	37.073
524.89	37.445
525.23	37.822
525.57	38.148
525.91	38.430
526.25	38.730
526.58	39.007
526.92	39.286
527.26	39.514
527.60	39.698
527.94	39.883
528.28	40.051
528.62	40.210
528.96	40.352
529.30	40.508
529.64	40.690
529.97	40.833
530.31	40.996
530.65	41.119
530.99	41.266
531.33	41.467
531.67	41.650
532.01	41.811
532.35	41.989
532.68	42.165
533.02	42.342
533.36	42.463
533.70	42.626
534.04	42.763
534.38	42.945
534.71	43.146
535.05	43.277
535.39	43.422
535.73	43.586
536.07	43.683
536.41	43.849
536.74	44.003
537.08	44.213
537.42	44.412
537.76	44.601
538.10	44.781
538.43	44.934
538.77	45.083
539.11	45.228
539.45	45.381
539.79	45.545
540.12	45.653
540.46	45.739
540.80	45.782
541.14	45.861
541.47	45.928
541.81	46.000
542.15	46.093
542.49	46.197
542.82	46.284
543.16	46.337
543.50	46.440
543.84	46.530
544.17	46.655
544.51	46.846
544.85	46.948
545.18	47.064
545.52	47.193
545.86	47.298
546.20	47.410
546.53	47.555
546.87	47.713
547.21	47.827
547.54	47.996
547.88	48.147
548.22	48.290
548.55	48.404
548.89	48.495
549.23	48.588
549.56	48.675
549.90	48.746
550.24	48.808
550.57	48.856
550.91	48.932
551.25	49.002
551.58	49.035
551.92	49.077
552.26	49.166
552.59	49.262
552.93	49.348
553.27	49.388
553.60	49.433
553.94	49.509
554.27	49.585
554.61	49.622
554.95	49.637
555.28	49.711
555.62	49.726
555.95	49.769
556.29	49.833
556.63	49.857
556.96	49.928
557.30	50.010
557.63	49.983
557.97	50.025
558.31	50.082
558.64	50.115
558.98	50.116
559.31	50.153
559.65	50.165
559.98	50.142
560.32	50.134
560.65	50.116
560.99	50.066
561.33	50.059
561.66	49.985
562.00	49.955
562.33	49.905
562.67	49.877
563.00	49.847
563.34	49.778
563.67	49.767
564.01	49.747
564.34	49.742
564.68	49.760
565.01	49.777
565.35	49.851
565.68	49.869
566.02	49.881
566.35	49.894
566.69	49.865
567.02	49.882
567.36	49.905
567.69	49.865
568.03	49.825
568.36	49.755
568.69	49.749
569.03	49.652
569.36	49.620
569.70	49.595
570.03	49.583
570.37	49.552
570.70	49.545
571.04	49.509
571.37	49.500
571.70	49.482
572.04	49.522
572.37	49.507
572.71	49.546
573.04	49.554
573.37	49.556
573.71	49.599
574.04	49.675
574.38	49.705
574.71	49.725
575.04	49.786
575.38	49.872
575.71	49.952
576.05	50.026
576.38	50.073
576.71	50.117
577.05	50.206
577.38	50.232
577.71	50.251
578.05	50.293
578.38	50.323
578.71	50.324
579.05	50.324
579.38	50.293
579.71	50.299
580.05	50.272
580.38	50.220
580.71	50.179
581.05	50.137
581.38	50.115
581.71	50.074
582.05	50.048
582.38	50.018
582.71	49.955
583.04	49.885
583.38	49.834
583.71	49.766
584.04	49.772
584.38	49.701
584.71	49.609
585.04	49.514
585.37	49.398
585.71	49.298
586.04	49.177
586.37	49.130
586.70	49.048
587.04	48.966
587.37	48.927
587.70	48.759
588.03	48.661
588.37	48.564
588.70	48.521
589.03	48.482
589.36	48.418
589.69	48.374
590.03	48.238
590.36	48.181
590.69	48.019
591.02	47.916
591.35	47.842
591.69	47.727
592.02	47.626
592.35	47.466
592.68	47.341
593.01	47.186
593.35	47.049
593.68	46.925
594.01	46.763
594.34	46.681
594.67	46.579
595.00	46.442
595.34	46.343
595.67	46.306
596.00	46.234
596.33	46.185
596.66	46.155
596.99	46.159
597.32	46.174
597.65	46.120
597.99	46.099
598.32	46.059
598.65	46.028
598.98	45.977
599.31	45.845
599.64	45.705
599.97	45.545
600.30	45.387
600.63	45.180
600.96	45.036
601.30	44.905
601.63	44.725
601.96	44.574
602.29	44.469
602.62	44.392
602.95	44.323
603.28	44.279
603.61	44.184
603.94	44.127
604.27	44.071
604.60	44.007
604.93	43.983
605.26	43.936
605.59	43.877
605.92	43.815
606.25	43.706
606.58	43.596
606.91	43.436
607.24	43.361
607.57	43.275
607.90	43.232
608.23	43.146
608.56	43.032
608.89	42.984
609.22	42.927
609.55	42.942
609.88	42.922
610.21	42.908
610.54	42.969
610.87	42.967
611.20	42.933
611.53	42.890
611.86	42.865
612.19	42.846
612.52	42.800
612.85	42.749
613.18	42.612
613.51	42.490
613.84	42.400
614.17	42.288
614.49	42.167
614.82	42.158
615.15	42.052
615.48	41.934
615.81	41.841
616.14	41.768
616.47	41.663
616.80	41.577
617.13	41.542
617.46	41.462
617.78	41.408
618.11	41.406
618.44	41.270
618.77	41.215
619.10	41.097
619.43	41.028
619.76	40.860
620.09	40.782
620.41	40.704
620.74	40.616
621.07	40.517
621.40	40.428
621.73	40.275
622.06	40.192
622.38	40.064
622.71	39.948
623.04	39.867
623.37	39.810
623.70	39.735
624.02	39.623
624.35	39.497
624.68	39.447
625.01	39.300
625.34	39.226
625.66	39.149
625.99	39.038
626.32	39.010
626.65	38.941
626.98	38.892
627.30	38.839
627.63	38.813
627.96	38.789
628.29	38.713
628.61	38.699
628.94	38.617
629.27	38.533
629.60	38.542
629.92	38.509
630.25	38.408
630.58	38.333
630.91	38.201
631.23	38.114
631.56	38.005
631.89	37.875
632.21	37.827
632.54	37.777
632.87	37.799
633.19	37.706
633.52	37.650
633.85	37.617
634.18	37.560
634.50	37.572
634.83	37.518
635.16	37.514
635.48	37.493
635.81	37.417
636.14	37.387
636.46	37.300
636.79	37.305
637.11	37.226
637.44	37.194
637.77	37.134
638.09	37.080
638.42	37.020
638.75	36.926
639.07	36.868
639.40	36.826
639.73	36.728
640.05	36.591
640.38	36.508
640.70	36.461
641.03	36.359
641.36	36.323
641.68	36.204
642.01	36.127
642.33	36.078
642.66	35.969
642.98	35.880
643.31	35.779
643.64	35.759
643.96	35.677
644.29	35.617
644.61	35.534
644.94	35.465
645.26	35.461
645.59	35.387
645.91	35.358
646.24	35.341
646.56	35.286
646.89	35.287
647.22	35.211
647.54	35.109
647.87	35.061
648.19	35.034
648.52	34.961
648.84	34.803
649.17	34.792
649.49	34.687
649.82	34.587
650.14	34.531
650.47	34.486
650.79	34.453
651.11	34.445
651.44	34.402
651.76	34.329
652.09	34.318
652.41	34.345
652.74	34.294
653.06	34.156
653.39	34.128
653.71	34.101
654.04	33.985
654.36	33.877
654.68	33.767
655.01	33.654
655.33	33.591
655.66	33.408
655.98	33.269
656.30	33.183
656.63	33.185
656.95	33.116
657.28	33.015
657.60	32.982
657.92	32.921
658.25	32.853
658.57	32.766
658.90	32.666
659.22	32.741
659.54	32.644
659.87	32.590
660.19	32.511
660.51	32.454
660.84	32.369
661.16	32.374
661.48	32.340
661.81	32.361
662.13	32.358
662.45	32.395
662.78	32.258
663.10	32.277
663.42	32.203
663.75	32.153
664.07	32.132
664.39	32.114
664.72	31.934
665.04	31.908
665.36	31.821
665.69	31.801
666.01	31.659
666.33	31.589
666.65	31.541
666.98	31.496
667.30	31.524
667.62	31.449
667.94	31.390
668.27	31.437
668.59	31.368
668.91	31.370
669.23	31.232
669.56	31.259
669.88	31.237
670.20	31.162
670.52	31.147
670.85	31.022
671.17	31.006
671.49	30.977
671.81	30.856
672.13	30.786
672.46	30.652
672.78	30.591
673.10	30.523
673.42	30.507
673.74	30.533
674.07	30.479
674.39	30.445
674.71	30.397
675.03	30.318
675.35	30.307
675.67	30.240
676.00	30.236
676.32	30.219
676.64	30.213
676.96	30.166
677.28	30.122
677.60	30.065
677.92	30.040
678.25	29.936
678.57	29.917
678.89	29.887
679.21	29.867
679.53	29.823
679.85	29.837
680.17	29.743
680.49	29.674
680.81	29.613
681.13	29.590
681.46	29.509
681.78	29.533
682.10	29.502
682.42	29.502
682.74	29.499
683.06	29.496
683.38	29.434
683.70	29.496
684.02	29.535
684.34	29.565
684.66	29.549
684.98	29.562
685.30	29.561
685.62	29.564
685.94	29.498
686.26	29.396
686.58	29.320
686.90	29.264
687.22	29.201
687.54	29.084
687.86	29.033
688.18	29.016
688.50	29.067
688.82	29.038
689.14	28.960
689.46	28.885
689.78	28.926
690.10	29.002
690.42	28.997
690.74	28.934
691.06	28.990
691.38	28.975
691.70	28.858
692.02	28.725
692.34	28.658
692.66	28.679
692.98	28.670
693.30	28.654
693.62	28.511
693.94	28.421
694.26	28.325
694.57	28.212
694.89	28.052
695.21	27.987
695.53	27.912
695.85	27.813
696.17	27.694
696.49	27.613
696.81	27.465
697.13	27.466
697.44	27.422
697.76	27.440
698.08	27.369
698.40	27.374
698.72	27.329
699.04	27.266
699.36	27.243
699.67	27.181
699.99	27.116
700.31	27.112
700.63	26.924
700.95	26.848
701.27	26.742
701.58	26.722
701.90	26.749
702.22	26.716
702.54	26.813
702.86	26.812
703.17	26.787
703.49	26.761
703.81	26.728
704.13	26.672
704.45	26.675
704.76	26.583
705.08	26.568
705.40	26.404
705.72	26.453
706.03	26.433
706.35	26.420
706.67	26.450
706.99	26.445
707.30	26.401
707.62	26.466
707.94	26.445
708.26	26.488
708.57	26.471
708.89	26.493
709.21	26.451
709.53	26.316
709.84	26.259
710.16	26.242
710.48	26.219
710.79	26.226
711.11	26.153
711.43	26.146
711.74	26.114
712.06	26.087
712.38	26.053
712.69	25.979
713.01	26.006
713.33	25.967
713.64	25.971
713.96	26.054
714.28	26.122
714.59	26.206
714.91	26.310
715.23	26.439
715.54	26.404
715.86	26.495
716.17	26.555
716.49	26.459
716.81	26.490
717.12	26.439
717.44	26.374
717.76	26.281
718.07	26.172
718.39	26.050
718.70	25.857
719.02	25.874
719.33	25.740
719.65	25.686
719.97	25.766
720.28	25.665
720.60	25.595
720.91	25.576
721.23	25.448
721.54	25.527
721.86	25.543
722.17	25.624
722.49	25.587
722.81	25.712
723.12	25.713
723.44	25.813
723.75	25.869
724.07	25.794
724.38	25.741
724.70	25.803
725.01	25.686
725.33	25.694
725.64	25.537
725.96	25.423
726.27	25.306
726.59	25.385
726.90	25.129
727.22	25.187
727.53	25.290
727.84	25.261
728.16	25.229
728.47	25.323
728.79	25.204
729.10	25.179
729.42	25.229
729.73	25.176
730.05	25.012
730.36	25.087
730.67	24.891
730.99	24.747
731.30	24.633
731.62	24.657
731.93	24.525
732.24	24.386
732.56	24.311
732.87	24.350
733.19	24.354
733.50	24.379
733.81	24.218
734.13	24.194
734.44	24.133
734.76	24.158
735.07	23.926
735.38	23.797
735.70	23.811
736.01	23.873
736.32	23.781
736.64	23.588
736.95	23.461
737.26	23.627
737.58	23.657
737.89	23.737
738.20	23.566
738.52	23.586
738.83	23.548
739.14	23.510
739.45	23.435
739.77	23.227
740.08	23.168
740.39	23.033
740.71	22.765
741.02	22.590
741.33	22.394
741.64	22.369
741.96	22.237
742.27	22.432
742.58	22.269
742.90	22.253
743.21	22.353
743.52	22.430
743.83	22.352
744.14	22.237
744.46	22.124
744.77	22.101
745.08	22.091
745.39	22.048
745.71	21.953
746.02	21.960
746.33	21.927
746.64	21.806
746.95	21.660
747.27	21.677
747.58	21.793
747.89	21.953
748.20	21.983
748.51	21.898
748.82	21.985
749.14	21.776
749.45	21.732
749.76	21.710
750.07	21.704
750.38	21.641
750.69	21.776
751.01	21.872
751.32	21.703
751.63	21.551
751.94	21.682
752.25	21.738
752.56	21.714
752.87	21.867
753.18	21.789
753.49	21.762
753.81	21.909
754.12	21.799
754.43	21.715
754.74	21.880
755.05	22.095
755.36	22.076
755.67	22.165
755.98	22.283
756.29	22.483
756.60	22.645
756.91	22.941
757.22	23.307
757.53	23.516
757.84	23.705
758.15	23.958
758.46	24.143
758.77	24.437
759.09	24.515
759.40	24.656
759.71	24.736
760.02	24.801
760.33	24.729
760.64	24.652
760.95	24.687
761.26	24.645
761.57	24.497
761.88	24.545
762.18	24.467
762.49	24.523
762.80	24.540
763.11	24.411
763.42	24.323
763.73	24.156
764.04	23.908
764.35	23.739
764.66	23.535
764.97	23.414
765.28	23.070
765.59	22.783
765.90	22.382
766.21	22.143
766.52	21.769
766.83	21.417
767.14	21.251
767.44	21.129
767.75	21.051
768.06	21.006
768.37	20.878
768.68	20.896
768.99	20.988
769.30	20.845
769.61	20.591
769.91	20.553
770.22	20.620
770.53	20.572
770.84	20.552
771.15	20.508
771.46	20.558
771.77	20.265
772.07	20.300
772.38	19.913
772.69	19.796
773.00	19.543
773.31	19.673
773.61	19.464
773.92	19.703
774.23	19.644
774.54	19.300
774.85	19.027
775.15	19.135
775.46	18.839
775.77	19.083
776.08	19.109
776.39	19.377
776.69	19.243
777.00	19.280
777.31	18.988
777.62	18.863
777.92	19.036
778.23	19.079
778.54	19.251
778.85	19.343
779.15	19.275
779.46	19.388
779.77	19.443
780.07	19.477
780.38	19.555
780.69	19.506
781.00	19.884
781.30	19.973
781.61	20.039
781.92	19.943
782.22	19.924
782.53	19.998
782.84	19.961
783.14	19.796
783.45	19.694
783.76	19.890
784.06	20.026
784.37	20.054
784.68	20.054
784.98	20.306
785.29	20.349
785.60	20.471
785.90	20.570
786.21	20.732
786.51	21.104
786.82	21.181
787.13	21.197
787.43	21.278
787.74	21.277
788.04	21.303
788.35	21.156
788.66	21.183
788.96	21.269
789.27	21.075
789.57	20.939
789.88	20.616
790.19	20.757
790.49	20.639
790.80	20.655
791.10	20.626
791.41	20.675
791.71	20.483
792.02	20.555
792.32	20.280
792.63	20.462
792.93	20.444
793.24	20.700
793.54	20.730
793.85	20.913
794.15	20.843
794.46	20.679
794.76	20.573
795.07	20.622
795.37	20.641
795.68	20.957
795.98	20.899
796.29	20.808
796.59	20.580
796.90	20.692
797.20	20.494
797.51	20.788
797.81	20.854
798.12	20.792
798.42	21.155
798.72	21.358
799.03	21.314
799.33	21.312
799.64	21.604
799.94	21.762
800.25	21.525
800.55	21.625
800.85	21.313
801.16	21.530
801.46	21.458
801.77	21.262
802.07	21.068
802.37	21.069
802.68	21.174
802.98	21.586
803.28	21.447
803.59	21.679
803.89	21.514
804.20	21.660
804.50	21.627
804.80	21.694
805.11	21.722
805.41	21.835
805.71	21.942
806.02	21.769
806.32	21.344
806.62	21.173
806.93	21.164
807.23	21.271
807.53	21.450
807.83	21.410
808.14	21.538
808.44	21.437
808.74	21.545
809.05	21.438
809.35	21.725
809.65	21.810
809.95	22.303
810.26	22.378
810.56	23.025
810.86	23.182
811.16	23.156
811.47	23.422
811.77	23.902
812.07	24.004
812.37	23.928
812.68	24.529
812.98	24.827
813.28	24.851
813.58	25.032
813.88	24.147
814.19	24.352
814.49	24.588
814.79	25.023
815.09	24.662
815.39	24.429
815.70	24.473
816.00	23.838
816.30	23.424
816.60	23.446
816.90	23.200
817.20	23.877
817.50	23.456
817.81	23.526
818.11	23.191
818.41	23.424
818.71	23.490
819.01	23.561
819.31	23.659
819.61	23.785
819.92	23.819
820.22	23.903
820.52	23.848
820.82	23.926
821.12	23.888
821.42	23.868
821.72	23.855
822.02	23.872
822.32	23.939
822.62	23.938
822.92	23.969
823.22	23.970
823.52	23.980
823.83	23.967
824.13	23.999
824.43	24.031
824.73	24.168
825.03	24.236
825.33	24.270
825.63	24.110
825.93	24.158
826.23	24.145
826.53	24.159
826.83	24.058
827.13	24.052
827.43	23.914
827.73	23.914
828.03	23.945
828.33	23.854
828.63	23.759
828.93	24.061
829.23	23.937
829.53	23.645
829.83	23.526
830.13	23.764
830.42	23.805
830.72	23.716
831.02	23.428
831.32	23.128
831.62	23.135
831.92	23.181
832.22	22.872
832.52	22.898
832.82	23.279
833.12	23.155
833.42	23.033
833.72	22.886
834.01	22.991
834.31	23.127
834.61	23.296
834.91	23.334
835.21	23.247
835.51	23.265
835.81	23.094
836.11	22.901
836.40	23.327
836.70	22.762
837.00	22.952
837.30	22.878
837.60	23.252
837.90	23.299
838.19	23.500
838.49	23.699
838.79	23.709
839.09	23.900
839.39	23.793
839.68	23.509
839.98	23.985
840.28	24.053
840.58	24.162
840.88	23.822
841.17	23.175
841.47	23.027
841.77	22.452
842.07	22.634
842.36	22.788
842.66	23.350
842.96	22.654
843.26	22.059
843.55	21.869
843.85	21.715
844.15	20.943
844.45	21.056
844.74	20.618
845.04	21.463
845.34	21.053
845.63	21.221
845.93	20.301
846.23	21.447
846.53	21.990
846.82	21.955
847.12	21.358
847.42	21.650
847.71	21.651
848.01	21.656
848.31	22.360
848.60	23.021
848.90	22.514
849.19	23.361
849.49	22.360
849.79	22.490
850.08	22.650
850.38	23.105
850.68	23.455
850.97	24.498
851.27	24.230
851.56	22.083
851.86	20.479
852.16	20.650
852.45	20.103
852.75	20.257
853.04	18.999
853.34	19.105
853.64	19.279
853.93	19.969
854.23	20.343
854.52	20.844
854.82	21.629
855.11	22.870
855.41	21.545
855.70	20.857
856.00	21.044
856.30	22.071
856.59	21.943
856.89	21.153
857.18	20.674
857.48	19.752
857.77	19.991
858.07	21.390
858.36	21.177
858.66	22.521
858.95	23.078
859.25	22.956
859.54	23.889
859.84	24.093
860.13	23.844
860.42	23.729
860.72	23.736
861.01	22.339
861.31	21.731
861.60	22.900
861.90	23.345
862.19	21.833
862.49	21.823
862.78	21.541
863.07	19.957
863.37	20.299
863.66	20.231
863.96	19.210
864.25	20.961
864.54	21.405
864.84	20.713
865.13	19.980
865.43	21.235
865.72	31.863
866.01	27.297
866.31	27.401
866.60	18.002
866.89	25.701
>>>>>End Spectral Data<<<<<
