OOIBase32 Version 2.0.0.6 Data File
++++++++++++++++++++++++++++++++++++
Date: 01-18-2012, 22:38:57
User: Valued Ocean Optics Customer
Spectrometer Serial Number: USB2E2917
Spectrometer Channel: Master
Integration Time (msec): 5
Spectra Averaged: 10
Boxcar Smoothing: 5
Correct for Electrical Dark: Enabled
Time Normalized: Disabled
Dual-beam Reference: Disabled
Reference Channel: Master
Temperature: Not acquired
Spectrometer Type: S2000
ADC Type: USB2000
Number of Pixels in File: 2048
Graph Title: 
>>>>>Begin Spectral Data<<<<<
180.30	0.000
180.67	0.000
181.03	165.199
181.40	-6023.377
181.77	-1637.049
182.14	107.481
182.51	59.605
182.88	637.692
183.25	139.700
183.62	-153.991
183.99	389.580
184.36	-147.180
184.73	-23.775
185.10	1.617
185.46	220.760
185.83	49.054
186.20	112.879
186.57	-479.369
186.94	63.635
187.31	-234.136
187.68	-36.496
188.05	50.262
188.42	18.250
188.78	20.290
189.15	-10.196
189.52	-59.190
189.89	-42.961
190.26	-16.252
190.63	12.053
191.00	12.136
191.37	-7.149
191.73	-24.665
192.10	-5.981
192.47	-1.865
192.84	-31.863
193.21	-18.291
193.58	4.049
193.94	-7.590
194.31	-21.838
194.68	-38.226
195.05	-33.204
195.42	-25.383
195.79	-18.228
196.15	-40.511
196.52	-41.491
196.89	-49.290
197.26	-43.892
197.63	-101.000
198.00	-4.796
198.36	9.186
198.73	11.896
199.10	25.193
199.47	31.818
199.84	32.986
200.20	27.912
200.57	21.548
200.94	29.490
201.31	37.876
201.68	31.415
202.04	22.284
202.41	21.157
202.78	27.287
203.15	20.960
203.51	22.224
203.88	22.894
204.25	21.969
204.62	23.434
204.98	23.072
205.35	13.242
205.72	26.674
206.09	31.043
206.46	32.815
206.82	31.906
207.19	40.778
207.56	23.656
207.92	20.929
208.29	44.440
208.66	48.989
209.03	44.090
209.39	45.492
209.76	41.217
210.13	39.611
210.50	36.437
210.86	28.457
211.23	22.887
211.60	29.121
211.96	24.753
212.33	8.249
212.70	8.964
213.07	17.714
213.43	13.321
213.80	11.186
214.17	0.988
214.53	-9.984
214.90	-15.192
215.27	-15.362
215.63	-13.044
216.00	-23.665
216.37	-24.980
216.74	-24.235
217.10	-55.640
217.47	-54.789
217.84	-47.902
218.20	-28.264
218.57	-18.961
218.94	-3.450
219.30	-0.158
219.67	0.201
220.04	6.953
220.40	9.205
220.77	2.332
221.13	11.534
221.50	14.698
221.87	15.520
222.23	15.957
222.60	20.825
222.97	19.144
223.33	21.338
223.70	23.478
224.07	24.604
224.43	20.265
224.80	18.324
225.16	19.494
225.53	18.421
225.90	16.826
226.26	16.350
226.63	13.659
226.99	13.521
227.36	10.471
227.73	8.352
228.09	8.336
228.46	7.999
228.82	7.023
229.19	5.703
229.56	4.759
229.92	7.497
230.29	6.774
230.65	7.932
231.02	6.672
231.38	9.090
231.75	11.008
232.12	9.656
232.48	9.520
232.85	10.908
233.21	10.763
233.58	13.018
233.94	8.695
234.31	10.828
234.68	10.554
235.04	11.372
235.41	11.099
235.77	11.304
236.14	11.169
236.50	11.503
236.87	11.495
237.23	11.545
237.60	10.405
237.96	10.937
238.33	9.535
238.69	9.000
239.06	8.038
239.42	7.277
239.79	6.898
240.15	8.679
240.52	8.441
240.88	8.357
241.25	8.306
241.61	6.967
241.98	6.912
242.34	7.351
242.71	6.725
243.07	6.512
243.44	6.595
243.80	6.405
244.17	4.931
244.53	4.661
244.90	4.386
245.26	3.842
245.63	4.726
245.99	4.814
246.36	4.680
246.72	5.336
247.09	5.965
247.45	6.441
247.81	6.635
248.18	7.106
248.54	7.627
248.91	8.066
249.27	8.839
249.64	8.879
250.00	8.557
250.36	9.003
250.73	8.483
251.09	8.379
251.46	7.762
251.82	7.826
252.19	8.139
252.55	7.559
252.91	7.620
253.28	7.497
253.64	6.192
254.01	6.587
254.37	5.391
254.73	5.402
255.10	4.700
255.46	4.893
255.83	4.470
256.19	4.260
256.55	4.803
256.92	4.955
257.28	4.824
257.65	5.289
258.01	5.162
258.37	4.975
258.74	5.032
259.10	5.011
259.46	4.680
259.83	5.000
260.19	4.774
260.55	4.568
260.92	4.612
261.28	4.555
261.64	4.480
262.01	4.649
262.37	5.099
262.73	5.141
263.10	5.606
263.46	5.528
263.82	5.260
264.19	5.693
264.55	5.746
264.91	5.541
265.28	5.425
265.64	4.944
266.00	4.664
266.37	4.463
266.73	4.049
267.09	3.957
267.46	4.075
267.82	3.863
268.18	3.861
268.54	4.198
268.91	4.254
269.27	4.508
269.63	5.065
270.00	5.136
270.36	5.129
270.72	5.509
271.08	5.368
271.45	5.934
271.81	5.937
272.17	6.033
272.53	5.588
272.90	5.438
273.26	5.103
273.62	4.875
273.98	5.116
274.35	4.524
274.71	3.836
275.07	3.720
275.43	3.399
275.80	3.492
276.16	3.181
276.52	3.689
276.88	3.608
277.25	3.718
277.61	3.498
277.97	3.452
278.33	4.022
278.69	4.318
279.06	4.475
279.42	4.412
279.78	4.295
280.14	4.458
280.50	4.306
280.87	4.450
281.23	4.704
281.59	4.851
281.95	4.735
282.31	4.586
282.68	5.033
283.04	5.215
283.40	4.868
283.76	4.839
284.12	4.672
284.48	4.716
284.85	4.512
285.21	4.327
285.57	4.632
285.93	4.611
286.29	4.664
286.65	4.489
287.02	4.218
287.38	4.584
287.74	4.719
288.10	5.037
288.46	5.118
288.82	5.369
289.18	5.480
289.54	4.941
289.91	4.723
290.27	4.666
290.63	4.277
290.99	4.246
291.35	3.879
291.71	3.941
292.07	3.891
292.43	3.629
292.79	3.535
293.16	3.711
293.52	4.149
293.88	4.310
294.24	4.543
294.60	4.770
294.96	4.892
295.32	5.037
295.68	4.964
296.04	4.881
296.40	4.790
296.76	4.800
297.12	4.695
297.49	4.865
297.85	5.050
298.21	5.143
298.57	5.235
298.93	5.045
299.29	5.252
299.65	5.363
300.01	5.377
300.37	5.590
300.73	5.763
301.09	5.980
301.45	5.780
301.81	5.717
302.17	5.731
302.53	5.936
302.89	6.177
303.25	6.063
303.61	6.048
303.97	6.332
304.33	6.448
304.69	6.470
305.05	6.410
305.41	6.449
305.77	6.591
306.13	6.367
306.49	6.166
306.85	6.226
307.21	6.318
307.57	6.314
307.93	6.129
308.29	6.176
308.65	6.220
309.01	6.171
309.37	6.118
309.73	6.157
310.09	6.316
310.45	6.418
310.81	6.363
311.17	6.310
311.53	6.534
311.89	6.700
312.25	6.742
312.61	6.592
312.96	6.594
313.32	6.607
313.68	6.451
314.04	6.304
314.40	6.167
314.76	6.096
315.12	6.194
315.48	6.030
315.84	5.907
316.20	5.927
316.56	6.027
316.92	6.295
317.27	6.246
317.63	6.409
317.99	6.644
318.35	6.914
318.71	6.970
319.07	6.944
319.43	6.756
319.79	6.733
320.15	6.602
320.50	6.659
320.86	6.522
321.22	6.518
321.58	6.357
321.94	6.365
322.30	6.267
322.66	6.274
323.01	6.364
323.37	6.471
323.73	6.465
324.09	6.350
324.45	6.236
324.81	6.155
325.17	6.236
325.52	6.429
325.88	6.367
326.24	6.384
326.60	6.436
326.96	6.341
327.31	6.488
327.67	6.576
328.03	6.738
328.39	6.867
328.75	6.923
329.11	7.016
329.46	6.985
329.82	7.014
330.18	6.953
330.54	7.037
330.90	7.045
331.25	7.116
331.61	7.139
331.97	7.176
332.33	7.300
332.68	7.352
333.04	7.365
333.40	7.357
333.76	7.374
334.11	7.369
334.47	7.322
334.83	7.336
335.19	7.404
335.54	7.410
335.90	7.540
336.26	7.338
336.62	7.312
336.97	7.317
337.33	7.237
337.69	7.375
338.05	7.474
338.40	7.449
338.76	7.458
339.12	7.367
339.48	7.409
339.83	7.325
340.19	7.334
340.55	7.522
340.90	7.417
341.26	7.509
341.62	7.449
341.97	7.509
342.33	7.558
342.69	7.636
343.04	7.568
343.40	7.501
343.76	7.494
344.12	7.535
344.47	7.494
344.83	7.505
345.19	7.494
345.54	7.488
345.90	7.420
346.26	7.398
346.61	7.447
346.97	7.474
347.32	7.522
347.68	7.575
348.04	7.591
348.39	7.580
348.75	7.656
349.11	7.692
349.46	7.681
349.82	7.684
350.18	7.679
350.53	7.623
350.89	7.654
351.24	7.572
351.60	7.568
351.96	7.589
352.31	7.440
352.67	7.464
353.02	7.405
353.38	7.422
353.74	7.323
354.09	7.341
354.45	7.306
354.80	7.301
355.16	7.412
355.52	7.388
355.87	7.345
356.23	7.422
356.58	7.448
356.94	7.391
357.29	7.415
357.65	7.541
358.00	7.531
358.36	7.520
358.72	7.499
359.07	7.469
359.43	7.501
359.78	7.577
360.14	7.518
360.49	7.362
360.85	7.402
361.20	7.334
361.56	7.255
361.91	7.271
362.27	7.245
362.62	7.236
362.98	7.211
363.33	7.123
363.69	7.111
364.04	7.178
364.40	7.288
364.75	7.355
365.11	7.372
365.46	7.429
365.82	7.406
366.17	7.411
366.53	7.422
366.88	7.477
367.24	7.465
367.59	7.438
367.95	7.455
368.30	7.414
368.66	7.397
369.01	7.407
369.37	7.429
369.72	7.418
370.08	7.444
370.43	7.465
370.78	7.481
371.14	7.590
371.49	7.653
371.85	7.689
372.20	7.761
372.56	7.748
372.91	7.740
373.26	7.662
373.62	7.682
373.97	7.700
374.33	7.696
374.68	7.647
375.03	7.610
375.39	7.598
375.74	7.587
376.10	7.579
376.45	7.622
376.80	7.656
377.16	7.763
377.51	7.775
377.87	7.828
378.22	7.847
378.57	7.968
378.93	8.034
379.28	7.996
379.63	8.013
379.99	8.095
380.34	8.149
380.70	8.185
381.05	8.178
381.40	8.270
381.76	8.301
382.11	8.343
382.46	8.285
382.82	8.281
383.17	8.323
383.52	8.310
383.88	8.256
384.23	8.190
384.58	8.179
384.94	8.248
385.29	8.207
385.64	8.297
385.99	8.301
386.35	8.338
386.70	8.344
387.05	8.408
387.41	8.481
387.76	8.501
388.11	8.556
388.47	8.594
388.82	8.618
389.17	8.685
389.52	8.608
389.88	8.670
390.23	8.695
390.58	8.669
390.93	8.694
391.29	8.686
391.64	8.775
391.99	8.837
392.34	8.861
392.70	8.836
393.05	8.854
393.40	8.908
393.75	8.873
394.11	8.886
394.46	8.936
394.81	8.916
395.16	8.934
395.52	8.877
395.87	8.875
396.22	8.844
396.57	8.849
396.92	8.779
397.28	8.723
397.63	8.749
397.98	8.716
398.33	8.717
398.68	8.738
399.04	8.741
399.39	8.764
399.74	8.763
400.09	8.818
400.44	8.802
400.80	8.878
401.15	8.929
401.50	8.927
401.85	8.945
402.20	8.954
402.55	9.003
402.90	8.998
403.26	9.014
403.61	9.026
403.96	9.036
404.31	9.092
404.66	9.104
405.01	9.146
405.36	9.183
405.72	9.219
406.07	9.250
406.42	9.257
406.77	9.291
407.12	9.305
407.47	9.349
407.82	9.357
408.17	9.352
408.53	9.361
408.88	9.360
409.23	9.338
409.58	9.385
409.93	9.393
410.28	9.381
410.63	9.396
410.98	9.396
411.33	9.360
411.68	9.374
412.03	9.401
412.38	9.430
412.73	9.399
413.09	9.427
413.44	9.402
413.79	9.450
414.14	9.529
414.49	9.572
414.84	9.627
415.19	9.709
415.54	9.758
415.89	9.790
416.24	9.814
416.59	9.883
416.94	9.936
417.29	9.964
417.64	9.982
417.99	9.991
418.34	9.998
418.69	10.020
419.04	10.018
419.39	10.055
419.74	10.075
420.09	10.111
420.44	10.117
420.79	10.126
421.14	10.170
421.49	10.198
421.84	10.216
422.19	10.236
422.54	10.267
422.89	10.305
423.24	10.299
423.59	10.294
423.94	10.303
424.29	10.308
424.64	10.334
424.99	10.327
425.34	10.340
425.68	10.355
426.03	10.379
426.38	10.388
426.73	10.398
427.08	10.429
427.43	10.504
427.78	10.557
428.13	10.624
428.48	10.668
428.83	10.743
429.18	10.766
429.53	10.808
429.87	10.853
430.22	10.878
430.57	10.930
430.92	10.932
431.27	10.963
431.62	10.946
431.97	10.960
432.32	10.977
432.67	10.991
433.01	11.043
433.36	11.054
433.71	11.090
434.06	11.107
434.41	11.137
434.76	11.181
435.11	11.224
435.45	11.288
435.80	11.324
436.15	11.368
436.50	11.400
436.85	11.424
437.20	11.454
437.54	11.481
437.89	11.532
438.24	11.548
438.59	11.583
438.94	11.595
439.29	11.603
439.63	11.597
439.98	11.585
440.33	11.599
440.68	11.614
441.03	11.616
441.37	11.645
441.72	11.642
442.07	11.660
442.42	11.671
442.76	11.693
443.11	11.708
443.46	11.760
443.81	11.784
444.16	11.791
444.50	11.788
444.85	11.816
445.20	11.805
445.55	11.820
445.89	11.809
446.24	11.813
446.59	11.783
446.94	11.802
447.28	11.803
447.63	11.802
447.98	11.803
448.32	11.813
448.67	11.815
449.02	11.812
449.37	11.820
449.71	11.799
450.06	11.834
450.41	11.874
450.75	11.877
451.10	11.874
451.45	11.895
451.79	11.878
452.14	11.902
452.49	11.901
452.84	11.930
453.18	11.936
453.53	11.986
453.88	12.006
454.22	12.034
454.57	12.038
454.92	12.081
455.26	12.117
455.61	12.196
455.95	12.238
456.30	12.272
456.65	12.314
456.99	12.336
457.34	12.377
457.69	12.402
458.03	12.426
458.38	12.446
458.73	12.471
459.07	12.502
459.42	12.496
459.76	12.482
460.11	12.494
460.46	12.488
460.80	12.491
461.15	12.498
461.49	12.502
461.84	12.495
462.19	12.547
462.53	12.555
462.88	12.578
463.22	12.610
463.57	12.661
463.91	12.689
464.26	12.730
464.61	12.779
464.95	12.778
465.30	12.796
465.64	12.838
465.99	12.849
466.33	12.886
466.68	12.876
467.02	12.900
467.37	12.904
467.71	12.911
468.06	12.900
468.41	12.887
468.75	12.914
469.10	12.931
469.44	12.914
469.79	12.921
470.13	12.894
470.48	12.888
470.82	12.874
471.17	12.863
471.51	12.879
471.86	12.902
472.20	12.928
472.55	12.935
472.89	12.928
473.23	12.955
473.58	12.950
473.92	13.002
474.27	13.028
474.61	13.051
474.96	13.081
475.30	13.096
475.65	13.093
475.99	13.108
476.34	13.102
476.68	13.129
477.02	13.122
477.37	13.146
477.71	13.121
478.06	13.156
478.40	13.221
478.75	13.331
479.09	13.478
479.43	13.639
479.78	13.816
480.12	13.981
480.47	14.118
480.81	14.252
481.15	14.366
481.50	14.472
481.84	14.603
482.19	14.769
482.53	14.890
482.87	14.938
483.22	14.875
483.56	14.835
483.90	14.816
484.25	14.794
484.59	14.780
484.94	14.747
485.28	14.701
485.62	14.618
485.97	14.487
486.31	14.376
486.65	14.336
487.00	14.415
487.34	14.445
487.68	14.444
488.03	14.444
488.37	14.437
488.71	14.430
489.06	14.453
489.40	14.478
489.74	14.473
490.09	14.482
490.43	14.460
490.77	14.445
491.11	14.431
491.46	14.434
491.80	14.407
492.14	14.383
492.49	14.382
492.83	14.373
493.17	14.350
493.51	14.352
493.86	14.363
494.20	14.389
494.54	14.405
494.88	14.419
495.23	14.432
495.57	14.505
495.91	14.554
496.25	14.593
496.60	14.635
496.94	14.673
497.28	14.714
497.62	14.751
497.97	14.766
498.31	14.829
498.65	14.884
498.99	14.949
499.33	14.982
499.68	15.016
500.02	15.073
500.36	15.121
500.70	15.152
501.04	15.179
501.39	15.206
501.73	15.253
502.07	15.275
502.41	15.349
502.75	15.384
503.09	15.447
503.44	15.513
503.78	15.573
504.12	15.645
504.46	15.731
504.80	15.822
505.14	15.875
505.49	15.958
505.83	16.044
506.17	16.093
506.51	16.144
506.85	16.187
507.19	16.252
507.53	16.295
507.87	16.342
508.22	16.394
508.56	16.425
508.90	16.475
509.24	16.517
509.58	16.558
509.92	16.586
510.26	16.618
510.60	16.653
510.94	16.677
511.28	16.718
511.63	16.739
511.97	16.769
512.31	16.820
512.65	16.858
512.99	16.892
513.33	16.929
513.67	16.993
514.01	17.092
514.35	17.178
514.69	17.276
515.03	17.368
515.37	17.450
515.71	17.539
516.05	17.608
516.39	17.697
516.73	17.775
517.07	17.841
517.41	17.918
517.75	17.967
518.09	17.987
518.43	17.997
518.77	18.005
519.11	18.045
519.45	18.039
519.79	18.057
520.13	18.078
520.47	18.099
520.81	18.139
521.15	18.166
521.49	18.238
521.83	18.333
522.17	18.424
522.51	18.535
522.85	18.599
523.19	18.762
523.53	18.961
523.87	19.183
524.21	19.418
524.55	19.625
524.89	19.820
525.23	19.960
525.57	20.099
525.91	20.232
526.25	20.371
526.58	20.509
526.92	20.609
527.26	20.677
527.60	20.701
527.94	20.715
528.28	20.723
528.62	20.724
528.96	20.746
529.30	20.753
529.64	20.755
529.97	20.722
530.31	20.713
530.65	20.692
530.99	20.682
531.33	20.709
531.67	20.734
532.01	20.775
532.35	20.809
532.68	20.805
533.02	20.839
533.36	20.859
533.70	20.881
534.04	20.886
534.38	20.903
534.71	20.917
535.05	20.932
535.39	20.948
535.73	20.947
536.07	20.995
536.41	21.105
536.74	21.196
537.08	21.321
537.42	21.446
537.76	21.600
538.10	21.754
538.43	21.891
538.77	22.010
539.11	22.123
539.45	22.268
539.79	22.351
540.12	22.423
540.46	22.476
540.80	22.507
541.14	22.538
541.47	22.527
541.81	22.525
542.15	22.528
542.49	22.538
542.82	22.536
543.16	22.520
543.50	22.509
543.84	22.502
544.17	22.517
544.51	22.529
544.85	22.563
545.18	22.595
545.52	22.608
545.86	22.649
546.20	22.672
546.53	22.702
546.87	22.707
547.21	22.763
547.54	22.808
547.88	22.829
548.22	22.875
548.55	22.940
548.89	23.007
549.23	23.078
549.56	23.123
549.90	23.182
550.24	23.245
550.57	23.305
550.91	23.355
551.25	23.369
551.58	23.452
551.92	23.519
552.26	23.537
552.59	23.605
552.93	23.654
553.27	23.709
553.60	23.771
553.94	23.848
554.27	23.925
554.61	23.965
554.95	24.058
555.28	24.059
555.62	24.103
555.95	24.185
556.29	24.240
556.63	24.307
556.96	24.355
557.30	24.433
557.63	24.450
557.97	24.501
558.31	24.588
558.64	24.619
558.98	24.672
559.31	24.710
559.65	24.747
559.98	24.790
560.32	24.847
560.65	24.900
560.99	24.902
561.33	24.993
561.66	25.050
562.00	25.096
562.33	25.207
562.67	25.335
563.00	25.410
563.34	25.469
563.67	25.530
564.01	25.600
564.34	25.667
564.68	25.763
565.01	25.784
565.35	25.855
565.68	25.903
566.02	25.943
566.35	25.966
566.69	26.003
567.02	26.078
567.36	26.129
567.69	26.157
568.03	26.226
568.36	26.286
568.69	26.365
569.03	26.402
569.36	26.453
569.70	26.498
570.03	26.537
570.37	26.585
570.70	26.617
571.04	26.699
571.37	26.757
571.70	26.789
572.04	26.797
572.37	26.838
572.71	26.884
573.04	26.943
573.37	26.964
573.71	27.014
574.04	27.053
574.38	27.074
574.71	27.065
575.04	27.104
575.38	27.146
575.71	27.177
576.05	27.220
576.38	27.212
576.71	27.207
577.05	27.272
577.38	27.303
577.71	27.311
578.05	27.327
578.38	27.343
578.71	27.361
579.05	27.377
579.38	27.395
579.71	27.390
580.05	27.412
580.38	27.455
580.71	27.469
581.05	27.481
581.38	27.538
581.71	27.602
582.05	27.661
582.38	27.688
582.71	27.711
583.04	27.776
583.38	27.796
583.71	27.866
584.04	27.883
584.38	27.893
584.71	27.954
585.04	28.024
585.37	28.079
585.71	28.150
586.04	28.216
586.37	28.275
586.70	28.292
587.04	28.369
587.37	28.411
587.70	28.452
588.03	28.520
588.37	28.545
588.70	28.549
589.03	28.566
589.36	28.581
589.69	28.646
590.03	28.679
590.36	28.736
590.69	28.756
591.02	28.770
591.35	28.820
591.69	28.819
592.02	28.846
592.35	28.911
592.68	28.961
593.01	28.986
593.35	28.999
593.68	29.030
594.01	29.079
594.34	29.107
594.67	29.147
595.00	29.163
595.34	29.196
595.67	29.247
596.00	29.287
596.33	29.304
596.66	29.347
596.99	29.349
597.32	29.407
597.65	29.424
597.99	29.430
598.32	29.458
598.65	29.526
598.98	29.574
599.31	29.618
599.64	29.665
599.97	29.691
600.30	29.751
600.63	29.781
600.96	29.760
601.30	29.781
601.63	29.830
601.96	29.890
602.29	29.928
602.62	29.976
602.95	29.952
603.28	29.955
603.61	29.975
603.94	29.944
604.27	29.965
604.60	29.959
604.93	29.978
605.26	30.031
605.59	30.031
605.92	30.020
606.25	30.021
606.58	30.062
606.91	30.101
607.24	30.164
607.57	30.203
607.90	30.272
608.23	30.351
608.56	30.377
608.89	30.392
609.22	30.427
609.55	30.428
609.88	30.484
610.21	30.512
610.54	30.506
610.87	30.529
611.20	30.526
611.53	30.556
611.86	30.604
612.19	30.634
612.52	30.594
612.85	30.568
613.18	30.631
613.51	30.629
613.84	30.683
614.17	30.669
614.49	30.650
614.82	30.731
615.15	30.683
615.48	30.733
615.81	30.824
616.14	30.957
616.47	31.012
616.80	31.027
617.13	31.033
617.46	31.069
617.78	31.088
618.11	31.110
618.44	31.126
618.77	31.166
619.10	31.121
619.43	31.113
619.76	31.072
620.09	31.104
620.41	31.119
620.74	31.164
621.07	31.153
621.40	31.197
621.73	31.214
622.06	31.236
622.38	31.280
622.71	31.324
623.04	31.282
623.37	31.356
623.70	31.364
624.02	31.391
624.35	31.366
624.68	31.388
625.01	31.401
625.34	31.401
625.66	31.403
625.99	31.358
626.32	31.351
626.65	31.411
626.98	31.366
627.30	31.411
627.63	31.420
627.96	31.432
628.29	31.435
628.61	31.441
628.94	31.503
629.27	31.496
629.60	31.510
629.92	31.544
630.25	31.477
630.58	31.488
630.91	31.480
631.23	31.510
631.56	31.537
631.89	31.540
632.21	31.592
632.54	31.592
632.87	31.583
633.19	31.604
633.52	31.612
633.85	31.646
634.18	31.658
634.50	31.645
634.83	31.644
635.16	31.640
635.48	31.624
635.81	31.594
636.14	31.552
636.46	31.570
636.79	31.594
637.11	31.553
637.44	31.538
637.77	31.527
638.09	31.522
638.42	31.460
638.75	31.543
639.07	31.542
639.40	31.574
639.73	31.589
640.05	31.608
640.38	31.623
640.70	31.679
641.03	31.695
641.36	31.713
641.68	31.754
642.01	31.805
642.33	31.710
642.66	31.795
642.98	31.772
643.31	31.748
643.64	31.784
643.96	31.773
644.29	31.790
644.61	31.806
644.94	31.811
645.26	31.741
645.59	31.729
645.91	31.746
646.24	31.677
646.56	31.650
646.89	31.664
647.22	31.638
647.54	31.655
647.87	31.589
648.19	31.607
648.52	31.644
648.84	31.725
649.17	31.691
649.49	31.703
649.82	31.733
650.14	31.832
650.47	31.815
650.79	31.852
651.11	31.864
651.44	31.852
651.76	31.856
652.09	31.841
652.41	31.828
652.74	31.951
653.06	31.961
653.39	31.932
653.71	31.894
654.04	31.897
654.36	31.830
654.68	31.760
655.01	31.792
655.33	31.813
655.66	31.747
655.98	31.729
656.30	31.653
656.63	31.640
656.95	31.690
657.28	31.705
657.60	31.721
657.92	31.723
658.25	31.741
658.57	31.751
658.90	31.719
659.22	31.768
659.54	31.759
659.87	31.674
660.19	31.664
660.51	31.604
660.84	31.500
661.16	31.454
661.48	31.480
661.81	31.536
662.13	31.480
662.45	31.508
662.78	31.499
663.10	31.455
663.42	31.553
663.75	31.523
664.07	31.479
664.39	31.523
664.72	31.582
665.04	31.497
665.36	31.416
665.69	31.481
666.01	31.480
666.33	31.417
666.65	31.439
666.98	31.436
667.30	31.453
667.62	31.524
667.94	31.538
668.27	31.534
668.59	31.541
668.91	31.521
669.23	31.477
669.56	31.395
669.88	31.427
670.20	31.472
670.52	31.408
670.85	31.358
671.17	31.272
671.49	31.201
671.81	31.150
672.13	31.180
672.46	31.193
672.78	31.196
673.10	31.214
673.42	31.174
673.74	31.078
674.07	31.105
674.39	31.164
674.71	31.157
675.03	31.175
675.35	31.220
675.67	31.188
676.00	31.224
676.32	31.184
676.64	31.201
676.96	31.204
677.28	31.255
677.60	31.256
677.92	31.205
678.25	31.199
678.57	31.219
678.89	31.196
679.21	31.196
679.53	31.169
679.85	31.200
680.17	31.214
680.49	31.225
680.81	31.226
681.13	31.246
681.46	31.273
681.78	31.350
682.10	31.330
682.42	31.340
682.74	31.314
683.06	31.312
683.38	31.271
683.70	31.240
684.02	31.280
684.34	31.235
684.66	31.223
684.98	31.271
685.30	31.280
685.62	31.306
685.94	31.328
686.26	31.413
686.58	31.430
686.90	31.456
687.22	31.486
687.54	31.510
687.86	31.524
688.18	31.511
688.50	31.460
688.82	31.413
689.14	31.401
689.46	31.349
689.78	31.308
690.10	31.346
690.42	31.367
690.74	31.343
691.06	31.281
691.38	31.263
691.70	31.217
692.02	31.159
692.34	31.116
692.66	31.097
692.98	31.160
693.30	31.126
693.62	31.087
693.94	31.062
694.26	31.052
694.57	31.082
694.89	31.058
695.21	31.056
695.53	31.076
695.85	31.024
696.17	31.024
696.49	31.014
696.81	31.014
697.13	30.933
697.44	30.966
697.76	30.984
698.08	30.940
698.40	30.927
698.72	30.929
699.04	30.947
699.36	31.006
699.67	31.001
699.99	30.926
700.31	30.921
700.63	30.922
700.95	30.822
701.27	30.676
701.58	30.626
701.90	30.565
702.22	30.464
702.54	30.362
702.86	30.323
703.17	30.190
703.49	30.119
703.81	30.092
704.13	30.057
704.45	30.001
704.76	29.969
705.08	29.832
705.40	29.800
705.72	29.804
706.03	29.780
706.35	29.750
706.67	29.767
706.99	29.693
707.30	29.666
707.62	29.668
707.94	29.676
708.26	29.730
708.57	29.731
708.89	29.789
709.21	29.822
709.53	29.928
709.84	29.897
710.16	29.890
710.48	29.866
710.79	29.777
711.11	29.788
711.43	29.722
711.74	29.687
712.06	29.816
712.38	29.800
712.69	29.807
713.01	29.779
713.33	29.839
713.64	29.967
713.96	30.033
714.28	30.132
714.59	30.212
714.91	30.308
715.23	30.326
715.54	30.217
715.86	30.205
716.17	30.248
716.49	30.130
716.81	29.983
717.12	29.802
717.44	29.840
717.76	29.820
718.07	29.646
718.39	29.620
718.70	29.550
719.02	29.582
719.33	29.493
719.65	29.263
719.97	29.236
720.28	29.319
720.60	29.303
720.91	29.213
721.23	29.045
721.54	29.076
721.86	28.977
722.17	29.055
722.49	28.975
722.81	29.079
723.12	29.208
723.44	29.247
723.75	29.105
724.07	29.047
724.38	29.129
724.70	29.124
725.01	29.158
725.33	29.180
725.64	29.110
725.96	29.155
726.27	29.117
726.59	29.045
726.90	29.033
727.22	29.016
727.53	29.032
727.84	28.993
728.16	29.169
728.47	29.054
728.79	29.023
729.10	28.930
729.42	28.794
729.73	28.722
730.05	28.720
730.36	28.606
730.67	28.710
730.99	28.704
731.30	28.665
731.62	28.475
731.93	28.327
732.24	28.248
732.56	28.230
732.87	28.252
733.19	28.175
733.50	28.160
733.81	28.172
734.13	28.027
734.44	27.910
734.76	27.810
735.07	27.544
735.38	27.514
735.70	27.393
736.01	27.305
736.32	27.179
736.64	27.027
736.95	26.789
737.26	26.640
737.58	26.553
737.89	26.516
738.20	26.355
738.52	26.564
738.83	26.528
739.14	26.483
739.45	26.433
739.77	26.453
740.08	26.396
740.39	26.366
740.71	26.275
741.02	26.224
741.33	26.012
741.64	26.117
741.96	26.024
742.27	26.025
742.58	25.924
742.90	26.012
743.21	25.831
743.52	25.824
743.83	25.705
744.14	25.843
744.46	25.738
744.77	25.920
745.08	25.822
745.39	25.631
745.71	25.561
746.02	25.529
746.33	25.258
746.64	25.481
746.95	25.275
747.27	25.292
747.58	25.122
747.89	25.074
748.20	25.059
748.51	24.923
748.82	24.869
749.14	24.731
749.45	24.710
749.76	24.884
750.07	24.545
750.38	24.603
750.69	24.514
751.01	24.382
751.32	24.353
751.63	24.203
751.94	24.125
752.25	24.089
752.56	24.079
752.87	24.102
753.18	23.927
753.49	24.192
753.81	24.242
754.12	24.295
754.43	24.261
754.74	24.317
755.05	24.246
755.36	24.489
755.67	24.651
755.98	24.909
756.29	25.052
756.60	25.209
756.91	25.314
757.22	25.382
757.53	25.754
757.84	26.120
758.15	26.277
758.46	26.603
758.77	26.698
759.09	26.931
759.40	27.019
759.71	27.216
760.02	27.356
760.33	27.363
760.64	27.487
760.95	27.552
761.26	27.484
761.57	27.573
761.88	27.414
762.18	27.336
762.49	27.241
762.80	27.104
763.11	26.867
763.42	26.705
763.73	26.574
764.04	26.299
764.35	25.898
764.66	25.685
764.97	25.326
765.28	25.161
765.59	24.849
765.90	24.382
766.21	24.005
766.52	23.671
766.83	23.355
767.14	22.920
767.44	22.823
767.75	22.398
768.06	22.038
768.37	21.608
768.68	21.377
768.99	21.133
769.30	21.149
769.61	21.189
769.91	21.185
770.22	21.067
770.53	21.090
770.84	21.022
771.15	21.168
771.46	21.353
771.77	21.501
772.07	21.426
772.38	21.247
772.69	21.092
773.00	20.820
773.31	20.957
773.61	20.930
773.92	20.884
774.23	20.717
774.54	20.758
774.85	20.735
775.15	20.777
775.46	20.510
775.77	20.843
776.08	20.809
776.39	21.013
776.69	20.653
777.00	20.517
777.31	20.415
777.62	20.423
777.92	20.357
778.23	20.098
778.54	20.051
778.85	20.256
779.15	19.716
779.46	19.796
779.77	19.514
780.07	19.495
780.38	19.555
780.69	19.373
781.00	19.554
781.30	19.276
781.61	19.404
781.92	19.556
782.22	19.670
782.53	20.244
782.84	20.303
783.14	20.498
783.45	20.511
783.76	20.261
784.06	20.493
784.37	20.361
784.68	20.779
784.98	20.794
785.29	20.859
785.60	20.840
785.90	20.778
786.21	20.694
786.51	20.785
786.82	20.980
787.13	21.384
787.43	21.645
787.74	21.776
788.04	21.600
788.35	21.485
788.66	21.110
788.96	21.103
789.27	21.017
789.57	21.211
789.88	20.863
790.19	20.634
790.49	20.346
790.80	19.762
791.10	19.462
791.41	19.932
791.71	20.023
792.02	20.130
792.32	20.279
792.63	20.264
792.93	19.913
793.24	20.212
793.54	20.338
793.85	20.380
794.15	20.714
794.46	20.768
794.76	20.489
795.07	20.565
795.37	20.783
795.68	20.681
795.98	20.686
796.29	20.976
796.59	21.001
796.90	20.913
797.20	21.421
797.51	21.387
797.81	21.292
798.12	21.257
798.42	21.172
798.72	21.299
799.03	21.255
799.33	21.339
799.64	21.346
799.94	21.522
800.25	21.380
800.55	20.602
800.85	20.567
801.16	20.622
801.46	20.662
801.77	20.341
802.07	20.077
802.37	20.226
802.68	19.956
802.98	20.164
803.28	19.775
803.59	20.107
803.89	20.248
804.20	19.796
804.50	20.254
804.80	20.134
805.11	20.144
805.41	20.347
805.71	20.234
806.02	19.932
806.32	19.094
806.62	19.379
806.93	19.247
807.23	19.551
807.53	19.977
807.83	19.682
808.14	19.976
808.44	20.457
808.74	20.349
809.05	20.558
809.35	21.214
809.65	21.831
809.95	21.722
810.26	21.695
810.56	21.462
810.86	21.827
811.16	21.945
811.47	21.596
811.77	21.520
812.07	21.392
812.37	21.318
812.68	21.185
812.98	21.038
813.28	21.149
813.58	21.591
813.88	21.954
814.19	21.631
814.49	21.725
814.79	22.274
815.09	22.316
815.39	22.508
815.70	22.346
816.00	22.394
816.30	22.442
816.60	22.700
816.90	22.621
817.20	22.724
817.50	23.050
817.81	23.177
818.11	23.150
818.41	23.379
818.71	23.676
819.01	23.964
819.31	24.232
819.61	24.352
819.92	24.377
820.22	24.356
820.52	24.391
820.82	24.458
821.12	24.417
821.42	24.375
821.72	24.350
822.02	24.316
822.32	24.195
822.62	24.060
822.92	24.026
823.22	23.936
823.52	23.923
823.83	23.831
824.13	23.810
824.43	23.835
824.73	23.805
825.03	23.820
825.33	23.701
825.63	23.737
825.93	23.738
826.23	23.548
826.53	23.455
826.83	23.452
827.13	23.452
827.43	23.265
827.73	23.098
828.03	22.995
828.33	22.823
828.63	22.642
828.93	22.474
829.23	22.138
829.53	22.271
829.83	22.400
830.13	22.274
830.42	21.925
830.72	21.776
831.02	21.925
831.32	22.248
831.62	22.198
831.92	22.386
832.22	22.330
832.52	22.511
832.82	22.497
833.12	22.424
833.42	22.201
833.72	22.061
834.01	21.727
834.31	21.490
834.61	20.945
834.91	20.709
835.21	20.421
835.51	20.483
835.81	20.088
836.11	19.541
836.40	19.486
836.70	19.068
837.00	19.227
837.30	19.183
837.60	19.053
837.90	19.174
838.19	19.494
838.49	19.168
838.79	18.464
839.09	18.751
839.39	18.966
839.68	18.178
839.98	18.836
840.28	18.065
840.58	18.145
840.88	17.596
841.17	17.400
841.47	16.851
841.77	17.160
842.07	16.701
842.36	16.052
842.66	15.335
842.96	14.849
843.26	14.454
843.55	14.139
843.85	14.697
844.15	14.749
844.45	15.914
844.74	16.335
845.04	16.712
845.34	17.141
845.63	17.536
845.93	17.956
846.23	18.094
846.53	16.226
846.82	17.057
847.12	14.939
847.42	15.891
847.71	13.794
848.01	12.817
848.31	11.814
848.60	12.773
848.90	11.469
849.19	10.728
849.49	9.504
849.79	10.530
850.08	9.940
850.38	11.400
850.68	11.933
850.97	13.674
851.27	13.546
851.56	14.070
851.86	11.444
852.16	12.528
852.45	14.208
852.75	13.628
853.04	11.548
853.34	11.378
853.64	9.066
853.93	6.804
854.23	3.145
854.52	3.051
854.82	2.069
855.11	4.252
855.41	4.282
855.70	3.273
856.00	4.705
856.30	8.672
856.59	9.270
856.89	10.653
857.18	11.456
857.48	13.047
857.77	12.269
858.07	11.515
858.36	11.646
858.66	11.847
858.95	10.656
859.25	11.414
859.54	9.111
859.84	10.385
860.13	9.901
860.42	9.554
860.72	11.186
861.01	13.338
861.31	14.884
861.60	14.248
861.90	11.892
862.19	11.998
862.49	13.107
862.78	12.868
863.07	10.650
863.37	10.849
863.66	10.436
863.96	11.342
864.25	10.839
864.54	10.197
864.84	11.244
865.13	13.510
865.43	14.693
865.72	16.525
866.01	10.436
866.31	20.586
866.60	17.283
866.89	22.726
>>>>>End Spectral Data<<<<<
