OOIBase32 Version 2.0.0.6 Data File
++++++++++++++++++++++++++++++++++++
Date: 01-18-2012, 22:39:07
User: Valued Ocean Optics Customer
Spectrometer Serial Number: USB2E2917
Spectrometer Channel: Master
Integration Time (msec): 5
Spectra Averaged: 10
Boxcar Smoothing: 5
Correct for Electrical Dark: Enabled
Time Normalized: Disabled
Dual-beam Reference: Disabled
Reference Channel: Master
Temperature: Not acquired
Spectrometer Type: S2000
ADC Type: USB2000
Number of Pixels in File: 2048
Graph Title: 
>>>>>Begin Spectral Data<<<<<
180.30	0.000
180.67	0.000
181.03	556.720
181.40	-2528.620
181.77	-145.733
182.14	475.493
182.51	-160.607
182.88	261.728
183.25	3.246
183.62	89.788
183.99	552.224
184.36	-405.282
184.73	-35.254
185.10	134.996
185.46	-69.134
185.83	24.396
186.20	250.390
186.57	-259.864
186.94	104.137
187.31	22.663
187.68	70.760
188.05	59.229
188.42	20.751
188.78	27.376
189.15	7.424
189.52	-33.176
189.89	-25.685
190.26	-15.432
190.63	20.307
191.00	9.858
191.37	1.514
191.73	-5.353
192.10	-10.066
192.47	-10.964
192.84	-45.345
193.21	-39.435
193.58	9.769
193.94	-16.997
194.31	-16.440
194.68	-51.061
195.05	-43.365
195.42	-30.838
195.79	-13.420
196.15	-12.291
196.52	-21.274
196.89	-37.332
197.26	-28.169
197.63	-153.998
198.00	-26.665
198.36	-29.906
198.73	-27.742
199.10	-4.462
199.47	2.823
199.84	-5.834
200.20	-18.567
200.57	-12.954
200.94	0.944
201.31	1.657
201.68	12.575
202.04	-0.546
202.41	3.473
202.78	9.210
203.15	-3.497
203.51	-9.292
203.88	-8.769
204.25	-8.612
204.62	-0.845
204.98	8.800
205.35	12.516
205.72	13.546
206.09	30.309
206.46	28.140
206.82	27.901
207.19	31.259
207.56	22.127
207.92	20.729
208.29	34.585
208.66	28.748
209.03	22.382
209.39	11.014
209.76	7.734
210.13	-6.168
210.50	-7.241
210.86	-14.930
211.23	-3.235
211.60	-0.006
211.96	1.311
212.33	-16.739
212.70	-15.607
213.07	-15.913
213.43	-8.691
213.80	-13.050
214.17	-15.815
214.53	-18.617
214.90	-9.319
215.27	-17.937
215.63	-3.635
216.00	-13.816
216.37	-10.850
216.74	-1.366
217.10	1.285
217.47	4.736
217.84	21.583
218.20	26.115
218.57	47.008
218.94	56.476
219.30	62.513
219.67	48.187
220.04	54.529
220.40	45.705
220.77	30.571
221.13	19.133
221.50	21.761
221.87	24.130
222.23	17.089
222.60	15.016
222.97	4.819
223.33	9.620
223.70	12.088
224.07	15.230
224.43	17.726
224.80	13.541
225.16	16.582
225.53	15.838
225.90	12.180
226.26	12.656
226.63	11.708
226.99	12.399
227.36	8.902
227.73	7.925
228.09	7.255
228.46	7.970
228.82	8.668
229.19	7.281
229.56	7.271
229.92	8.960
230.29	11.074
230.65	10.954
231.02	11.364
231.38	11.233
231.75	10.979
232.12	10.910
232.48	12.235
232.85	14.379
233.21	15.838
233.58	14.591
233.94	11.385
234.31	9.781
234.68	10.192
235.04	9.136
235.41	11.393
235.77	11.803
236.14	11.666
236.50	10.075
236.87	9.168
237.23	7.554
237.60	8.774
237.96	9.001
238.33	9.155
238.69	8.780
239.06	9.375
239.42	8.631
239.79	8.759
240.15	8.265
240.52	7.910
240.88	8.116
241.25	7.993
241.61	6.996
241.98	7.807
242.34	7.677
242.71	7.491
243.07	6.734
243.44	6.774
243.80	6.338
244.17	6.103
244.53	6.023
244.90	5.770
245.26	5.973
245.63	6.193
245.99	5.987
246.36	6.084
246.72	6.378
247.09	6.670
247.45	7.116
247.81	7.736
248.18	7.661
248.54	7.621
248.91	7.895
249.27	8.348
249.64	8.123
250.00	8.176
250.36	8.222
250.73	7.847
251.09	8.031
251.46	7.615
251.82	7.315
252.19	7.911
252.55	7.734
252.91	8.066
253.28	7.330
253.64	7.438
254.01	7.431
254.37	7.206
254.73	6.738
255.10	6.486
255.46	6.205
255.83	5.575
256.19	5.353
256.55	5.700
256.92	5.647
257.28	5.517
257.65	5.564
258.01	5.256
258.37	5.001
258.74	5.090
259.10	4.823
259.46	4.692
259.83	5.106
260.19	5.281
260.55	5.029
260.92	5.524
261.28	5.871
261.64	5.637
262.01	6.389
262.37	6.864
262.73	7.371
263.10	7.702
263.46	7.818
263.82	7.561
264.19	7.281
264.55	7.300
264.91	6.392
265.28	5.955
265.64	5.665
266.00	5.307
266.37	5.444
266.73	4.458
267.09	4.792
267.46	4.814
267.82	4.737
268.18	4.883
268.54	5.128
268.91	5.169
269.27	5.438
269.63	6.404
270.00	6.171
270.36	5.853
270.72	6.436
271.08	6.211
271.45	6.214
271.81	6.093
272.17	5.830
272.53	5.674
272.90	5.560
273.26	5.303
273.62	4.681
273.98	4.920
274.35	4.460
274.71	3.711
275.07	3.492
275.43	3.659
275.80	3.670
276.16	3.993
276.52	4.232
276.88	4.232
277.25	4.538
277.61	4.508
277.97	4.509
278.33	4.791
278.69	5.224
279.06	5.441
279.42	5.123
279.78	5.352
280.14	5.347
280.50	5.426
280.87	5.552
281.23	5.498
281.59	5.546
281.95	5.348
282.31	5.167
282.68	5.115
283.04	5.349
283.40	5.312
283.76	5.007
284.12	4.786
284.48	4.558
284.85	4.317
285.21	3.784
285.57	3.976
285.93	4.017
286.29	4.391
286.65	4.433
287.02	4.110
287.38	4.318
287.74	4.451
288.10	4.618
288.46	4.885
288.82	5.053
289.18	5.517
289.54	5.047
289.91	5.154
290.27	4.889
290.63	4.863
290.99	4.736
291.35	4.530
291.71	4.573
292.07	4.646
292.43	4.471
292.79	4.565
293.16	4.818
293.52	5.427
293.88	5.567
294.24	6.019
294.60	6.161
294.96	6.450
295.32	6.562
295.68	6.546
296.04	6.363
296.40	6.615
296.76	6.532
297.12	6.667
297.49	6.719
297.85	6.721
298.21	6.520
298.57	6.448
298.93	6.215
299.29	6.368
299.65	6.668
300.01	7.183
300.37	6.917
300.73	7.019
301.09	6.942
301.45	6.721
301.81	6.691
302.17	6.565
302.53	6.909
302.89	7.077
303.25	6.979
303.61	6.941
303.97	6.826
304.33	7.024
304.69	6.999
305.05	6.965
305.41	6.987
305.77	6.991
306.13	7.186
306.49	6.928
306.85	6.903
307.21	7.021
307.57	7.126
307.93	7.183
308.29	7.310
308.65	7.395
309.01	7.235
309.37	7.234
309.73	7.287
310.09	7.314
310.45	7.320
310.81	7.396
311.17	7.267
311.53	7.206
311.89	7.013
312.25	6.908
312.61	6.817
312.96	6.806
313.32	6.638
313.68	6.524
314.04	6.496
314.40	6.667
314.76	6.528
315.12	6.668
315.48	6.545
315.84	6.578
316.20	6.610
316.56	6.616
316.92	6.780
317.27	6.779
317.63	6.669
317.99	6.796
318.35	6.710
318.71	6.631
319.07	6.455
319.43	6.295
319.79	6.353
320.15	6.281
320.50	6.279
320.86	6.329
321.22	6.516
321.58	6.637
321.94	6.487
322.30	6.482
322.66	6.635
323.01	6.819
323.37	6.988
323.73	6.834
324.09	6.660
324.45	6.652
324.81	6.493
325.17	6.574
325.52	6.672
325.88	6.729
326.24	6.733
326.60	6.752
326.96	6.618
327.31	6.546
327.67	6.507
328.03	6.703
328.39	6.745
328.75	6.835
329.11	6.736
329.46	6.640
329.82	6.402
330.18	6.364
330.54	6.347
330.90	6.295
331.25	6.315
331.61	6.330
331.97	6.310
332.33	6.272
332.68	6.286
333.04	6.354
333.40	6.379
333.76	6.579
334.11	6.479
334.47	6.452
334.83	6.483
335.19	6.505
335.54	6.499
335.90	6.513
336.26	6.538
336.62	6.472
336.97	6.382
337.33	6.340
337.69	6.299
338.05	6.332
338.40	6.287
338.76	6.298
339.12	6.286
339.48	6.334
339.83	6.247
340.19	6.163
340.55	6.235
340.90	6.161
341.26	6.156
341.62	6.056
341.97	6.093
342.33	6.101
342.69	6.060
343.04	6.014
343.40	5.985
343.76	6.035
344.12	6.071
344.47	6.060
344.83	6.089
345.19	5.969
345.54	5.968
345.90	6.006
346.26	5.952
346.61	6.020
346.97	6.045
347.32	6.045
347.68	6.087
348.04	6.162
348.39	6.059
348.75	6.002
349.11	6.053
349.46	6.101
349.82	6.024
350.18	6.040
350.53	6.029
350.89	6.029
351.24	6.027
351.60	5.922
351.96	5.853
352.31	5.888
352.67	5.941
353.02	5.937
353.38	5.902
353.74	5.790
354.09	5.743
354.45	5.750
354.80	5.764
355.16	5.807
355.52	5.736
355.87	5.698
356.23	5.699
356.58	5.726
356.94	5.652
357.29	5.593
357.65	5.687
358.00	5.687
358.36	5.585
358.72	5.570
359.07	5.535
359.43	5.613
359.78	5.606
360.14	5.551
360.49	5.456
360.85	5.454
361.20	5.432
361.56	5.446
361.91	5.492
362.27	5.553
362.62	5.492
362.98	5.384
363.33	5.280
363.69	5.285
364.04	5.290
364.40	5.363
364.75	5.418
365.11	5.477
365.46	5.443
365.82	5.404
366.17	5.325
366.53	5.328
366.88	5.409
367.24	5.446
367.59	5.460
367.95	5.528
368.30	5.450
368.66	5.484
369.01	5.432
369.37	5.414
369.72	5.388
370.08	5.427
370.43	5.424
370.78	5.401
371.14	5.438
371.49	5.458
371.85	5.429
372.20	5.498
372.56	5.474
372.91	5.496
373.26	5.464
373.62	5.475
373.97	5.464
374.33	5.468
374.68	5.442
375.03	5.422
375.39	5.353
375.74	5.357
376.10	5.297
376.45	5.291
376.80	5.327
377.16	5.386
377.51	5.381
377.87	5.427
378.22	5.432
378.57	5.539
378.93	5.558
379.28	5.568
379.63	5.567
379.99	5.679
380.34	5.691
380.70	5.696
381.05	5.689
381.40	5.700
381.76	5.663
382.11	5.661
382.46	5.559
382.82	5.571
383.17	5.608
383.52	5.663
383.88	5.577
384.23	5.549
384.58	5.518
384.94	5.539
385.29	5.539
385.64	5.563
385.99	5.557
386.35	5.612
386.70	5.612
387.05	5.666
387.41	5.626
387.76	5.630
388.11	5.677
388.47	5.714
388.82	5.690
389.17	5.716
389.52	5.677
389.88	5.711
390.23	5.757
390.58	5.756
390.93	5.721
391.29	5.705
391.64	5.773
391.99	5.833
392.34	5.831
392.70	5.869
393.05	5.871
393.40	5.907
393.75	5.884
394.11	5.831
394.46	5.821
394.81	5.812
395.16	5.822
395.52	5.774
395.87	5.701
396.22	5.702
396.57	5.673
396.92	5.621
397.28	5.566
397.63	5.600
397.98	5.566
398.33	5.549
398.68	5.542
399.04	5.549
399.39	5.582
399.74	5.588
400.09	5.523
400.44	5.526
400.80	5.579
401.15	5.645
401.50	5.627
401.85	5.662
402.20	5.663
402.55	5.656
402.90	5.631
403.26	5.592
403.61	5.596
403.96	5.654
404.31	5.644
404.66	5.643
405.01	5.605
405.36	5.630
405.72	5.635
406.07	5.659
406.42	5.677
406.77	5.702
407.12	5.726
407.47	5.743
407.82	5.754
408.17	5.782
408.53	5.790
408.88	5.849
409.23	5.829
409.58	5.842
409.93	5.836
410.28	5.845
410.63	5.864
410.98	5.853
411.33	5.848
411.68	5.869
412.03	5.897
412.38	5.908
412.73	5.891
413.09	5.928
413.44	5.961
413.79	5.977
414.14	5.990
414.49	6.033
414.84	6.089
415.19	6.146
415.54	6.192
415.89	6.215
416.24	6.260
416.59	6.322
416.94	6.339
417.29	6.370
417.64	6.417
417.99	6.462
418.34	6.483
418.69	6.508
419.04	6.507
419.39	6.511
419.74	6.527
420.09	6.537
420.44	6.534
420.79	6.551
421.14	6.556
421.49	6.568
421.84	6.571
422.19	6.564
422.54	6.575
422.89	6.602
423.24	6.604
423.59	6.607
423.94	6.623
424.29	6.634
424.64	6.634
424.99	6.638
425.34	6.626
425.68	6.641
426.03	6.644
426.38	6.666
426.73	6.674
427.08	6.696
427.43	6.743
427.78	6.745
428.13	6.764
428.48	6.822
428.83	6.863
429.18	6.931
429.53	6.944
429.87	7.014
430.22	7.016
430.57	7.066
430.92	7.078
431.27	7.087
431.62	7.106
431.97	7.116
432.32	7.121
432.67	7.122
433.01	7.101
433.36	7.128
433.71	7.114
434.06	7.131
434.41	7.110
434.76	7.127
435.11	7.147
435.45	7.207
435.80	7.225
436.15	7.260
436.50	7.297
436.85	7.349
437.20	7.390
437.54	7.433
437.89	7.467
438.24	7.492
438.59	7.523
438.94	7.536
439.29	7.527
439.63	7.547
439.98	7.549
440.33	7.554
440.68	7.568
441.03	7.562
441.37	7.558
441.72	7.566
442.07	7.596
442.42	7.620
442.76	7.652
443.11	7.678
443.46	7.724
443.81	7.739
444.16	7.769
444.50	7.780
444.85	7.800
445.20	7.812
445.55	7.804
445.89	7.789
446.24	7.767
446.59	7.746
446.94	7.753
447.28	7.748
447.63	7.733
447.98	7.720
448.32	7.710
448.67	7.709
449.02	7.713
449.37	7.752
449.71	7.779
450.06	7.820
450.41	7.850
450.75	7.860
451.10	7.870
451.45	7.893
451.79	7.904
452.14	7.922
452.49	7.903
452.84	7.945
453.18	7.949
453.53	7.969
453.88	7.986
454.22	8.029
454.57	8.027
454.92	8.049
455.26	8.088
455.61	8.115
455.95	8.160
456.30	8.227
456.65	8.241
456.99	8.269
457.34	8.313
457.69	8.352
458.03	8.365
458.38	8.391
458.73	8.415
459.07	8.435
459.42	8.454
459.76	8.455
460.11	8.450
460.46	8.467
460.80	8.465
461.15	8.438
461.49	8.426
461.84	8.449
462.19	8.488
462.53	8.515
462.88	8.562
463.22	8.613
463.57	8.633
463.91	8.654
464.26	8.678
464.61	8.711
464.95	8.737
465.30	8.776
465.64	8.787
465.99	8.800
466.33	8.790
466.68	8.792
467.02	8.792
467.37	8.828
467.71	8.853
468.06	8.879
468.41	8.889
468.75	8.943
469.10	8.948
469.44	8.957
469.79	8.989
470.13	9.017
470.48	9.019
470.82	9.035
471.17	9.035
471.51	9.053
471.86	9.047
472.20	9.056
472.55	9.039
472.89	9.039
473.23	9.031
473.58	9.009
473.92	9.025
474.27	9.025
474.61	9.024
474.96	9.024
475.30	9.020
475.65	9.044
475.99	9.045
476.34	9.050
476.68	9.071
477.02	9.067
477.37	9.089
477.71	9.110
478.06	9.152
478.40	9.206
478.75	9.289
479.09	9.405
479.43	9.514
479.78	9.651
480.12	9.770
480.47	9.875
480.81	9.997
481.15	10.085
481.50	10.159
481.84	10.254
482.19	10.367
482.53	10.469
482.87	10.511
483.22	10.480
483.56	10.458
483.90	10.450
484.25	10.451
484.59	10.425
484.94	10.397
485.28	10.374
485.62	10.326
485.97	10.234
486.31	10.139
486.65	10.110
487.00	10.166
487.34	10.202
487.68	10.200
488.03	10.194
488.37	10.203
488.71	10.214
489.06	10.215
489.40	10.222
489.74	10.252
490.09	10.268
490.43	10.276
490.77	10.246
491.11	10.225
491.46	10.233
491.80	10.209
492.14	10.208
492.49	10.210
492.83	10.215
493.17	10.211
493.51	10.216
493.86	10.230
494.20	10.224
494.54	10.267
494.88	10.305
495.23	10.360
495.57	10.447
495.91	10.498
496.25	10.562
496.60	10.622
496.94	10.661
497.28	10.693
497.62	10.737
497.97	10.782
498.31	10.829
498.65	10.877
498.99	10.907
499.33	10.920
499.68	10.956
500.02	10.972
500.36	11.009
500.70	11.078
501.04	11.118
501.39	11.173
501.73	11.232
502.07	11.310
502.41	11.396
502.75	11.455
503.09	11.522
503.44	11.592
503.78	11.680
504.12	11.753
504.46	11.796
504.80	11.886
505.14	11.948
505.49	12.044
505.83	12.110
506.17	12.156
506.51	12.211
506.85	12.269
507.19	12.325
507.53	12.374
507.87	12.427
508.22	12.491
508.56	12.541
508.90	12.584
509.24	12.601
509.58	12.624
509.92	12.657
510.26	12.692
510.60	12.738
510.94	12.768
511.28	12.793
511.63	12.822
511.97	12.857
512.31	12.892
512.65	12.930
512.99	12.989
513.33	13.032
513.67	13.108
514.01	13.186
514.35	13.246
514.69	13.320
515.03	13.393
515.37	13.466
515.71	13.537
516.05	13.589
516.39	13.642
516.73	13.681
517.07	13.720
517.41	13.759
517.75	13.773
518.09	13.782
518.43	13.786
518.77	13.784
519.11	13.782
519.45	13.767
519.79	13.769
520.13	13.790
520.47	13.781
520.81	13.811
521.15	13.814
521.49	13.848
521.83	13.894
522.17	13.939
522.51	13.990
522.85	14.048
523.19	14.153
523.53	14.279
523.87	14.426
524.21	14.570
524.55	14.704
524.89	14.834
525.23	14.955
525.57	15.067
525.91	15.175
526.25	15.280
526.58	15.370
526.92	15.439
527.26	15.479
527.60	15.494
527.94	15.515
528.28	15.522
528.62	15.505
528.96	15.506
529.30	15.486
529.64	15.462
529.97	15.418
530.31	15.375
530.65	15.327
530.99	15.285
531.33	15.257
531.67	15.241
532.01	15.225
532.35	15.229
532.68	15.190
533.02	15.182
533.36	15.155
533.70	15.143
534.04	15.126
534.38	15.119
534.71	15.107
535.05	15.104
535.39	15.077
535.73	15.053
536.07	15.039
536.41	15.065
536.74	15.092
537.08	15.155
537.42	15.216
537.76	15.295
538.10	15.357
538.43	15.440
538.77	15.505
539.11	15.571
539.45	15.633
539.79	15.703
540.12	15.749
540.46	15.759
540.80	15.765
541.14	15.758
541.47	15.717
541.81	15.685
542.15	15.663
542.49	15.629
542.82	15.598
543.16	15.566
543.50	15.512
543.84	15.442
544.17	15.401
544.51	15.361
544.85	15.344
545.18	15.344
545.52	15.341
545.86	15.321
546.20	15.316
546.53	15.281
546.87	15.249
547.21	15.215
547.54	15.223
547.88	15.233
548.22	15.238
548.55	15.266
548.89	15.294
549.23	15.315
549.56	15.298
549.90	15.258
550.24	15.285
550.57	15.300
550.91	15.318
551.25	15.336
551.58	15.365
551.92	15.357
552.26	15.319
552.59	15.284
552.93	15.273
553.27	15.273
553.60	15.300
553.94	15.314
554.27	15.322
554.61	15.333
554.95	15.322
555.28	15.320
555.62	15.341
555.95	15.366
556.29	15.409
556.63	15.438
556.96	15.470
557.30	15.510
557.63	15.491
557.97	15.518
558.31	15.531
558.64	15.545
558.98	15.534
559.31	15.541
559.65	15.558
559.98	15.546
560.32	15.547
560.65	15.566
560.99	15.568
561.33	15.613
561.66	15.637
562.00	15.695
562.33	15.729
562.67	15.795
563.00	15.812
563.34	15.849
563.67	15.908
564.01	15.958
564.34	15.986
564.68	16.014
565.01	16.029
565.35	16.021
565.68	16.017
566.02	16.019
566.35	16.024
566.69	16.048
567.02	16.073
567.36	16.075
567.69	16.062
568.03	16.099
568.36	16.098
568.69	16.114
569.03	16.142
569.36	16.126
569.70	16.168
570.03	16.170
570.37	16.176
570.70	16.157
571.04	16.186
571.37	16.220
571.70	16.212
572.04	16.218
572.37	16.225
572.71	16.231
573.04	16.266
573.37	16.280
573.71	16.297
574.04	16.311
574.38	16.291
574.71	16.296
575.04	16.262
575.38	16.258
575.71	16.238
576.05	16.229
576.38	16.230
576.71	16.207
577.05	16.191
577.38	16.164
577.71	16.135
578.05	16.177
578.38	16.138
578.71	16.172
579.05	16.163
579.38	16.189
579.71	16.199
580.05	16.189
580.38	16.202
580.71	16.198
581.05	16.200
581.38	16.210
581.71	16.198
582.05	16.195
582.38	16.153
582.71	16.174
583.04	16.185
583.38	16.185
583.71	16.199
584.04	16.218
584.38	16.237
584.71	16.261
585.04	16.273
585.37	16.326
585.71	16.381
586.04	16.436
586.37	16.446
586.70	16.445
587.04	16.461
587.37	16.480
587.70	16.457
588.03	16.464
588.37	16.476
588.70	16.513
589.03	16.514
589.36	16.518
589.69	16.508
590.03	16.522
590.36	16.545
590.69	16.565
591.02	16.530
591.35	16.545
591.69	16.539
592.02	16.530
592.35	16.556
592.68	16.530
593.01	16.520
593.35	16.528
593.68	16.487
594.01	16.478
594.34	16.466
594.67	16.512
595.00	16.535
595.34	16.520
595.67	16.514
596.00	16.485
596.33	16.494
596.66	16.490
596.99	16.473
597.32	16.501
597.65	16.501
597.99	16.482
598.32	16.449
598.65	16.421
598.98	16.404
599.31	16.399
599.64	16.402
599.97	16.418
600.30	16.445
600.63	16.438
600.96	16.434
601.30	16.459
601.63	16.474
601.96	16.524
602.29	16.524
602.62	16.562
602.95	16.549
603.28	16.547
603.61	16.501
603.94	16.463
604.27	16.509
604.60	16.488
604.93	16.439
605.26	16.450
605.59	16.386
605.92	16.386
606.25	16.362
606.58	16.407
606.91	16.414
607.24	16.451
607.57	16.453
607.90	16.435
608.23	16.435
608.56	16.485
608.89	16.498
609.22	16.531
609.55	16.516
609.88	16.510
610.21	16.434
610.54	16.392
610.87	16.375
611.20	16.363
611.53	16.328
611.86	16.348
612.19	16.301
612.52	16.233
612.85	16.187
613.18	16.178
613.51	16.187
613.84	16.232
614.17	16.207
614.49	16.215
614.82	16.227
615.15	16.216
615.48	16.206
615.81	16.259
616.14	16.248
616.47	16.235
616.80	16.238
617.13	16.216
617.46	16.203
617.78	16.231
618.11	16.235
618.44	16.201
618.77	16.184
619.10	16.161
619.43	16.142
619.76	16.161
620.09	16.164
620.41	16.165
620.74	16.136
621.07	16.138
621.40	16.149
621.73	16.120
622.06	16.117
622.38	16.134
622.71	16.131
623.04	16.081
623.37	16.118
623.70	16.134
624.02	16.129
624.35	16.155
624.68	16.125
625.01	16.121
625.34	16.095
625.66	16.104
625.99	16.088
626.32	16.107
626.65	16.100
626.98	16.052
627.30	16.032
627.63	15.999
627.96	15.984
628.29	15.982
628.61	15.896
628.94	15.905
629.27	15.885
629.60	15.895
629.92	15.870
630.25	15.838
630.58	15.816
630.91	15.781
631.23	15.761
631.56	15.769
631.89	15.779
632.21	15.817
632.54	15.794
632.87	15.797
633.19	15.750
633.52	15.729
633.85	15.746
634.18	15.737
634.50	15.753
634.83	15.792
635.16	15.732
635.48	15.708
635.81	15.713
636.14	15.679
636.46	15.657
636.79	15.662
637.11	15.604
637.44	15.610
637.77	15.607
638.09	15.591
638.42	15.600
638.75	15.609
639.07	15.603
639.40	15.594
639.73	15.594
640.05	15.547
640.38	15.598
640.70	15.670
641.03	15.636
641.36	15.603
641.68	15.611
642.01	15.518
642.33	15.471
642.66	15.440
642.98	15.397
643.31	15.397
643.64	15.464
643.96	15.388
644.29	15.365
644.61	15.330
644.94	15.323
645.26	15.296
645.59	15.331
645.91	15.378
646.24	15.394
646.56	15.395
646.89	15.398
647.22	15.332
647.54	15.319
647.87	15.265
648.19	15.296
648.52	15.350
648.84	15.364
649.17	15.375
649.49	15.330
649.82	15.322
650.14	15.343
650.47	15.324
650.79	15.313
651.11	15.338
651.44	15.348
651.76	15.352
652.09	15.307
652.41	15.261
652.74	15.230
653.06	15.264
653.39	15.240
653.71	15.218
654.04	15.199
654.36	15.175
654.68	15.131
655.01	15.133
655.33	15.133
655.66	15.097
655.98	15.140
656.30	15.123
656.63	15.053
656.95	15.081
657.28	15.063
657.60	15.019
657.92	15.000
658.25	14.971
658.57	14.968
658.90	14.917
659.22	14.922
659.54	14.851
659.87	14.818
660.19	14.818
660.51	14.790
660.84	14.769
661.16	14.808
661.48	14.843
661.81	14.827
662.13	14.782
662.45	14.731
662.78	14.725
663.10	14.729
663.42	14.732
663.75	14.728
664.07	14.680
664.39	14.651
664.72	14.629
665.04	14.579
665.36	14.574
665.69	14.525
666.01	14.557
666.33	14.543
666.65	14.525
666.98	14.485
667.30	14.478
667.62	14.472
667.94	14.445
668.27	14.393
668.59	14.426
668.91	14.438
669.23	14.445
669.56	14.401
669.88	14.307
670.20	14.321
670.52	14.317
670.85	14.314
671.17	14.268
671.49	14.238
671.81	14.275
672.13	14.223
672.46	14.194
672.78	14.193
673.10	14.221
673.42	14.211
673.74	14.111
674.07	14.089
674.39	14.075
674.71	14.051
675.03	14.080
675.35	14.028
675.67	14.033
676.00	14.005
676.32	14.038
676.64	13.992
676.96	14.021
677.28	14.100
677.60	14.185
677.92	14.138
678.25	14.179
678.57	14.151
678.89	14.197
679.21	14.145
679.53	14.232
679.85	14.209
680.17	14.245
680.49	14.258
680.81	14.200
681.13	14.073
681.46	14.085
681.78	14.042
682.10	14.044
682.42	14.015
682.74	14.088
683.06	13.984
683.38	13.977
683.70	13.914
684.02	13.962
684.34	14.024
684.66	14.078
684.98	14.159
685.30	14.196
685.62	14.207
685.94	14.224
686.26	14.192
686.58	14.200
686.90	14.217
687.22	14.248
687.54	14.220
687.86	14.170
688.18	14.219
688.50	14.174
688.82	14.145
689.14	14.131
689.46	14.104
689.78	14.051
690.10	14.037
690.42	14.025
690.74	14.002
691.06	13.961
691.38	13.887
691.70	13.776
692.02	13.694
692.34	13.628
692.66	13.583
692.98	13.536
693.30	13.563
693.62	13.589
693.94	13.549
694.26	13.559
694.57	13.564
694.89	13.576
695.21	13.520
695.53	13.593
695.85	13.655
696.17	13.685
696.49	13.734
696.81	13.727
697.13	13.695
697.44	13.691
697.76	13.672
698.08	13.689
698.40	13.713
698.72	13.776
699.04	13.741
699.36	13.701
699.67	13.637
699.99	13.545
700.31	13.535
700.63	13.501
700.95	13.341
701.27	13.317
701.58	13.182
701.90	13.056
702.22	12.951
702.54	12.858
702.86	12.826
703.17	12.724
703.49	12.657
703.81	12.599
704.13	12.502
704.45	12.475
704.76	12.406
705.08	12.406
705.40	12.463
705.72	12.439
706.03	12.397
706.35	12.323
706.67	12.366
706.99	12.408
707.30	12.373
707.62	12.405
707.94	12.434
708.26	12.381
708.57	12.303
708.89	12.301
709.21	12.355
709.53	12.326
709.84	12.343
710.16	12.413
710.48	12.391
710.79	12.330
711.11	12.320
711.43	12.269
711.74	12.344
712.06	12.484
712.38	12.447
712.69	12.527
713.01	12.668
713.33	12.708
713.64	12.750
713.96	12.743
714.28	12.890
714.59	13.015
714.91	13.168
715.23	13.141
715.54	13.135
715.86	13.167
716.17	13.132
716.49	13.132
716.81	13.065
717.12	12.961
717.44	13.053
717.76	13.030
718.07	12.926
718.39	12.951
718.70	12.905
719.02	12.800
719.33	12.799
719.65	12.764
719.97	12.707
720.28	12.709
720.60	12.744
720.91	12.678
721.23	12.674
721.54	12.837
721.86	12.724
722.17	12.839
722.49	12.882
722.81	12.973
723.12	12.973
723.44	12.955
723.75	13.007
724.07	13.110
724.38	13.113
724.70	13.027
725.01	12.853
725.33	13.043
725.64	13.036
725.96	12.986
726.27	12.894
726.59	12.916
726.90	12.877
727.22	12.812
727.53	12.726
727.84	12.648
728.16	12.634
728.47	12.649
728.79	12.500
729.10	12.457
729.42	12.370
729.73	12.349
730.05	12.196
730.36	12.105
730.67	12.009
730.99	11.946
731.30	11.819
731.62	11.711
731.93	11.732
732.24	11.609
732.56	11.476
732.87	11.492
733.19	11.355
733.50	11.334
733.81	11.322
734.13	11.371
734.44	11.288
734.76	11.295
735.07	11.261
735.38	10.980
735.70	10.963
736.01	10.985
736.32	10.800
736.64	10.718
736.95	10.601
737.26	10.586
737.58	10.553
737.89	10.501
738.20	10.400
738.52	10.367
738.83	10.242
739.14	10.072
739.45	9.788
739.77	9.867
740.08	9.744
740.39	9.695
740.71	9.464
741.02	9.312
741.33	9.126
741.64	9.207
741.96	9.050
742.27	9.021
742.58	9.045
742.90	9.211
743.21	9.020
743.52	9.032
743.83	8.948
744.14	9.050
744.46	8.987
744.77	9.133
745.08	9.019
745.39	8.969
745.71	9.021
746.02	8.927
746.33	8.839
746.64	8.988
746.95	8.947
747.27	8.861
747.58	8.882
747.89	8.755
748.20	8.584
748.51	8.698
748.82	8.785
749.14	8.809
749.45	8.718
749.76	8.857
750.07	8.824
750.38	8.885
750.69	8.958
751.01	8.880
751.32	8.898
751.63	8.904
751.94	8.723
752.25	8.687
752.56	8.611
752.87	8.859
753.18	8.655
753.49	8.779
753.81	8.944
754.12	9.058
754.43	9.106
754.74	9.320
755.05	9.464
755.36	9.775
755.67	9.883
755.98	10.101
756.29	10.391
756.60	10.802
756.91	10.964
757.22	11.063
757.53	11.260
757.84	11.696
758.15	11.850
758.46	12.040
758.77	12.222
759.09	12.472
759.40	12.748
759.71	12.682
760.02	12.700
760.33	12.708
760.64	12.784
760.95	12.884
761.26	12.869
761.57	12.965
761.88	12.980
762.18	12.953
762.49	12.923
762.80	12.792
763.11	12.717
763.42	12.589
763.73	12.468
764.04	12.229
764.35	11.942
764.66	11.614
764.97	11.319
765.28	11.072
765.59	10.590
765.90	10.154
766.21	9.778
766.52	9.418
766.83	9.162
767.14	8.780
767.44	8.560
767.75	8.263
768.06	7.883
768.37	7.576
768.68	7.331
768.99	7.177
769.30	7.115
769.61	6.794
769.91	6.749
770.22	6.454
770.53	6.363
770.84	6.307
771.15	6.326
771.46	6.866
771.77	6.806
772.07	6.614
772.38	6.676
772.69	6.518
773.00	6.482
773.31	6.404
773.61	6.567
773.92	6.623
774.23	6.601
774.54	6.514
774.85	6.254
775.15	6.225
775.46	6.283
775.77	6.352
776.08	6.300
776.39	6.529
776.69	6.597
777.00	6.523
777.31	6.401
777.62	6.355
777.92	6.370
778.23	6.191
778.54	6.182
778.85	6.137
779.15	5.838
779.46	5.852
779.77	5.554
780.07	5.176
780.38	4.971
780.69	5.097
781.00	4.992
781.30	4.860
781.61	4.450
781.92	4.673
782.22	4.591
782.53	4.726
782.84	4.990
783.14	5.244
783.45	5.404
783.76	5.444
784.06	5.598
784.37	5.852
784.68	6.180
784.98	6.628
785.29	6.617
785.60	7.026
785.90	7.238
786.21	7.331
786.51	7.601
786.82	7.623
787.13	7.867
787.43	7.990
787.74	8.353
788.04	8.273
788.35	8.268
788.66	8.094
788.96	7.935
789.27	7.949
789.57	7.770
789.88	7.511
790.19	7.621
790.49	7.335
790.80	6.890
791.10	6.623
791.41	6.870
791.71	6.577
792.02	6.881
792.32	6.961
792.63	6.710
792.93	6.781
793.24	6.960
793.54	7.337
793.85	7.584
794.15	8.182
794.46	8.029
794.76	8.246
795.07	8.385
795.37	8.421
795.68	8.615
795.98	8.925
796.29	8.906
796.59	8.981
796.90	8.667
797.20	9.002
797.51	8.638
797.81	8.482
798.12	8.206
798.42	8.283
798.72	8.203
799.03	7.932
799.33	7.784
799.64	7.753
799.94	7.655
800.25	7.588
800.55	7.154
800.85	7.335
801.16	7.415
801.46	7.375
801.77	6.951
802.07	7.026
802.37	6.908
802.68	7.056
802.98	7.167
803.28	6.812
803.59	7.043
803.89	7.259
804.20	7.088
804.50	7.545
804.80	7.498
805.11	8.079
805.41	7.847
805.71	7.856
806.02	7.587
806.32	7.710
806.62	7.701
806.93	7.662
807.23	7.740
807.53	7.608
807.83	7.160
808.14	7.300
808.44	6.869
808.74	7.201
809.05	8.062
809.35	8.685
809.65	8.610
809.95	9.162
810.26	9.194
810.56	9.373
810.86	9.620
811.16	9.780
811.47	10.007
811.77	10.722
812.07	10.537
812.37	9.976
812.68	9.438
812.98	9.625
813.28	9.366
813.58	9.848
813.88	9.457
814.19	9.638
814.49	10.038
814.79	10.595
815.09	10.195
815.39	10.373
815.70	10.305
816.00	11.125
816.30	11.164
816.60	11.542
816.90	11.308
817.20	11.379
817.50	11.377
817.81	11.730
818.11	11.940
818.41	12.539
818.71	12.906
819.01	13.160
819.31	13.238
819.61	13.316
819.92	13.444
820.22	13.612
820.52	13.786
820.82	13.871
821.12	13.791
821.42	13.725
821.72	13.616
822.02	13.577
822.32	13.491
822.62	13.433
822.92	13.446
823.22	13.392
823.52	13.308
823.83	13.298
824.13	13.278
824.43	13.354
824.73	13.303
825.03	13.289
825.33	13.169
825.63	13.204
825.93	13.253
826.23	13.156
826.53	13.119
826.83	13.088
827.13	12.897
827.43	12.894
827.73	12.701
828.03	12.591
828.33	12.693
828.63	12.529
828.93	12.552
829.23	11.928
829.53	12.037
829.83	11.944
830.13	11.643
830.42	11.417
830.72	11.293
831.02	11.466
831.32	11.945
831.62	11.835
831.92	11.991
832.22	12.026
832.52	12.344
832.82	12.287
833.12	12.332
833.42	12.397
833.72	12.423
834.01	12.299
834.31	12.187
834.61	11.643
834.91	11.428
835.21	11.196
835.51	10.835
835.81	10.641
836.11	10.218
836.40	10.033
836.70	9.634
837.00	9.095
837.30	8.630
837.60	8.638
837.90	8.601
838.19	8.793
838.49	8.736
838.79	8.777
839.09	8.869
839.39	8.626
839.68	7.561
839.98	7.599
840.28	7.877
840.58	8.174
840.88	6.903
841.17	6.484
841.47	6.511
841.77	6.506
842.07	6.343
842.36	5.429
842.66	4.501
842.96	3.670
843.26	3.423
843.55	4.289
843.85	3.336
844.15	4.740
844.45	5.706
844.74	4.447
845.04	3.581
845.34	2.279
845.63	2.592
845.93	4.195
846.23	5.334
846.53	4.062
846.82	2.378
847.12	1.550
847.42	0.736
847.71	-1.461
848.01	-1.506
848.31	-1.202
848.60	-1.228
848.90	-2.134
849.19	-2.483
849.49	-2.505
849.79	-1.944
850.08	-2.011
850.38	-0.072
850.68	0.891
850.97	2.986
851.27	3.749
851.56	5.321
851.86	5.586
852.16	7.734
852.45	9.352
852.75	8.804
853.04	7.749
853.34	7.718
853.64	4.348
853.93	3.153
854.23	2.730
854.52	1.353
854.82	1.648
855.11	3.350
855.41	2.749
855.70	1.623
856.00	1.183
856.30	3.173
856.59	2.204
856.89	3.356
857.18	4.265
857.48	3.882
857.77	2.333
858.07	-0.172
858.36	-0.716
858.66	-2.400
858.95	-4.822
859.25	-2.616
859.54	-3.197
859.84	-2.359
860.13	-1.258
860.42	-2.174
860.72	-2.820
861.01	-0.646
861.31	0.695
861.60	0.080
861.90	-2.107
862.19	-0.493
862.49	-0.285
862.78	-0.589
863.07	-1.310
863.37	-0.001
863.66	-1.220
863.96	0.163
864.25	1.921
864.54	2.322
864.84	3.477
865.13	5.096
865.43	5.362
865.72	18.097
866.01	9.489
866.31	13.686
866.60	-10.315
866.89	9.720
>>>>>End Spectral Data<<<<<
