OOIBase32 Version 2.0.0.6 Data File
++++++++++++++++++++++++++++++++++++
Date: 01-20-2012, 22:32:44
User: Valued Ocean Optics Customer
Spectrometer Serial Number: USB2E2917
Spectrometer Channel: Master
Integration Time (msec): 4
Spectra Averaged: 10
Boxcar Smoothing: 5
Correct for Electrical Dark: Enabled
Time Normalized: Disabled
Dual-beam Reference: Disabled
Reference Channel: Master
Temperature: Not acquired
Spectrometer Type: S2000
ADC Type: USB2000
Number of Pixels in File: 2048
Graph Title: 
>>>>>Begin Spectral Data<<<<<
180.30	0.000
180.67	0.000
181.03	-156.034
181.40	36.985
181.77	31.549
182.14	342.882
182.51	-26.453
182.88	438.854
183.25	-130.466
183.62	97.298
183.99	79.868
184.36	167.931
184.73	156.183
185.10	112.759
185.46	93.888
185.83	73.285
186.20	-619.159
186.57	102.651
186.94	33.359
187.31	-99.589
187.68	-2957.262
188.05	62.365
188.42	-11.327
188.78	61.029
189.15	54.925
189.52	24.119
189.89	10.997
190.26	40.190
190.63	43.895
191.00	31.744
191.37	21.646
191.73	38.002
192.10	70.783
192.47	88.004
192.84	78.832
193.21	94.608
193.58	115.779
193.94	113.578
194.31	120.290
194.68	83.824
195.05	69.167
195.42	66.893
195.79	64.821
196.15	52.133
196.52	54.212
196.89	29.769
197.26	21.646
197.63	33.610
198.00	42.252
198.36	16.066
198.73	39.945
199.10	46.718
199.47	51.815
199.84	53.180
200.20	53.825
200.57	42.251
200.94	43.215
201.31	42.517
201.68	24.674
202.04	30.490
202.41	36.561
202.78	25.264
203.15	32.860
203.51	23.411
203.88	39.777
204.25	44.668
204.62	61.015
204.98	68.594
205.35	68.421
205.72	76.853
206.09	62.286
206.46	61.393
206.82	61.990
207.19	44.299
207.56	48.128
207.92	51.214
208.29	55.672
208.66	45.044
209.03	35.609
209.39	50.101
209.76	83.346
210.13	82.714
210.50	79.602
210.86	78.028
211.23	78.085
211.60	66.859
211.96	50.434
212.33	38.287
212.70	35.782
213.07	51.014
213.43	37.688
213.80	19.246
214.17	15.751
214.53	19.246
214.90	9.082
215.27	25.976
215.63	39.056
216.00	45.988
216.37	50.636
216.74	50.063
217.10	40.850
217.47	41.388
217.84	42.313
218.20	44.553
218.57	43.671
218.94	47.959
219.30	35.428
219.67	27.984
220.04	28.766
220.40	26.977
220.77	29.005
221.13	26.778
221.50	29.493
221.87	33.044
222.23	34.863
222.60	27.627
222.97	29.347
223.33	29.548
223.70	27.744
224.07	22.832
224.43	21.605
224.80	18.368
225.16	15.442
225.53	13.271
225.90	10.919
226.26	10.285
226.63	10.309
226.99	8.056
227.36	7.159
227.73	7.173
228.09	7.593
228.46	7.617
228.82	6.948
229.19	7.315
229.56	7.805
229.92	7.546
230.29	7.564
230.65	8.725
231.02	9.914
231.38	10.374
231.75	10.855
232.12	11.023
232.48	10.810
232.85	11.983
233.21	13.048
233.58	12.753
233.94	13.599
234.31	13.005
234.68	12.060
235.04	12.141
235.41	11.005
235.77	10.388
236.14	8.981
236.50	7.797
236.87	7.926
237.23	7.151
237.60	7.647
237.96	6.973
238.33	7.050
238.69	7.385
239.06	6.937
239.42	7.023
239.79	6.899
240.15	6.884
240.52	6.615
240.88	6.279
241.25	6.206
241.61	5.613
241.98	5.766
242.34	5.427
242.71	5.028
243.07	4.879
243.44	4.640
243.80	4.744
244.17	4.828
244.53	4.925
244.90	4.834
245.26	4.871
245.63	5.050
245.99	5.032
246.36	5.119
246.72	5.107
247.09	5.193
247.45	5.160
247.81	4.895
248.18	4.866
248.54	4.614
248.91	4.636
249.27	4.654
249.64	4.589
250.00	4.921
250.36	4.861
250.73	4.548
251.09	4.646
251.46	5.089
251.82	5.168
252.19	5.521
252.55	5.716
252.91	6.001
253.28	5.935
253.64	5.789
254.01	5.480
254.37	5.421
254.73	5.537
255.10	5.476
255.46	5.162
255.83	5.121
256.19	5.064
256.55	5.034
256.92	5.024
257.28	4.873
257.65	4.773
258.01	4.473
258.37	4.393
258.74	4.392
259.10	4.230
259.46	4.325
259.83	4.287
260.19	4.029
260.55	4.068
260.92	4.010
261.28	4.333
261.64	4.434
262.01	4.634
262.37	4.927
262.73	4.730
263.10	4.858
263.46	4.939
263.82	5.173
264.19	5.374
264.55	5.444
264.91	5.215
265.28	4.843
265.64	4.944
266.00	4.982
266.37	5.001
266.73	5.391
267.09	5.406
267.46	5.244
267.82	5.261
268.18	5.062
268.54	4.956
268.91	4.972
269.27	4.763
269.63	4.456
270.00	4.484
270.36	4.152
270.72	3.882
271.08	3.647
271.45	3.520
271.81	3.326
272.17	3.585
272.53	3.521
272.90	3.340
273.26	3.539
273.62	3.710
273.98	3.795
274.35	3.929
274.71	4.019
275.07	4.229
275.43	4.358
275.80	4.570
276.16	4.304
276.52	4.235
276.88	4.137
277.25	3.966
277.61	3.971
277.97	3.933
278.33	4.020
278.69	4.143
279.06	4.061
279.42	3.919
279.78	3.911
280.14	4.026
280.50	4.159
280.87	4.379
281.23	4.426
281.59	4.348
281.95	4.179
282.31	4.103
282.68	4.115
283.04	4.192
283.40	4.256
283.76	4.131
284.12	4.001
284.48	3.870
284.85	3.786
285.21	3.817
285.57	3.736
285.93	3.739
286.29	3.653
286.65	3.543
287.02	3.471
287.38	3.443
287.74	3.425
288.10	3.541
288.46	3.699
288.82	3.970
289.18	4.028
289.54	4.146
289.91	4.135
290.27	4.288
290.63	4.382
290.99	4.556
291.35	4.535
291.71	4.565
292.07	4.621
292.43	4.543
292.79	4.095
293.16	4.113
293.52	3.971
293.88	3.981
294.24	4.177
294.60	4.168
294.96	4.003
295.32	4.097
295.68	4.125
296.04	4.049
296.40	4.128
296.76	4.309
297.12	4.332
297.49	4.421
297.85	4.501
298.21	4.349
298.57	4.400
298.93	4.605
299.29	4.720
299.65	4.774
300.01	4.805
300.37	4.877
300.73	4.978
301.09	4.891
301.45	5.025
301.81	5.107
302.17	5.308
302.53	5.322
302.89	5.270
303.25	5.088
303.61	5.180
303.97	5.299
304.33	5.229
304.69	5.273
305.05	5.287
305.41	5.221
305.77	5.311
306.13	5.159
306.49	5.238
306.85	5.270
307.21	5.389
307.57	5.371
307.93	5.362
308.29	5.425
308.65	5.473
309.01	5.511
309.37	5.597
309.73	5.561
310.09	5.595
310.45	5.563
310.81	5.540
311.17	5.561
311.53	5.596
311.89	5.632
312.25	5.718
312.61	5.598
312.96	5.590
313.32	5.574
313.68	5.590
314.04	5.624
314.40	5.693
314.76	5.847
315.12	5.793
315.48	5.735
315.84	5.812
316.20	5.698
316.56	5.793
316.92	5.838
317.27	5.755
317.63	5.787
317.99	5.801
318.35	5.854
318.71	5.889
319.07	6.080
319.43	6.105
319.79	6.098
320.15	6.202
320.50	6.338
320.86	6.391
321.22	6.558
321.58	6.582
321.94	6.642
322.30	6.557
322.66	6.573
323.01	6.613
323.37	6.823
323.73	6.810
324.09	6.812
324.45	6.796
324.81	6.827
325.17	6.806
325.52	6.763
325.88	6.729
326.24	6.767
326.60	6.812
326.96	6.816
327.31	6.740
327.67	6.794
328.03	6.913
328.39	6.974
328.75	7.106
329.11	7.211
329.46	7.332
329.82	7.465
330.18	7.574
330.54	7.573
330.90	7.574
331.25	7.550
331.61	7.642
331.97	7.573
332.33	7.646
332.68	7.545
333.04	7.537
333.40	7.578
333.76	7.488
334.11	7.508
334.47	7.522
334.83	7.527
335.19	7.577
335.54	7.566
335.90	7.669
336.26	7.598
336.62	7.669
336.97	7.695
337.33	7.714
337.69	7.770
338.05	7.739
338.40	7.819
338.76	7.834
339.12	7.799
339.48	7.807
339.83	7.728
340.19	7.709
340.55	7.770
340.90	7.819
341.26	7.759
341.62	7.733
341.97	7.788
342.33	7.670
342.69	7.699
343.04	7.672
343.40	7.694
343.76	7.735
344.12	7.762
344.47	7.716
344.83	7.700
345.19	7.759
345.54	7.817
345.90	7.792
346.26	7.915
346.61	7.905
346.97	8.004
347.32	8.016
347.68	8.062
348.04	8.120
348.39	8.112
348.75	8.056
349.11	8.076
349.46	8.050
349.82	8.075
350.18	8.017
350.53	8.018
350.89	8.046
351.24	7.961
351.60	7.925
351.96	7.865
352.31	7.878
352.67	7.941
353.02	7.891
353.38	7.920
353.74	7.986
354.09	7.959
354.45	7.987
354.80	7.934
355.16	8.016
355.52	7.981
355.87	8.101
356.23	8.060
356.58	8.063
356.94	8.054
357.29	8.038
357.65	8.061
358.00	8.090
358.36	8.049
358.72	8.058
359.07	8.019
359.43	8.033
359.78	7.989
360.14	8.019
360.49	8.030
360.85	8.054
361.20	8.058
361.56	7.940
361.91	7.881
362.27	7.930
362.62	7.936
362.98	7.913
363.33	7.970
363.69	7.985
364.04	7.968
364.40	7.989
364.75	8.048
365.11	8.147
365.46	8.198
365.82	8.265
366.17	8.300
366.53	8.322
366.88	8.380
367.24	8.347
367.59	8.311
367.95	8.347
368.30	8.345
368.66	8.359
369.01	8.327
369.37	8.386
369.72	8.469
370.08	8.520
370.43	8.574
370.78	8.614
371.14	8.712
371.49	8.754
371.85	8.820
372.20	8.876
372.56	8.930
372.91	8.914
373.26	8.941
373.62	8.970
373.97	8.977
374.33	8.964
374.68	9.003
375.03	8.992
375.39	9.084
375.74	9.135
376.10	9.202
376.45	9.207
376.80	9.327
377.16	9.395
377.51	9.428
377.87	9.502
378.22	9.590
378.57	9.650
378.93	9.723
379.28	9.815
379.63	9.878
379.99	9.930
380.34	10.019
380.70	10.077
381.05	10.120
381.40	10.212
381.76	10.304
382.11	10.394
382.46	10.503
382.82	10.605
383.17	10.717
383.52	10.805
383.88	10.908
384.23	11.001
384.58	11.067
384.94	11.151
385.29	11.190
385.64	11.204
385.99	11.281
386.35	11.313
386.70	11.297
387.05	11.309
387.41	11.324
387.76	11.424
388.11	11.493
388.47	11.603
388.82	11.700
389.17	11.829
389.52	11.928
389.88	11.979
390.23	12.084
390.58	12.253
390.93	12.310
391.29	12.428
391.64	12.472
391.99	12.554
392.34	12.590
392.70	12.673
393.05	12.709
393.40	12.791
393.75	12.849
394.11	12.888
394.46	12.937
394.81	13.034
395.16	13.052
395.52	13.026
395.87	13.053
396.22	13.073
396.57	13.106
396.92	13.101
397.28	13.117
397.63	13.192
397.98	13.234
398.33	13.212
398.68	13.222
399.04	13.308
399.39	13.380
399.74	13.409
400.09	13.461
400.44	13.495
400.80	13.581
401.15	13.607
401.50	13.654
401.85	13.736
402.20	13.849
402.55	13.928
402.90	13.990
403.26	14.082
403.61	14.156
403.96	14.274
404.31	14.329
404.66	14.396
405.01	14.498
405.36	14.551
405.72	14.600
406.07	14.653
406.42	14.704
406.77	14.755
407.12	14.767
407.47	14.847
407.82	14.856
408.17	14.930
408.53	14.959
408.88	14.989
409.23	15.054
409.58	15.113
409.93	15.175
410.28	15.223
410.63	15.275
410.98	15.395
411.33	15.435
411.68	15.526
412.03	15.606
412.38	15.719
412.73	15.850
413.09	15.945
413.44	16.013
413.79	16.101
414.14	16.216
414.49	16.307
414.84	16.360
415.19	16.420
415.54	16.502
415.89	16.616
416.24	16.669
416.59	16.730
416.94	16.765
417.29	16.838
417.64	16.896
417.99	16.939
418.34	16.987
418.69	17.055
419.04	17.128
419.39	17.178
419.74	17.225
420.09	17.297
420.44	17.366
420.79	17.448
421.14	17.496
421.49	17.558
421.84	17.610
422.19	17.654
422.54	17.698
422.89	17.746
423.24	17.806
423.59	17.836
423.94	17.880
424.29	17.913
424.64	17.962
424.99	18.020
425.34	18.051
425.68	18.111
426.03	18.216
426.38	18.266
426.73	18.323
427.08	18.405
427.43	18.474
427.78	18.536
428.13	18.568
428.48	18.634
428.83	18.681
429.18	18.778
429.53	18.868
429.87	18.927
430.22	19.014
430.57	19.100
430.92	19.137
431.27	19.198
431.62	19.243
431.97	19.314
432.32	19.361
432.67	19.445
433.01	19.501
433.36	19.544
433.71	19.610
434.06	19.666
434.41	19.710
434.76	19.777
435.11	19.865
435.45	19.937
435.80	20.004
436.15	20.077
436.50	20.141
436.85	20.190
437.20	20.211
437.54	20.249
437.89	20.311
438.24	20.377
438.59	20.422
438.94	20.450
439.29	20.502
439.63	20.531
439.98	20.576
440.33	20.600
440.68	20.654
441.03	20.694
441.37	20.720
441.72	20.750
442.07	20.805
442.42	20.841
442.76	20.884
443.11	20.934
443.46	20.982
443.81	21.024
444.16	21.063
444.50	21.103
444.85	21.139
445.20	21.171
445.55	21.181
445.89	21.169
446.24	21.202
446.59	21.226
446.94	21.230
447.28	21.227
447.63	21.233
447.98	21.253
448.32	21.236
448.67	21.273
449.02	21.313
449.37	21.354
449.71	21.401
450.06	21.395
450.41	21.409
450.75	21.421
451.10	21.466
451.45	21.489
451.79	21.521
452.14	21.553
452.49	21.575
452.84	21.604
453.18	21.656
453.53	21.709
453.88	21.785
454.22	21.835
454.57	21.902
454.92	21.993
455.26	22.035
455.61	22.117
455.95	22.184
456.30	22.275
456.65	22.341
456.99	22.377
457.34	22.423
457.69	22.448
458.03	22.484
458.38	22.531
458.73	22.537
459.07	22.580
459.42	22.584
459.76	22.610
460.11	22.602
460.46	22.589
460.80	22.613
461.15	22.614
461.49	22.634
461.84	22.654
462.19	22.629
462.53	22.673
462.88	22.668
463.22	22.677
463.57	22.701
463.91	22.739
464.26	22.809
464.61	22.844
464.95	22.894
465.30	22.953
465.64	22.974
465.99	23.034
466.33	23.068
466.68	23.156
467.02	23.218
467.37	23.261
467.71	23.272
468.06	23.295
468.41	23.314
468.75	23.354
469.10	23.347
469.44	23.400
469.79	23.414
470.13	23.436
470.48	23.424
470.82	23.421
471.17	23.441
471.51	23.485
471.86	23.500
472.20	23.536
472.55	23.587
472.89	23.621
473.23	23.623
473.58	23.645
473.92	23.677
474.27	23.732
474.61	23.761
474.96	23.782
475.30	23.802
475.65	23.846
475.99	23.915
476.34	23.888
476.68	23.923
477.02	24.000
477.37	24.085
477.71	24.172
478.06	24.263
478.40	24.423
478.75	24.666
479.09	24.954
479.43	25.260
479.78	25.627
480.12	26.076
480.47	26.541
480.81	26.988
481.15	27.455
481.50	27.902
481.84	28.459
482.19	29.059
482.53	29.587
482.87	29.941
483.22	30.049
483.56	29.874
483.90	29.492
484.25	28.969
484.59	28.392
484.94	27.952
485.28	27.600
485.62	27.108
485.97	26.535
486.31	25.996
486.65	25.625
487.00	25.484
487.34	25.560
487.68	25.786
488.03	26.109
488.37	26.448
488.71	26.597
489.06	26.593
489.40	26.552
489.74	26.538
490.09	26.518
490.43	26.479
490.77	26.432
491.11	26.399
491.46	26.366
491.80	26.329
492.14	26.330
492.49	26.314
492.83	26.297
493.17	26.301
493.51	26.287
493.86	26.293
494.20	26.309
494.54	26.364
494.88	26.418
495.23	26.486
495.57	26.568
495.91	26.622
496.25	26.653
496.60	26.688
496.94	26.725
497.28	26.789
497.62	26.856
497.97	26.907
498.31	26.962
498.65	27.024
498.99	27.066
499.33	27.137
499.68	27.220
500.02	27.300
500.36	27.384
500.70	27.477
501.04	27.549
501.39	27.602
501.73	27.652
502.07	27.717
502.41	27.790
502.75	27.880
503.09	27.942
503.44	27.997
503.78	28.086
504.12	28.180
504.46	28.280
504.80	28.356
505.14	28.483
505.49	28.617
505.83	28.701
506.17	28.796
506.51	28.891
506.85	28.989
507.19	29.077
507.53	29.166
507.87	29.251
508.22	29.337
508.56	29.426
508.90	29.463
509.24	29.506
509.58	29.585
509.92	29.643
510.26	29.708
510.60	29.789
510.94	29.878
511.28	29.936
511.63	30.010
511.97	30.093
512.31	30.190
512.65	30.284
512.99	30.431
513.33	30.542
513.67	30.673
514.01	30.807
514.35	30.922
514.69	31.034
515.03	31.169
515.37	31.278
515.71	31.362
516.05	31.467
516.39	31.584
516.73	31.628
517.07	31.738
517.41	31.820
517.75	31.899
518.09	31.956
518.43	32.024
518.77	32.067
519.11	32.116
519.45	32.194
519.79	32.237
520.13	32.298
520.47	32.413
520.81	32.491
521.15	32.584
521.49	32.689
521.83	32.791
522.17	32.894
522.51	33.079
522.85	33.252
523.19	33.490
523.53	33.765
523.87	34.084
524.21	34.405
524.55	34.718
524.89	35.001
525.23	35.252
525.57	35.495
525.91	35.729
526.25	35.897
526.58	36.073
526.92	36.224
527.26	36.344
527.60	36.405
527.94	36.416
528.28	36.417
528.62	36.408
528.96	36.410
529.30	36.382
529.64	36.360
529.97	36.347
530.31	36.338
530.65	36.316
530.99	36.312
531.33	36.344
531.67	36.435
532.01	36.518
532.35	36.582
532.68	36.593
533.02	36.650
533.36	36.682
533.70	36.713
534.04	36.744
534.38	36.779
534.71	36.811
535.05	36.856
535.39	36.862
535.73	36.893
536.07	36.978
536.41	37.143
536.74	37.301
537.08	37.481
537.42	37.659
537.76	37.852
538.10	38.032
538.43	38.225
538.77	38.387
539.11	38.551
539.45	38.710
539.79	38.847
540.12	38.934
540.46	39.043
540.80	39.093
541.14	39.131
541.47	39.142
541.81	39.175
542.15	39.188
542.49	39.198
542.82	39.198
543.16	39.202
543.50	39.183
543.84	39.209
544.17	39.197
544.51	39.254
544.85	39.328
545.18	39.411
545.52	39.458
545.86	39.505
546.20	39.561
546.53	39.654
546.87	39.704
547.21	39.792
547.54	39.862
547.88	39.956
548.22	40.023
548.55	40.105
548.89	40.209
549.23	40.307
549.56	40.429
549.90	40.506
550.24	40.557
550.57	40.627
550.91	40.724
551.25	40.822
551.58	40.903
551.92	41.000
552.26	41.082
552.59	41.140
552.93	41.228
553.27	41.274
553.60	41.381
553.94	41.505
554.27	41.606
554.61	41.703
554.95	41.784
555.28	41.906
555.62	42.005
555.95	42.072
556.29	42.149
556.63	42.244
556.96	42.369
557.30	42.460
557.63	42.534
557.97	42.600
558.31	42.675
558.64	42.792
558.98	42.856
559.31	42.923
559.65	43.063
559.98	43.161
560.32	43.205
560.65	43.272
560.99	43.313
561.33	43.440
561.66	43.531
562.00	43.636
562.33	43.711
562.67	43.762
563.00	43.898
563.34	43.967
563.67	44.062
564.01	44.178
564.34	44.267
564.68	44.375
565.01	44.442
565.35	44.525
565.68	44.588
566.02	44.659
566.35	44.789
566.69	44.825
567.02	44.876
567.36	44.928
567.69	44.974
568.03	45.078
568.36	45.142
568.69	45.237
569.03	45.311
569.36	45.377
569.70	45.441
570.03	45.447
570.37	45.517
570.70	45.569
571.04	45.636
571.37	45.751
571.70	45.785
572.04	45.878
572.37	45.893
572.71	45.960
573.04	46.044
573.37	46.123
573.71	46.213
574.04	46.293
574.38	46.385
574.71	46.457
575.04	46.540
575.38	46.629
575.71	46.720
576.05	46.821
576.38	46.901
576.71	46.948
577.05	47.041
577.38	47.136
577.71	47.182
578.05	47.276
578.38	47.364
578.71	47.348
579.05	47.419
579.38	47.431
579.71	47.471
580.05	47.576
580.38	47.616
580.71	47.636
581.05	47.746
581.38	47.829
581.71	47.901
582.05	47.969
582.38	48.133
582.71	48.156
583.04	48.262
583.38	48.352
583.71	48.335
584.04	48.454
584.38	48.535
584.71	48.561
585.04	48.681
585.37	48.762
585.71	48.825
586.04	48.845
586.37	48.972
586.70	49.059
587.04	49.103
587.37	49.193
587.70	49.256
588.03	49.319
588.37	49.391
588.70	49.415
589.03	49.461
589.36	49.535
589.69	49.598
590.03	49.619
590.36	49.603
590.69	49.716
591.02	49.830
591.35	49.879
591.69	49.943
592.02	49.965
592.35	50.000
592.68	50.069
593.01	50.170
593.35	50.241
593.68	50.316
594.01	50.473
594.34	50.508
594.67	50.612
595.00	50.690
595.34	50.739
595.67	50.819
596.00	50.923
596.33	51.011
596.66	51.044
596.99	51.117
597.32	51.227
597.65	51.262
597.99	51.355
598.32	51.379
598.65	51.442
598.98	51.590
599.31	51.650
599.64	51.706
599.97	51.753
600.30	51.816
600.63	51.862
600.96	51.915
601.30	52.003
601.63	52.071
601.96	52.106
602.29	52.174
602.62	52.181
602.95	52.304
603.28	52.375
603.61	52.451
603.94	52.509
604.27	52.577
604.60	52.579
604.93	52.613
605.26	52.655
605.59	52.678
605.92	52.756
606.25	52.826
606.58	52.854
606.91	52.903
607.24	52.926
607.57	52.969
607.90	53.005
608.23	53.092
608.56	53.155
608.89	53.179
609.22	53.284
609.55	53.323
609.88	53.391
610.21	53.500
610.54	53.549
610.87	53.632
611.20	53.756
611.53	53.829
611.86	53.940
612.19	53.992
612.52	54.135
612.85	54.219
613.18	54.241
613.51	54.356
613.84	54.315
614.17	54.440
614.49	54.487
614.82	54.575
615.15	54.667
615.48	54.677
615.81	54.681
616.14	54.714
616.47	54.745
616.80	54.776
617.13	54.819
617.46	54.916
617.78	54.934
618.11	54.975
618.44	54.933
618.77	54.965
619.10	55.070
619.43	55.182
619.76	55.230
620.09	55.231
620.41	55.331
620.74	55.342
621.07	55.368
621.40	55.426
621.73	55.436
622.06	55.493
622.38	55.536
622.71	55.597
623.04	55.643
623.37	55.639
623.70	55.747
624.02	55.844
624.35	55.841
624.68	55.882
625.01	55.898
625.34	55.957
625.66	56.072
625.99	56.125
626.32	56.113
626.65	56.125
626.98	56.179
627.30	56.173
627.63	56.176
627.96	56.260
628.29	56.341
628.61	56.372
628.94	56.437
629.27	56.411
629.60	56.461
629.92	56.572
630.25	56.604
630.58	56.710
630.91	56.774
631.23	56.750
631.56	56.759
631.89	56.731
632.21	56.799
632.54	56.820
632.87	56.806
633.19	56.795
633.52	56.774
633.85	56.823
634.18	56.757
634.50	56.791
634.83	56.868
635.16	56.928
635.48	56.959
635.81	56.956
636.14	56.984
636.46	57.043
636.79	57.068
637.11	57.073
637.44	57.157
637.77	57.228
638.09	57.278
638.42	57.184
638.75	57.210
639.07	57.225
639.40	57.180
639.73	57.214
640.05	57.283
640.38	57.310
640.70	57.325
641.03	57.300
641.36	57.330
641.68	57.260
642.01	57.364
642.33	57.336
642.66	57.403
642.98	57.465
643.31	57.542
643.64	57.554
643.96	57.572
644.29	57.568
644.61	57.589
644.94	57.529
645.26	57.604
645.59	57.558
645.91	57.625
646.24	57.579
646.56	57.635
646.89	57.570
647.22	57.566
647.54	57.536
647.87	57.554
648.19	57.530
648.52	57.559
648.84	57.556
649.17	57.644
649.49	57.542
649.82	57.635
650.14	57.626
650.47	57.691
650.79	57.632
651.11	57.683
651.44	57.633
651.76	57.637
652.09	57.705
652.41	57.734
652.74	57.734
653.06	57.789
653.39	57.778
653.71	57.779
654.04	57.743
654.36	57.823
654.68	57.828
655.01	57.843
655.33	57.823
655.66	57.817
655.98	57.724
656.30	57.634
656.63	57.650
656.95	57.575
657.28	57.551
657.60	57.521
657.92	57.492
658.25	57.528
658.57	57.534
658.90	57.512
659.22	57.410
659.54	57.443
659.87	57.570
660.19	57.566
660.51	57.595
660.84	57.539
661.16	57.547
661.48	57.493
661.81	57.427
662.13	57.450
662.45	57.420
662.78	57.480
663.10	57.509
663.42	57.455
663.75	57.462
664.07	57.437
664.39	57.499
664.72	57.462
665.04	57.533
665.36	57.519
665.69	57.494
666.01	57.510
666.33	57.555
666.65	57.474
666.98	57.375
667.30	57.280
667.62	57.233
667.94	57.133
668.27	57.178
668.59	57.175
668.91	57.134
669.23	57.114
669.56	57.083
669.88	56.998
670.20	56.983
670.52	57.008
670.85	57.044
671.17	57.047
671.49	57.065
671.81	57.026
672.13	56.925
672.46	56.947
672.78	56.937
673.10	57.016
673.42	56.999
673.74	57.009
674.07	57.074
674.39	57.090
674.71	57.138
675.03	57.180
675.35	57.045
675.67	57.019
676.00	56.990
676.32	56.983
676.64	56.870
676.96	56.919
677.28	56.852
677.60	56.796
677.92	56.775
678.25	56.699
678.57	56.667
678.89	56.726
679.21	56.641
679.53	56.607
679.85	56.524
680.17	56.531
680.49	56.503
680.81	56.620
681.13	56.567
681.46	56.441
681.78	56.423
682.10	56.445
682.42	56.338
682.74	56.401
683.06	56.360
683.38	56.472
683.70	56.494
684.02	56.534
684.34	56.407
684.66	56.483
684.98	56.627
685.30	56.686
685.62	56.657
685.94	56.723
686.26	56.661
686.58	56.754
686.90	56.652
687.22	56.550
687.54	56.342
687.86	56.369
688.18	56.320
688.50	56.245
688.82	56.058
689.14	55.921
689.46	55.787
689.78	55.911
690.10	55.721
690.42	55.661
690.74	55.595
691.06	55.663
691.38	55.608
691.70	55.546
692.02	55.449
692.34	55.542
692.66	55.556
692.98	55.648
693.30	55.528
693.62	55.612
693.94	55.687
694.26	55.775
694.57	55.783
694.89	55.744
695.21	55.698
695.53	55.692
695.85	55.697
696.17	55.722
696.49	55.704
696.81	55.735
697.13	55.682
697.44	55.594
697.76	55.590
698.08	55.509
698.40	55.460
698.72	55.408
699.04	55.365
699.36	55.216
699.67	55.123
699.99	54.985
700.31	54.757
700.63	54.603
700.95	54.457
701.27	54.178
701.58	53.983
701.90	53.690
702.22	53.507
702.54	53.341
702.86	53.280
703.17	53.135
703.49	52.970
703.81	52.819
704.13	52.755
704.45	52.620
704.76	52.560
705.08	52.489
705.40	52.613
705.72	52.644
706.03	52.612
706.35	52.560
706.67	52.525
706.99	52.584
707.30	52.534
707.62	52.528
707.94	52.503
708.26	52.474
708.57	52.577
708.89	52.461
709.21	52.392
709.53	52.389
709.84	52.262
710.16	52.259
710.48	52.117
710.79	52.156
711.11	52.159
711.43	52.122
711.74	52.137
712.06	52.050
712.38	52.093
712.69	52.068
713.01	52.091
713.33	52.294
713.64	52.330
713.96	52.495
714.28	52.628
714.59	52.684
714.91	52.787
715.23	52.819
715.54	52.890
715.86	52.848
716.17	52.875
716.49	52.710
716.81	52.616
717.12	52.566
717.44	52.539
717.76	52.293
718.07	52.070
718.39	51.867
718.70	51.771
719.02	51.602
719.33	51.360
719.65	51.269
719.97	51.151
720.28	51.141
720.60	50.891
720.91	50.686
721.23	50.686
721.54	50.703
721.86	50.756
722.17	50.650
722.49	50.624
722.81	50.873
723.12	50.584
723.44	50.694
723.75	50.468
724.07	50.496
724.38	50.364
724.70	50.362
725.01	50.299
725.33	50.324
725.64	50.406
725.96	50.244
726.27	50.190
726.59	50.358
726.90	50.235
727.22	50.124
727.53	50.014
727.84	50.076
728.16	49.964
728.47	49.975
728.79	49.843
729.10	49.706
729.42	49.659
729.73	49.310
730.05	49.054
730.36	48.954
730.67	48.691
730.99	48.449
731.30	48.225
731.62	47.938
731.93	47.644
732.24	47.431
732.56	46.975
732.87	46.615
733.19	46.377
733.50	46.262
733.81	45.836
734.13	45.738
734.44	45.421
734.76	45.134
735.07	44.941
735.38	44.543
735.70	44.250
736.01	44.324
736.32	44.264
736.64	44.277
736.95	43.944
737.26	44.021
737.58	43.737
737.89	43.667
738.20	43.289
738.52	43.038
738.83	42.729
739.14	42.401
739.45	41.911
739.77	41.580
740.08	41.135
740.39	40.746
740.71	40.118
741.02	39.830
741.33	39.660
741.64	39.543
741.96	39.232
742.27	38.933
742.58	38.484
742.90	38.193
743.21	38.027
743.52	37.856
743.83	37.722
744.14	37.804
744.46	37.575
744.77	37.178
745.08	36.768
745.39	36.854
745.71	36.911
746.02	36.985
746.33	36.998
746.64	36.544
746.95	36.323
747.27	36.277
747.58	36.234
747.89	35.996
748.20	36.152
748.51	36.341
748.82	36.011
749.14	35.673
749.45	35.647
749.76	35.587
750.07	35.556
750.38	35.221
750.69	35.287
751.01	35.124
751.32	35.048
751.63	34.798
751.94	34.488
752.25	34.319
752.56	34.485
752.87	34.277
753.18	33.967
753.49	34.112
753.81	34.253
754.12	34.177
754.43	34.079
754.74	34.596
755.05	35.218
755.36	35.897
755.67	36.413
755.98	37.178
756.29	37.955
756.60	39.064
756.91	39.909
757.22	40.915
757.53	41.914
757.84	43.169
758.15	43.946
758.46	44.669
758.77	45.276
759.09	46.127
759.40	46.491
759.71	46.727
760.02	46.830
760.33	46.768
760.64	46.778
760.95	46.656
761.26	46.380
761.57	46.200
761.88	45.894
762.18	45.688
762.49	45.319
762.80	44.957
763.11	44.434
763.42	44.025
763.73	43.419
764.04	42.890
764.35	42.014
764.66	41.116
764.97	40.147
765.28	39.070
765.59	37.949
765.90	36.478
766.21	34.999
766.52	34.091
766.83	32.764
767.14	31.780
767.44	30.628
767.75	29.922
768.06	28.979
768.37	28.347
768.68	27.400
768.99	26.551
769.30	25.746
769.61	25.230
769.91	24.527
770.22	23.788
770.53	23.628
770.84	22.965
771.15	22.645
771.46	22.312
771.77	21.767
772.07	21.464
772.38	20.829
772.69	20.639
773.00	20.608
773.31	20.145
773.61	20.110
773.92	19.922
774.23	19.884
774.54	19.239
774.85	19.201
775.15	18.813
775.46	18.937
775.77	19.509
776.08	20.259
776.39	19.890
776.69	19.460
777.00	19.408
777.31	19.248
777.62	19.235
777.92	19.832
778.23	19.344
778.54	20.125
778.85	19.585
779.15	19.350
779.46	18.850
779.77	18.426
780.07	18.707
780.38	18.440
780.69	18.242
781.00	18.220
781.30	17.810
781.61	18.257
781.92	17.187
782.22	17.491
782.53	17.229
782.84	17.578
783.14	18.778
783.45	19.076
783.76	19.691
784.06	19.992
784.37	20.456
784.68	20.919
784.98	21.665
785.29	22.605
785.60	23.426
785.90	24.090
786.21	24.407
786.51	24.817
786.82	25.750
787.13	25.720
787.43	26.053
787.74	26.498
788.04	26.537
788.35	26.171
788.66	25.988
788.96	25.809
789.27	26.030
789.57	25.672
789.88	24.595
790.19	23.833
790.49	23.365
790.80	23.247
791.10	22.937
791.41	23.230
791.71	23.476
792.02	23.804
792.32	23.707
792.63	23.636
792.93	24.009
793.24	24.774
793.54	24.959
793.85	25.554
794.15	26.088
794.46	25.950
794.76	25.623
795.07	25.583
795.37	25.692
795.68	26.461
795.98	26.249
796.29	26.089
796.59	26.181
796.90	26.002
797.20	25.900
797.51	25.695
797.81	25.858
798.12	25.872
798.42	25.847
798.72	25.942
799.03	25.532
799.33	25.252
799.64	25.714
799.94	25.788
800.25	26.189
800.55	26.528
800.85	26.164
801.16	25.931
801.46	26.172
801.77	25.881
802.07	25.659
802.37	25.186
802.68	24.940
802.98	24.015
803.28	23.715
803.59	23.164
803.89	22.842
804.20	23.118
804.50	23.259
804.80	22.644
805.11	23.012
805.41	23.143
805.71	23.717
806.02	24.459
806.32	24.593
806.62	24.700
806.93	25.046
807.23	25.224
807.53	25.203
807.83	25.099
808.14	25.471
808.44	25.424
808.74	24.730
809.05	24.796
809.35	25.137
809.65	25.316
809.95	25.306
810.26	26.193
810.56	26.286
810.86	26.682
811.16	27.063
811.47	27.665
811.77	28.506
812.07	29.199
812.37	29.953
812.68	29.880
812.98	30.570
813.28	30.833
813.58	30.980
813.88	32.008
814.19	32.775
814.49	33.294
814.79	33.750
815.09	33.962
815.39	34.722
815.70	33.973
816.00	34.273
816.30	34.818
816.60	35.184
816.90	34.905
817.20	35.529
817.50	35.990
817.81	36.788
818.11	37.351
818.41	37.816
818.71	38.259
819.01	38.852
819.31	39.207
819.61	39.340
819.92	39.701
820.22	39.821
820.52	39.906
820.82	39.996
821.12	40.057
821.42	40.075
821.72	40.064
822.02	40.028
822.32	40.097
822.62	40.093
822.92	40.056
823.22	39.918
823.52	39.872
823.83	39.787
824.13	39.627
824.43	39.466
824.73	39.357
825.03	39.310
825.33	39.202
825.63	38.824
825.93	38.653
826.23	38.535
826.53	38.449
826.83	38.465
827.13	38.299
827.43	38.265
827.73	38.029
828.03	37.866
828.33	37.574
828.63	37.270
828.93	36.994
829.23	36.426
829.53	36.225
829.83	35.962
830.13	35.714
830.42	35.359
830.72	35.384
831.02	35.639
831.32	35.814
831.62	36.144
831.92	36.389
832.22	36.464
832.52	36.749
832.82	36.695
833.12	36.633
833.42	36.607
833.72	36.517
834.01	36.090
834.31	36.011
834.61	35.609
834.91	35.007
835.21	34.560
835.51	34.180
835.81	33.556
836.11	32.809
836.40	31.840
836.70	31.028
837.00	30.379
837.30	29.428
837.60	28.202
837.90	28.080
838.19	27.690
838.49	26.810
838.79	26.340
839.09	26.175
839.39	25.134
839.68	24.508
839.98	24.417
840.28	23.519
840.58	23.301
840.88	22.074
841.17	21.167
841.47	18.971
841.77	17.937
842.07	16.158
842.36	15.087
842.66	14.199
842.96	12.709
843.26	9.982
843.55	9.262
843.85	7.217
844.15	7.046
844.45	5.560
844.74	6.078
845.04	5.006
845.34	5.912
845.63	4.009
845.93	2.672
846.23	0.921
846.53	0.179
846.82	-3.663
847.12	-4.904
847.42	-3.171
847.71	-3.972
848.01	-3.040
848.31	0.475
848.60	0.496
848.90	-0.360
849.19	0.219
849.49	-0.919
849.79	-2.437
850.08	-4.698
850.38	-5.621
850.68	-7.190
850.97	-8.761
851.27	-10.178
851.56	-14.003
851.86	-14.838
852.16	-17.386
852.45	-15.906
852.75	-14.346
853.04	-12.157
853.34	-6.696
853.64	-1.572
853.93	0.666
854.23	1.787
854.52	2.389
854.82	5.116
855.11	6.174
855.41	7.081
855.70	7.106
856.00	7.186
856.30	3.319
856.59	3.280
856.89	-2.014
857.18	-5.694
857.48	-4.926
857.77	-4.452
858.07	-5.679
858.36	-8.874
858.66	-7.048
858.95	-7.278
859.25	-5.691
859.54	-2.055
859.84	-2.271
860.13	3.259
860.42	4.039
860.72	3.000
861.01	0.909
861.31	1.017
861.60	3.456
861.90	1.115
862.19	3.694
862.49	3.261
862.78	5.671
863.07	8.186
863.37	9.909
863.66	9.776
863.96	13.281
864.25	17.593
864.54	13.604
864.84	13.799
865.13	16.733
865.43	14.269
865.72	21.038
866.01	-33.222
866.31	10.390
866.60	7.958
866.89	15.907
>>>>>End Spectral Data<<<<<
