OOIBase32 Version 2.0.0.6 Data File
++++++++++++++++++++++++++++++++++++
Date: 01-20-2012, 22:33:54
User: Valued Ocean Optics Customer
Spectrometer Serial Number: USB2E2917
Spectrometer Channel: Master
Integration Time (msec): 4
Spectra Averaged: 10
Boxcar Smoothing: 5
Correct for Electrical Dark: Enabled
Time Normalized: Disabled
Dual-beam Reference: Disabled
Reference Channel: Master
Temperature: Not acquired
Spectrometer Type: S2000
ADC Type: USB2000
Number of Pixels in File: 2048
Graph Title: 
>>>>>Begin Spectral Data<<<<<
180.30	0.000
180.67	0.000
181.03	240.045
181.40	33.457
181.77	99.118
182.14	314.631
182.51	19.375
182.88	41.152
183.25	-73.847
183.62	20.059
183.99	-41.462
184.36	180.375
184.73	58.362
185.10	-264.235
185.46	240.045
185.83	35.620
186.20	-143.039
186.57	19.942
186.94	7.765
187.31	-45.989
187.68	-2849.392
188.05	58.571
188.42	22.066
188.78	30.713
189.15	21.759
189.52	-0.044
189.89	-17.966
190.26	-15.137
190.63	-9.048
191.00	-27.565
191.37	-70.261
191.73	-74.352
192.10	-89.817
192.47	-47.208
192.84	-67.022
193.21	-46.104
193.58	-22.713
193.94	-66.154
194.31	13.284
194.68	24.670
195.05	11.988
195.42	26.014
195.79	20.975
196.15	12.259
196.52	-5.182
196.89	-16.332
197.26	-22.313
197.63	-5.201
198.00	24.647
198.36	-6.594
198.73	-2.770
199.10	11.161
199.47	11.286
199.84	9.268
200.20	15.095
200.57	23.723
200.94	13.008
201.31	13.180
201.68	-8.357
202.04	-21.010
202.41	-24.684
202.78	-31.613
203.15	-45.249
203.51	-50.052
203.88	-11.150
204.25	-11.704
204.62	-3.378
204.98	14.782
205.35	14.532
205.72	28.312
206.09	30.152
206.46	45.180
206.82	31.774
207.19	33.022
207.56	29.296
207.92	24.209
208.29	39.293
208.66	31.896
209.03	35.228
209.39	38.571
209.76	40.940
210.13	38.946
210.50	29.167
210.86	40.761
211.23	29.430
211.60	43.540
211.96	26.572
212.33	22.826
212.70	11.129
213.07	9.466
213.43	4.670
213.80	8.148
214.17	16.096
214.53	18.840
214.90	15.119
215.27	22.534
215.63	20.682
216.00	32.623
216.37	38.529
216.74	51.507
217.10	53.266
217.47	50.264
217.84	48.856
218.20	42.039
218.57	39.953
218.94	35.579
219.30	28.278
219.67	23.931
220.04	22.804
220.40	18.200
220.77	15.673
221.13	17.926
221.50	18.578
221.87	16.021
222.23	17.506
222.60	12.255
222.97	14.619
223.33	18.090
223.70	13.828
224.07	11.531
224.43	9.000
224.80	7.287
225.16	4.884
225.53	4.026
225.90	4.782
226.26	6.682
226.63	7.344
226.99	5.618
227.36	5.622
227.73	5.975
228.09	6.156
228.46	6.039
228.82	5.220
229.19	5.387
229.56	5.735
229.92	4.937
230.29	2.421
230.65	2.988
231.02	3.532
231.38	2.488
231.75	1.386
232.12	1.566
232.48	1.390
232.85	2.790
233.21	2.893
233.58	2.308
233.94	3.189
234.31	4.585
234.68	4.032
235.04	5.267
235.41	5.106
235.77	7.206
236.14	6.912
236.50	5.762
236.87	5.111
237.23	5.169
237.60	6.041
237.96	6.108
238.33	6.237
238.69	5.891
239.06	5.366
239.42	5.516
239.79	4.822
240.15	4.499
240.52	4.802
240.88	4.774
241.25	4.462
241.61	3.866
241.98	3.788
242.34	3.760
242.71	3.693
243.07	3.695
243.44	3.532
243.80	3.647
244.17	3.861
244.53	3.864
244.90	3.768
245.26	4.055
245.63	4.267
245.99	4.291
246.36	4.239
246.72	4.166
247.09	4.116
247.45	3.890
247.81	3.665
248.18	3.580
248.54	3.343
248.91	3.199
249.27	3.005
249.64	3.073
250.00	3.157
250.36	3.421
250.73	3.463
251.09	3.331
251.46	3.529
251.82	3.520
252.19	3.798
252.55	4.167
252.91	4.709
253.28	4.721
253.64	4.257
254.01	3.940
254.37	3.448
254.73	3.507
255.10	3.779
255.46	3.844
255.83	3.957
256.19	3.785
256.55	3.780
256.92	3.823
257.28	3.891
257.65	3.947
258.01	3.864
258.37	3.705
258.74	3.739
259.10	3.561
259.46	3.662
259.83	3.555
260.19	3.308
260.55	3.307
260.92	3.220
261.28	3.095
261.64	3.298
262.01	3.189
262.37	3.389
262.73	3.327
263.10	3.507
263.46	3.576
263.82	4.023
264.19	4.156
264.55	4.338
264.91	4.132
265.28	3.855
265.64	3.554
266.00	3.721
266.37	3.592
266.73	3.610
267.09	3.441
267.46	3.300
267.82	3.112
268.18	2.893
268.54	2.512
268.91	2.579
269.27	2.804
269.63	2.920
270.00	2.724
270.36	2.772
270.72	2.639
271.08	2.795
271.45	2.671
271.81	2.685
272.17	3.181
272.53	3.283
272.90	3.224
273.26	3.011
273.62	2.862
273.98	3.184
274.35	3.174
274.71	3.418
275.07	3.496
275.43	3.530
275.80	3.568
276.16	3.236
276.52	3.353
276.88	3.172
277.25	3.196
277.61	3.223
277.97	3.257
278.33	3.232
278.69	3.209
279.06	3.157
279.42	3.130
279.78	3.053
280.14	3.321
280.50	3.363
280.87	3.542
281.23	3.618
281.59	3.511
281.95	3.324
282.31	3.301
282.68	3.195
283.04	3.148
283.40	3.277
283.76	3.266
284.12	3.113
284.48	2.940
284.85	2.855
285.21	2.976
285.57	2.853
285.93	2.750
286.29	2.810
286.65	2.701
287.02	2.695
287.38	2.604
287.74	2.711
288.10	2.644
288.46	2.744
288.82	2.860
289.18	2.619
289.54	2.943
289.91	3.130
290.27	3.089
290.63	3.333
290.99	3.504
291.35	3.473
291.71	3.337
292.07	3.604
292.43	3.579
292.79	3.569
293.16	3.722
293.52	3.669
293.88	3.868
294.24	4.146
294.60	4.137
294.96	4.237
295.32	4.495
295.68	4.568
296.04	4.580
296.40	4.768
296.76	4.812
297.12	5.060
297.49	5.177
297.85	5.317
298.21	5.320
298.57	5.690
298.93	5.969
299.29	6.273
299.65	6.650
300.01	7.007
300.37	7.404
300.73	7.948
301.09	8.238
301.45	8.800
301.81	9.208
302.17	9.655
302.53	9.918
302.89	10.148
303.25	10.296
303.61	10.721
303.97	10.947
304.33	11.158
304.69	11.418
305.05	11.701
305.41	11.794
305.77	12.011
306.13	12.386
306.49	12.708
306.85	13.046
307.21	13.365
307.57	13.458
307.93	13.618
308.29	13.948
308.65	14.125
309.01	14.280
309.37	14.533
309.73	14.579
310.09	14.602
310.45	14.696
310.81	14.753
311.17	14.853
311.53	15.073
311.89	15.222
312.25	15.279
312.61	15.436
312.96	15.596
313.32	15.646
313.68	15.793
314.04	15.889
314.40	16.022
314.76	16.109
315.12	16.197
315.48	16.195
315.84	16.343
316.20	16.336
316.56	16.379
316.92	16.351
317.27	16.432
317.63	16.421
317.99	16.431
318.35	16.329
318.71	16.360
319.07	16.375
319.43	16.338
319.79	16.202
320.15	16.084
320.50	16.024
320.86	16.033
321.22	16.057
321.58	15.964
321.94	15.917
322.30	15.800
322.66	15.665
323.01	15.533
323.37	15.448
323.73	15.454
324.09	15.431
324.45	15.319
324.81	15.270
325.17	15.039
325.52	15.134
325.88	15.111
326.24	15.145
326.60	15.220
326.96	15.253
327.31	15.273
327.67	15.231
328.03	15.322
328.39	15.379
328.75	15.394
329.11	15.451
329.46	15.337
329.82	15.336
330.18	15.300
330.54	15.154
330.90	15.103
331.25	15.045
331.61	15.006
331.97	14.923
332.33	14.902
332.68	14.795
333.04	14.768
333.40	14.758
333.76	14.717
334.11	14.647
334.47	14.666
334.83	14.544
335.19	14.493
335.54	14.422
335.90	14.358
336.26	14.265
336.62	14.174
336.97	14.056
337.33	13.996
337.69	13.992
338.05	13.963
338.40	13.907
338.76	13.909
339.12	13.862
339.48	13.711
339.83	13.585
340.19	13.508
340.55	13.507
340.90	13.552
341.26	13.509
341.62	13.396
341.97	13.327
342.33	13.171
342.69	13.117
343.04	12.994
343.40	13.059
343.76	13.091
344.12	12.965
344.47	12.916
344.83	12.807
345.19	12.830
345.54	12.804
345.90	12.785
346.26	12.917
346.61	12.847
346.97	12.882
347.32	12.873
347.68	12.769
348.04	12.778
348.39	12.752
348.75	12.692
349.11	12.565
349.46	12.428
349.82	12.465
350.18	12.321
350.53	12.303
350.89	12.251
351.24	12.193
351.60	12.129
351.96	12.081
352.31	12.016
352.67	11.969
353.02	11.927
353.38	11.887
353.74	11.803
354.09	11.740
354.45	11.742
354.80	11.691
355.16	11.618
355.52	11.583
355.87	11.586
356.23	11.523
356.58	11.482
356.94	11.412
357.29	11.486
357.65	11.401
358.00	11.354
358.36	11.265
358.72	11.190
359.07	11.117
359.43	11.094
359.78	11.058
360.14	11.026
360.49	10.937
360.85	10.879
361.20	10.735
361.56	10.643
361.91	10.538
362.27	10.452
362.62	10.387
362.98	10.331
363.33	10.287
363.69	10.211
364.04	10.164
364.40	10.110
364.75	10.037
365.11	10.019
365.46	9.989
365.82	9.969
366.17	9.970
366.53	10.030
366.88	10.008
367.24	9.906
367.59	9.840
367.95	9.754
368.30	9.781
368.66	9.777
369.01	9.733
369.37	9.709
369.72	9.707
370.08	9.683
370.43	9.623
370.78	9.556
371.14	9.588
371.49	9.534
371.85	9.545
372.20	9.475
372.56	9.452
372.91	9.384
373.26	9.353
373.62	9.320
373.97	9.239
374.33	9.153
374.68	9.136
375.03	9.055
375.39	8.999
375.74	8.922
376.10	8.866
376.45	8.823
376.80	8.815
377.16	8.765
377.51	8.694
377.87	8.649
378.22	8.622
378.57	8.562
378.93	8.548
379.28	8.597
379.63	8.566
379.99	8.573
380.34	8.525
380.70	8.487
381.05	8.443
381.40	8.426
381.76	8.432
382.11	8.407
382.46	8.450
382.82	8.384
383.17	8.298
383.52	8.293
383.88	8.264
384.23	8.219
384.58	8.180
384.94	8.132
385.29	8.070
385.64	7.990
385.99	7.925
386.35	7.795
386.70	7.732
387.05	7.678
387.41	7.571
387.76	7.539
388.11	7.515
388.47	7.482
388.82	7.475
389.17	7.498
389.52	7.431
389.88	7.416
390.23	7.423
390.58	7.416
390.93	7.362
391.29	7.363
391.64	7.274
391.99	7.212
392.34	7.160
392.70	7.102
393.05	6.975
393.40	6.952
393.75	6.870
394.11	6.784
394.46	6.714
394.81	6.693
395.16	6.629
395.52	6.537
395.87	6.453
396.22	6.319
396.57	6.254
396.92	6.181
397.28	6.096
397.63	6.028
397.98	5.960
398.33	5.907
398.68	5.796
399.04	5.744
399.39	5.708
399.74	5.617
400.09	5.584
400.44	5.505
400.80	5.488
401.15	5.443
401.50	5.373
401.85	5.339
402.20	5.289
402.55	5.268
402.90	5.179
403.26	5.124
403.61	5.127
403.96	5.090
404.31	5.026
404.66	4.970
405.01	4.900
405.36	4.847
405.72	4.774
406.07	4.686
406.42	4.618
406.77	4.599
407.12	4.542
407.47	4.475
407.82	4.433
408.17	4.426
408.53	4.358
408.88	4.344
409.23	4.302
409.58	4.288
409.93	4.288
410.28	4.262
410.63	4.180
410.98	4.145
411.33	4.110
411.68	4.078
412.03	4.035
412.38	4.070
412.73	4.052
413.09	4.087
413.44	4.074
413.79	4.105
414.14	4.127
414.49	4.170
414.84	4.195
415.19	4.235
415.54	4.288
415.89	4.323
416.24	4.320
416.59	4.354
416.94	4.355
417.29	4.357
417.64	4.342
417.99	4.328
418.34	4.342
418.69	4.349
419.04	4.345
419.39	4.333
419.74	4.332
420.09	4.334
420.44	4.323
420.79	4.308
421.14	4.305
421.49	4.294
421.84	4.282
422.19	4.254
422.54	4.228
422.89	4.210
423.24	4.190
423.59	4.133
423.94	4.090
424.29	4.056
424.64	4.014
424.99	3.985
425.34	3.950
425.68	3.916
426.03	3.873
426.38	3.851
426.73	3.791
427.08	3.732
427.43	3.723
427.78	3.722
428.13	3.712
428.48	3.730
428.83	3.715
429.18	3.720
429.53	3.742
429.87	3.747
430.22	3.752
430.57	3.779
430.92	3.786
431.27	3.818
431.62	3.828
431.97	3.825
432.32	3.820
432.67	3.818
433.01	3.825
433.36	3.806
433.71	3.813
434.06	3.797
434.41	3.787
434.76	3.802
435.11	3.796
435.45	3.808
435.80	3.844
436.15	3.883
436.50	3.906
436.85	3.932
437.20	3.974
437.54	4.009
437.89	4.057
438.24	4.101
438.59	4.110
438.94	4.102
439.29	4.100
439.63	4.080
439.98	4.078
440.33	4.094
440.68	4.107
441.03	4.121
441.37	4.128
441.72	4.147
442.07	4.163
442.42	4.188
442.76	4.227
443.11	4.255
443.46	4.296
443.81	4.305
444.16	4.326
444.50	4.328
444.85	4.308
445.20	4.324
445.55	4.299
445.89	4.267
446.24	4.252
446.59	4.233
446.94	4.197
447.28	4.134
447.63	4.096
447.98	4.054
448.32	4.002
448.67	3.972
449.02	3.900
449.37	3.866
449.71	3.865
450.06	3.846
450.41	3.836
450.75	3.840
451.10	3.869
451.45	3.882
451.79	3.872
452.14	3.879
452.49	3.901
452.84	3.926
453.18	3.936
453.53	3.924
453.88	3.932
454.22	3.944
454.57	3.963
454.92	4.002
455.26	3.994
455.61	4.040
455.95	4.075
456.30	4.128
456.65	4.147
456.99	4.177
457.34	4.215
457.69	4.244
458.03	4.259
458.38	4.265
458.73	4.256
459.07	4.282
459.42	4.273
459.76	4.265
460.11	4.223
460.46	4.185
460.80	4.177
461.15	4.129
461.49	4.101
461.84	4.085
462.19	4.078
462.53	4.077
462.88	4.066
463.22	4.064
463.57	4.082
463.91	4.098
464.26	4.140
464.61	4.136
464.95	4.171
465.30	4.190
465.64	4.208
465.99	4.209
466.33	4.207
466.68	4.213
467.02	4.198
467.37	4.178
467.71	4.168
468.06	4.169
468.41	4.178
468.75	4.162
469.10	4.133
469.44	4.122
469.79	4.111
470.13	4.101
470.48	4.069
470.82	4.065
471.17	4.077
471.51	4.085
471.86	4.051
472.20	4.025
472.55	4.025
472.89	4.018
473.23	3.990
473.58	3.979
473.92	3.974
474.27	3.992
474.61	3.991
474.96	3.948
475.30	3.911
475.65	3.912
475.99	3.909
476.34	3.890
476.68	3.886
477.02	3.883
477.37	3.888
477.71	3.897
478.06	3.926
478.40	3.979
478.75	4.090
479.09	4.202
479.43	4.332
479.78	4.460
480.12	4.600
480.47	4.739
480.81	4.877
481.15	5.013
481.50	5.140
481.84	5.276
482.19	5.417
482.53	5.533
482.87	5.622
483.22	5.633
483.56	5.599
483.90	5.522
484.25	5.410
484.59	5.280
484.94	5.168
485.28	5.065
485.62	4.941
485.97	4.796
486.31	4.668
486.65	4.560
487.00	4.513
487.34	4.495
487.68	4.499
488.03	4.536
488.37	4.582
488.71	4.587
489.06	4.584
489.40	4.560
489.74	4.543
490.09	4.517
490.43	4.493
490.77	4.473
491.11	4.447
491.46	4.420
491.80	4.386
492.14	4.348
492.49	4.318
492.83	4.266
493.17	4.231
493.51	4.209
493.86	4.181
494.20	4.155
494.54	4.157
494.88	4.173
495.23	4.209
495.57	4.238
495.91	4.260
496.25	4.286
496.60	4.315
496.94	4.355
497.28	4.379
497.62	4.403
497.97	4.417
498.31	4.423
498.65	4.453
498.99	4.461
499.33	4.492
499.68	4.524
500.02	4.570
500.36	4.623
500.70	4.663
501.04	4.707
501.39	4.755
501.73	4.825
502.07	4.886
502.41	4.931
502.75	4.991
503.09	5.049
503.44	5.126
503.78	5.179
504.12	5.222
504.46	5.293
504.80	5.367
505.14	5.446
505.49	5.525
505.83	5.596
506.17	5.663
506.51	5.740
506.85	5.800
507.19	5.858
507.53	5.924
507.87	6.001
508.22	6.053
508.56	6.091
508.90	6.118
509.24	6.136
509.58	6.179
509.92	6.209
510.26	6.248
510.60	6.272
510.94	6.291
511.28	6.318
511.63	6.355
511.97	6.390
512.31	6.430
512.65	6.484
512.99	6.545
513.33	6.613
513.67	6.683
514.01	6.726
514.35	6.818
514.69	6.905
515.03	6.970
515.37	7.027
515.71	7.089
516.05	7.152
516.39	7.207
516.73	7.241
517.07	7.257
517.41	7.274
517.75	7.292
518.09	7.273
518.43	7.251
518.77	7.252
519.11	7.221
519.45	7.183
519.79	7.170
520.13	7.156
520.47	7.162
520.81	7.167
521.15	7.195
521.49	7.220
521.83	7.260
522.17	7.306
522.51	7.349
522.85	7.405
523.19	7.497
523.53	7.576
523.87	7.674
524.21	7.768
524.55	7.862
524.89	7.945
525.23	8.010
525.57	8.073
525.91	8.139
526.25	8.193
526.58	8.247
526.92	8.272
527.26	8.301
527.60	8.298
527.94	8.280
528.28	8.248
528.62	8.206
528.96	8.176
529.30	8.136
529.64	8.083
529.97	8.025
530.31	7.966
530.65	7.909
530.99	7.850
531.33	7.805
531.67	7.777
532.01	7.767
532.35	7.748
532.68	7.728
533.02	7.687
533.36	7.652
533.70	7.617
534.04	7.572
534.38	7.533
534.71	7.475
535.05	7.432
535.39	7.386
535.73	7.326
536.07	7.294
536.41	7.289
536.74	7.295
537.08	7.297
537.42	7.318
537.76	7.345
538.10	7.371
538.43	7.401
538.77	7.426
539.11	7.454
539.45	7.469
539.79	7.480
540.12	7.481
540.46	7.484
540.80	7.477
541.14	7.461
541.47	7.429
541.81	7.403
542.15	7.365
542.49	7.310
542.82	7.244
543.16	7.208
543.50	7.145
543.84	7.094
544.17	7.050
544.51	7.000
544.85	6.944
545.18	6.918
545.52	6.883
545.86	6.858
546.20	6.829
546.53	6.790
546.87	6.731
547.21	6.692
547.54	6.636
547.88	6.587
548.22	6.555
548.55	6.528
548.89	6.489
549.23	6.471
549.56	6.453
549.90	6.447
550.24	6.461
550.57	6.461
550.91	6.457
551.25	6.446
551.58	6.439
551.92	6.429
552.26	6.419
552.59	6.396
552.93	6.356
553.27	6.322
553.60	6.308
553.94	6.305
554.27	6.299
554.61	6.296
554.95	6.293
555.28	6.297
555.62	6.315
555.95	6.308
556.29	6.333
556.63	6.352
556.96	6.360
557.30	6.366
557.63	6.357
557.97	6.369
558.31	6.367
558.64	6.343
558.98	6.328
559.31	6.322
559.65	6.360
559.98	6.394
560.32	6.431
560.65	6.461
560.99	6.477
561.33	6.504
561.66	6.510
562.00	6.554
562.33	6.622
562.67	6.647
563.00	6.657
563.34	6.652
563.67	6.645
564.01	6.653
564.34	6.677
564.68	6.718
565.01	6.742
565.35	6.753
565.68	6.753
566.02	6.746
566.35	6.765
566.69	6.798
567.02	6.815
567.36	6.836
567.69	6.858
568.03	6.853
568.36	6.846
568.69	6.848
569.03	6.866
569.36	6.873
569.70	6.876
570.03	6.903
570.37	6.922
570.70	6.963
571.04	6.975
571.37	6.980
571.70	7.011
572.04	7.030
572.37	7.032
572.71	7.027
573.04	7.047
573.37	7.055
573.71	7.045
574.04	7.035
574.38	7.022
574.71	7.047
575.04	7.056
575.38	7.053
575.71	7.044
576.05	7.041
576.38	7.054
576.71	7.041
577.05	7.031
577.38	7.021
577.71	7.020
578.05	7.002
578.38	6.959
578.71	6.926
579.05	6.933
579.38	6.935
579.71	6.926
580.05	6.935
580.38	6.940
580.71	6.944
581.05	6.958
581.38	6.955
581.71	6.968
582.05	7.007
582.38	7.044
582.71	7.040
583.04	7.064
583.38	7.115
583.71	7.138
584.04	7.199
584.38	7.246
584.71	7.306
585.04	7.364
585.37	7.417
585.71	7.412
586.04	7.431
586.37	7.470
586.70	7.500
587.04	7.539
587.37	7.561
587.70	7.545
588.03	7.569
588.37	7.548
588.70	7.566
589.03	7.576
589.36	7.629
589.69	7.643
590.03	7.669
590.36	7.665
590.69	7.671
591.02	7.691
591.35	7.736
591.69	7.770
592.02	7.812
592.35	7.829
592.68	7.875
593.01	7.892
593.35	7.948
593.68	7.967
594.01	8.010
594.34	8.040
594.67	8.083
595.00	8.100
595.34	8.114
595.67	8.144
596.00	8.151
596.33	8.133
596.66	8.150
596.99	8.121
597.32	8.156
597.65	8.174
597.99	8.193
598.32	8.181
598.65	8.206
598.98	8.243
599.31	8.256
599.64	8.278
599.97	8.302
600.30	8.327
600.63	8.374
600.96	8.365
601.30	8.367
601.63	8.380
601.96	8.406
602.29	8.428
602.62	8.439
602.95	8.458
603.28	8.468
603.61	8.502
603.94	8.510
604.27	8.524
604.60	8.551
604.93	8.566
605.26	8.553
605.59	8.562
605.92	8.571
606.25	8.558
606.58	8.567
606.91	8.618
607.24	8.588
607.57	8.612
607.90	8.610
608.23	8.618
608.56	8.635
608.89	8.661
609.22	8.674
609.55	8.665
609.88	8.663
610.21	8.661
610.54	8.626
610.87	8.639
611.20	8.603
611.53	8.589
611.86	8.588
612.19	8.586
612.52	8.593
612.85	8.587
613.18	8.567
613.51	8.609
613.84	8.603
614.17	8.587
614.49	8.642
614.82	8.698
615.15	8.704
615.48	8.673
615.81	8.626
616.14	8.608
616.47	8.584
616.80	8.590
617.13	8.587
617.46	8.610
617.78	8.654
618.11	8.608
618.44	8.599
618.77	8.600
619.10	8.629
619.43	8.663
619.76	8.661
620.09	8.651
620.41	8.673
620.74	8.659
621.07	8.657
621.40	8.645
621.73	8.661
622.06	8.672
622.38	8.671
622.71	8.673
623.04	8.660
623.37	8.680
623.70	8.728
624.02	8.774
624.35	8.767
624.68	8.778
625.01	8.769
625.34	8.746
625.66	8.702
625.99	8.716
626.32	8.696
626.65	8.724
626.98	8.729
627.30	8.698
627.63	8.617
627.96	8.610
628.29	8.576
628.61	8.579
628.94	8.601
629.27	8.596
629.60	8.596
629.92	8.588
630.25	8.551
630.58	8.519
630.91	8.525
631.23	8.553
631.56	8.538
631.89	8.525
632.21	8.559
632.54	8.559
632.87	8.554
633.19	8.529
633.52	8.530
633.85	8.532
634.18	8.513
634.50	8.529
634.83	8.468
635.16	8.447
635.48	8.453
635.81	8.393
636.14	8.356
636.46	8.290
636.79	8.268
637.11	8.271
637.44	8.270
637.77	8.284
638.09	8.226
638.42	8.232
638.75	8.265
639.07	8.252
639.40	8.215
639.73	8.189
640.05	8.247
640.38	8.237
640.70	8.194
641.03	8.153
641.36	8.129
641.68	8.087
642.01	8.122
642.33	8.077
642.66	8.061
642.98	7.987
643.31	7.996
643.64	7.945
643.96	7.954
644.29	7.953
644.61	7.990
644.94	7.993
645.26	8.052
645.59	8.047
645.91	8.051
646.24	7.999
646.56	8.076
646.89	8.050
647.22	8.095
647.54	8.130
647.87	8.105
648.19	8.083
648.52	8.056
648.84	7.994
649.17	7.969
649.49	7.935
649.82	7.946
650.14	7.883
650.47	7.893
650.79	7.848
651.11	7.777
651.44	7.783
651.76	7.755
652.09	7.727
652.41	7.748
652.74	7.730
653.06	7.759
653.39	7.739
653.71	7.749
654.04	7.731
654.36	7.754
654.68	7.764
655.01	7.724
655.33	7.707
655.66	7.693
655.98	7.636
656.30	7.597
656.63	7.550
656.95	7.567
657.28	7.581
657.60	7.550
657.92	7.513
658.25	7.472
658.57	7.435
658.90	7.409
659.22	7.323
659.54	7.275
659.87	7.193
660.19	7.143
660.51	7.043
660.84	6.926
661.16	6.873
661.48	6.740
661.81	6.634
662.13	6.571
662.45	6.478
662.78	6.508
663.10	6.490
663.42	6.492
663.75	6.442
664.07	6.349
664.39	6.285
664.72	6.248
665.04	6.292
665.36	6.255
665.69	6.237
666.01	6.226
666.33	6.169
666.65	6.128
666.98	6.026
667.30	6.012
667.62	5.995
667.94	5.965
668.27	5.883
668.59	5.787
668.91	5.653
669.23	5.541
669.56	5.459
669.88	5.363
670.20	5.260
670.52	5.275
670.85	5.215
671.17	5.223
671.49	5.161
671.81	5.121
672.13	5.057
672.46	5.116
672.78	5.153
673.10	5.062
673.42	5.068
673.74	5.067
674.07	5.043
674.39	5.001
674.71	4.940
675.03	4.884
675.35	4.823
675.67	4.860
676.00	4.870
676.32	4.880
676.64	4.885
676.96	4.860
677.28	4.922
677.60	4.956
677.92	5.008
678.25	5.041
678.57	5.119
678.89	5.149
679.21	5.089
679.53	5.008
679.85	4.999
680.17	4.988
680.49	4.996
680.81	4.896
681.13	4.871
681.46	4.785
681.78	4.726
682.10	4.650
682.42	4.615
682.74	4.619
683.06	4.718
683.38	4.636
683.70	4.701
684.02	4.704
684.34	4.793
684.66	4.769
684.98	4.783
685.30	4.806
685.62	4.864
685.94	4.821
686.26	4.817
686.58	4.724
686.90	4.746
687.22	4.708
687.54	4.650
687.86	4.522
688.18	4.404
688.50	4.303
688.82	4.167
689.14	4.052
689.46	4.050
689.78	3.932
690.10	3.891
690.42	3.768
690.74	3.631
691.06	3.526
691.38	3.443
691.70	3.392
692.02	3.292
692.34	3.240
692.66	3.147
692.98	2.966
693.30	2.912
693.62	2.891
693.94	2.915
694.26	2.976
694.57	3.009
694.89	3.157
695.21	3.278
695.53	3.359
695.85	3.461
696.17	3.579
696.49	3.686
696.81	3.822
697.13	3.874
697.44	3.863
697.76	3.774
698.08	3.708
698.40	3.514
698.72	3.279
699.04	3.113
699.36	2.895
699.67	2.621
699.99	2.327
700.31	1.917
700.63	1.488
700.95	1.117
701.27	0.829
701.58	0.497
701.90	0.162
702.22	-0.069
702.54	-0.269
702.86	-0.423
703.17	-0.502
703.49	-0.544
703.81	-0.702
704.13	-0.876
704.45	-0.927
704.76	-0.957
705.08	-1.059
705.40	-1.016
705.72	-1.028
706.03	-1.043
706.35	-1.139
706.67	-1.349
706.99	-1.400
707.30	-1.342
707.62	-1.308
707.94	-1.421
708.26	-1.468
708.57	-1.442
708.89	-1.469
709.21	-1.439
709.53	-1.515
709.84	-1.498
710.16	-1.426
710.48	-1.366
710.79	-1.412
711.11	-1.310
711.43	-1.201
711.74	-1.060
712.06	-0.904
712.38	-0.743
712.69	-0.711
713.01	-0.508
713.33	-0.400
713.64	-0.242
713.96	-0.208
714.28	0.101
714.59	0.315
714.91	0.617
715.23	0.806
715.54	1.046
715.86	1.161
716.17	1.362
716.49	1.276
716.81	1.353
717.12	1.289
717.44	1.291
717.76	1.040
718.07	0.814
718.39	0.439
718.70	0.041
719.02	-0.510
719.33	-0.926
719.65	-1.236
719.97	-1.494
720.28	-1.714
720.60	-1.804
720.91	-1.741
721.23	-1.737
721.54	-1.797
721.86	-1.642
722.17	-1.509
722.49	-1.321
722.81	-1.177
723.12	-1.218
723.44	-0.969
723.75	-0.935
724.07	-0.920
724.38	-1.188
724.70	-1.274
725.01	-1.269
725.33	-1.338
725.64	-1.378
725.96	-1.309
726.27	-1.307
726.59	-1.241
726.90	-1.274
727.22	-1.305
727.53	-1.357
727.84	-1.222
728.16	-1.353
728.47	-1.345
728.79	-1.670
729.10	-1.932
729.42	-2.169
729.73	-2.507
730.05	-2.827
730.36	-3.201
730.67	-3.639
730.99	-4.038
731.30	-4.469
731.62	-4.755
731.93	-5.270
732.24	-5.474
732.56	-5.867
732.87	-6.219
733.19	-6.647
733.50	-6.981
733.81	-7.370
734.13	-7.663
734.44	-8.107
734.76	-8.269
735.07	-8.608
735.38	-9.036
735.70	-9.388
736.01	-9.805
736.32	-10.179
736.64	-10.249
736.95	-10.545
737.26	-10.808
737.58	-11.134
737.89	-11.342
738.20	-11.994
738.52	-12.336
738.83	-12.760
739.14	-13.250
739.45	-13.574
739.77	-14.055
740.08	-14.763
740.39	-15.235
740.71	-15.833
741.02	-16.331
741.33	-16.846
741.64	-17.369
741.96	-17.871
742.27	-18.266
742.58	-18.689
742.90	-19.129
743.21	-19.602
743.52	-19.914
743.83	-20.525
744.14	-20.553
744.46	-20.682
744.77	-20.977
745.08	-21.251
745.39	-21.243
745.71	-21.042
746.02	-21.069
746.33	-20.856
746.64	-21.022
746.95	-21.085
747.27	-20.802
747.58	-20.659
747.89	-20.993
748.20	-20.884
748.51	-20.566
748.82	-20.696
749.14	-20.942
749.45	-20.883
749.76	-21.291
750.07	-21.142
750.38	-21.416
750.69	-21.875
751.01	-22.364
751.32	-22.228
751.63	-22.393
751.94	-22.559
752.25	-22.696
752.56	-22.695
752.87	-23.125
753.18	-22.858
753.49	-22.870
753.81	-22.486
754.12	-21.899
754.43	-21.399
754.74	-20.597
755.05	-19.414
755.36	-18.227
755.67	-17.095
755.98	-15.719
756.29	-14.162
756.60	-12.516
756.91	-11.049
757.22	-9.242
757.53	-7.415
757.84	-5.874
758.15	-4.332
758.46	-2.886
758.77	-1.728
759.09	-0.514
759.40	0.507
759.71	1.317
760.02	1.720
760.33	2.223
760.64	2.318
760.95	2.328
761.26	2.360
761.57	2.149
761.88	1.690
762.18	1.318
762.49	0.927
762.80	0.137
763.11	-0.656
763.42	-1.464
763.73	-2.492
764.04	-3.482
764.35	-4.683
764.66	-6.176
764.97	-7.940
765.28	-9.708
765.59	-11.819
765.90	-14.389
766.21	-16.485
766.52	-18.267
766.83	-20.193
767.14	-22.021
767.44	-23.868
767.75	-25.904
768.06	-27.281
768.37	-28.264
768.68	-29.794
768.99	-30.749
769.30	-31.634
769.61	-32.721
769.91	-33.822
770.22	-34.910
770.53	-35.305
770.84	-36.417
771.15	-36.572
771.46	-37.192
771.77	-38.104
772.07	-37.748
772.38	-38.206
772.69	-38.576
773.00	-38.521
773.31	-39.031
773.61	-39.648
773.92	-40.317
774.23	-39.838
774.54	-40.706
774.85	-40.369
775.15	-40.472
775.46	-40.871
775.77	-40.614
776.08	-39.757
776.39	-39.690
776.69	-39.457
777.00	-38.728
777.31	-38.605
777.62	-38.381
777.92	-37.855
778.23	-38.824
778.54	-37.938
778.85	-38.068
779.15	-37.929
779.46	-38.618
779.77	-39.459
780.07	-39.582
780.38	-40.666
780.69	-40.754
781.00	-41.175
781.30	-41.113
781.61	-40.722
781.92	-42.116
782.22	-42.031
782.53	-42.685
782.84	-42.372
783.14	-41.231
783.45	-40.427
783.76	-38.316
784.06	-37.416
784.37	-36.169
784.68	-34.840
784.98	-33.368
785.29	-31.074
785.60	-29.563
785.90	-27.965
786.21	-26.752
786.51	-25.282
786.82	-24.009
787.13	-23.990
787.43	-23.409
787.74	-22.425
788.04	-22.379
788.35	-22.598
788.66	-23.282
788.96	-24.121
789.27	-24.338
789.57	-24.631
789.88	-25.957
790.19	-26.723
790.49	-26.797
790.80	-27.510
791.10	-29.181
791.41	-29.518
791.71	-29.329
792.02	-29.077
792.32	-28.145
792.63	-27.819
792.93	-27.145
793.24	-26.463
793.54	-26.189
793.85	-25.522
794.15	-24.283
794.46	-23.016
794.76	-22.632
795.07	-22.449
795.37	-22.427
795.68	-21.581
795.98	-21.927
796.29	-22.062
796.59	-21.981
796.90	-22.289
797.20	-22.290
797.51	-22.630
797.81	-22.887
798.12	-22.939
798.42	-22.764
798.72	-21.768
799.03	-22.806
799.33	-22.390
799.64	-22.517
799.94	-22.498
800.25	-22.398
800.55	-22.392
800.85	-22.615
801.16	-22.861
801.46	-22.510
801.77	-22.425
802.07	-23.227
802.37	-22.635
802.68	-23.441
802.98	-24.243
803.28	-23.993
803.59	-24.408
803.89	-24.558
804.20	-24.349
804.50	-24.037
804.80	-24.148
805.11	-24.482
805.41	-23.910
805.71	-24.013
806.02	-22.832
806.32	-22.155
806.62	-21.975
806.93	-21.637
807.23	-21.217
807.53	-21.392
807.83	-21.218
808.14	-21.498
808.44	-20.631
808.74	-20.883
809.05	-20.189
809.35	-19.979
809.65	-19.821
809.95	-19.547
810.26	-17.939
810.56	-17.369
810.86	-15.842
811.16	-15.215
811.47	-13.781
811.77	-13.586
812.07	-13.076
812.37	-12.954
812.68	-11.847
812.98	-11.154
813.28	-10.186
813.58	-10.024
813.88	-9.570
814.19	-9.671
814.49	-9.330
814.79	-9.428
815.09	-8.474
815.39	-7.601
815.70	-7.491
816.00	-7.633
816.30	-7.056
816.60	-7.139
816.90	-6.645
817.20	-5.778
817.50	-4.556
817.81	-2.705
818.11	-0.924
818.41	0.244
818.71	1.245
819.01	2.447
819.31	3.197
819.61	3.861
819.92	4.453
820.22	4.782
820.52	5.144
820.82	5.423
821.12	5.623
821.42	5.699
821.72	5.754
822.02	5.745
822.32	5.687
822.62	5.633
822.92	5.455
823.22	5.350
823.52	5.304
823.83	5.091
824.13	4.931
824.43	4.712
824.73	4.463
825.03	4.198
825.33	3.957
825.63	3.733
825.93	3.607
826.23	3.541
826.53	3.360
826.83	3.143
827.13	3.047
827.43	2.929
827.73	2.656
828.03	2.393
828.33	2.255
828.63	2.021
828.93	1.149
829.23	0.566
829.53	0.152
829.83	-0.584
830.13	-1.104
830.42	-1.625
830.72	-1.880
831.02	-2.099
831.32	-1.748
831.62	-1.496
831.92	-1.155
832.22	-0.965
832.52	-0.876
832.82	-0.846
833.12	-0.645
833.42	-0.549
833.72	-0.820
834.01	-1.461
834.31	-1.462
834.61	-2.014
834.91	-2.955
835.21	-3.725
835.51	-4.220
835.81	-5.286
836.11	-6.600
836.40	-8.115
836.70	-9.256
837.00	-10.209
837.30	-10.888
837.60	-12.592
837.90	-13.318
838.19	-13.914
838.49	-15.081
838.79	-15.520
839.09	-15.929
839.39	-16.428
839.68	-17.056
839.98	-17.792
840.28	-19.084
840.58	-20.384
840.88	-22.848
841.17	-24.000
841.47	-26.119
841.77	-27.530
842.07	-30.595
842.36	-34.059
842.66	-36.862
842.96	-40.148
843.26	-42.991
843.55	-44.881
843.85	-46.128
844.15	-46.098
844.45	-46.880
844.74	-48.044
845.04	-47.881
845.34	-46.915
845.63	-45.544
845.93	-49.126
846.23	-51.400
846.53	-55.678
846.82	-61.236
847.12	-65.044
847.42	-61.930
847.71	-65.586
848.01	-65.348
848.31	-64.982
848.60	-65.296
848.90	-66.512
849.19	-59.979
849.49	-61.814
849.79	-60.511
850.08	-60.260
850.38	-60.492
850.68	-62.784
850.97	-61.216
851.27	-59.532
851.56	-62.825
851.86	-64.014
852.16	-62.469
852.45	-67.015
852.75	-62.013
853.04	-64.308
853.34	-59.889
853.64	-56.853
853.93	-54.710
854.23	-59.453
854.52	-59.143
854.82	-55.223
855.11	-54.644
855.41	-55.729
855.70	-50.436
856.00	-53.142
856.30	-52.283
856.59	-48.623
856.89	-50.776
857.18	-54.304
857.48	-50.302
857.77	-53.862
858.07	-59.914
858.36	-61.004
858.66	-62.071
858.95	-71.165
859.25	-67.853
859.54	-68.553
859.84	-72.211
860.13	-66.816
860.42	-64.375
860.72	-64.204
861.01	-60.397
861.31	-57.083
861.60	-54.288
861.90	-54.163
862.19	-49.857
862.49	-51.625
862.78	-47.820
863.07	-46.641
863.37	-46.231
863.66	-48.870
863.96	-48.359
864.25	-46.550
864.54	-47.154
864.84	-48.682
865.13	-48.251
865.43	-47.022
865.72	-33.464
866.01	-70.241
866.31	-66.163
866.60	-67.009
866.89	-37.419
>>>>>End Spectral Data<<<<<
