OOIBase32 Version 2.0.0.6 Data File
++++++++++++++++++++++++++++++++++++
Date: 01-20-2012, 22:13:04
User: Valued Ocean Optics Customer
Spectrometer Serial Number: USB2E2917
Spectrometer Channel: Master
Integration Time (msec): 4
Spectra Averaged: 10
Boxcar Smoothing: 5
Correct for Electrical Dark: Enabled
Time Normalized: Disabled
Dual-beam Reference: Disabled
Reference Channel: Master
Temperature: Not acquired
Spectrometer Type: S2000
ADC Type: USB2000
Number of Pixels in File: 2048
Graph Title: 
>>>>>Begin Spectral Data<<<<<
180.30	0.000
180.67	0.000
181.03	74.855
181.40	81.137
181.77	88.783
182.14	2718.400
182.51	114.983
182.88	658.930
183.25	109.143
183.62	-36.862
183.99	-525.785
184.36	115.104
184.73	97.957
185.10	30.778
185.46	-309.559
185.83	38.335
186.20	135.878
186.57	333.777
186.94	-236.000
187.31	-145.484
187.68	156.489
188.05	203.780
188.42	144.939
188.78	104.011
189.15	50.437
189.52	40.306
189.89	15.036
190.26	7.395
190.63	17.570
191.00	15.348
191.37	2.669
191.73	1.365
192.10	-0.425
192.47	11.035
192.84	18.899
193.21	36.169
193.58	36.705
193.94	47.056
194.31	56.757
194.68	63.288
195.05	56.758
195.42	54.695
195.79	53.212
196.15	50.223
196.52	44.842
196.89	35.330
197.26	26.089
197.63	19.707
198.00	19.483
198.36	12.030
198.73	6.277
199.10	7.349
199.47	6.464
199.84	-6.040
200.20	-3.583
200.57	-7.087
200.94	-2.171
201.31	-2.593
201.68	-5.286
202.04	-9.943
202.41	-15.522
202.78	-11.719
203.15	-11.055
203.51	-3.304
203.88	1.697
204.25	2.929
204.62	8.335
204.98	7.696
205.35	7.471
205.72	9.797
206.09	10.079
206.46	19.355
206.82	23.247
207.19	15.273
207.56	10.919
207.92	9.979
208.29	7.981
208.66	0.996
209.03	-1.337
209.39	-3.879
209.76	-5.711
210.13	-8.124
210.50	-6.361
210.86	-4.656
211.23	4.388
211.60	-1.345
211.96	4.785
212.33	1.389
212.70	2.119
213.07	11.133
213.43	11.597
213.80	7.696
214.17	11.161
214.53	11.824
214.90	6.581
215.27	9.045
215.63	15.944
216.00	19.973
216.37	17.281
216.74	12.011
217.10	0.002
217.47	-4.831
217.84	-1.863
218.20	-1.743
218.57	-9.438
218.94	-5.154
219.30	-8.058
219.67	-8.925
220.04	-12.667
220.40	-12.176
220.77	-8.529
221.13	0.040
221.50	4.793
221.87	8.826
222.23	8.424
222.60	10.991
222.97	8.716
223.33	9.397
223.70	6.876
224.07	8.745
224.43	8.504
224.80	9.307
225.16	6.505
225.53	6.295
225.90	5.684
226.26	4.958
226.63	4.213
226.99	3.706
227.36	3.278
227.73	3.011
228.09	1.708
228.46	1.368
228.82	0.232
229.19	0.308
229.56	-0.312
229.92	-0.855
230.29	-0.823
230.65	-0.187
231.02	0.204
231.38	0.133
231.75	0.392
232.12	1.293
232.48	1.633
232.85	2.135
233.21	2.578
233.58	2.805
233.94	1.875
234.31	1.194
234.68	0.693
235.04	0.008
235.41	-0.507
235.77	-0.408
236.14	-0.605
236.50	0.161
236.87	0.570
237.23	0.537
237.60	1.522
237.96	1.947
238.33	2.321
238.69	2.220
239.06	2.305
239.42	2.496
239.79	2.605
240.15	2.798
240.52	2.443
240.88	2.786
241.25	2.892
241.61	2.522
241.98	2.510
242.34	2.352
242.71	2.348
243.07	2.493
243.44	2.467
243.80	2.477
244.17	2.462
244.53	2.409
244.90	2.169
245.26	2.125
245.63	2.108
245.99	2.187
246.36	2.267
246.72	2.267
247.09	2.266
247.45	2.378
247.81	2.183
248.18	2.144
248.54	2.286
248.91	2.332
249.27	2.562
249.64	2.408
250.00	2.465
250.36	2.661
250.73	2.319
251.09	2.037
251.46	1.960
251.82	2.181
252.19	1.997
252.55	2.169
252.91	2.299
253.28	2.115
253.64	2.285
254.01	2.313
254.37	1.783
254.73	2.297
255.10	2.350
255.46	2.085
255.83	2.035
256.19	2.065
256.55	1.696
256.92	1.754
257.28	1.781
257.65	1.729
258.01	1.643
258.37	1.809
258.74	1.803
259.10	1.871
259.46	1.894
259.83	1.938
260.19	2.044
260.55	2.227
260.92	2.188
261.28	2.204
261.64	2.377
262.01	2.388
262.37	2.310
262.73	2.260
263.10	2.069
263.46	2.211
263.82	2.167
264.19	2.083
264.55	1.880
264.91	1.600
265.28	1.612
265.64	1.484
266.00	1.566
266.37	1.753
266.73	1.576
267.09	1.733
267.46	1.684
267.82	1.768
268.18	1.592
268.54	1.605
268.91	1.673
269.27	1.595
269.63	1.540
270.00	1.496
270.36	1.387
270.72	1.558
271.08	1.526
271.45	1.557
271.81	1.358
272.17	1.600
272.53	1.621
272.90	1.722
273.26	1.729
273.62	1.822
273.98	1.828
274.35	1.733
274.71	1.606
275.07	1.634
275.43	1.617
275.80	1.944
276.16	1.778
276.52	1.780
276.88	1.864
277.25	1.820
277.61	1.670
277.97	1.603
278.33	1.591
278.69	1.592
279.06	1.390
279.42	1.270
279.78	0.931
280.14	0.939
280.50	1.030
280.87	1.044
281.23	1.138
281.59	1.144
281.95	1.043
282.31	1.130
282.68	1.225
283.04	1.336
283.40	1.345
283.76	1.517
284.12	1.543
284.48	1.562
284.85	1.442
285.21	1.412
285.57	1.534
285.93	1.711
286.29	1.682
286.65	1.743
287.02	1.807
287.38	1.788
287.74	1.715
288.10	1.684
288.46	1.737
288.82	1.828
289.18	1.880
289.54	1.878
289.91	1.701
290.27	1.718
290.63	1.698
290.99	1.748
291.35	1.907
291.71	2.013
292.07	2.132
292.43	2.053
292.79	2.202
293.16	2.248
293.52	2.339
293.88	2.691
294.24	2.675
294.60	2.563
294.96	2.648
295.32	2.812
295.68	2.960
296.04	3.065
296.40	3.191
296.76	3.249
297.12	3.386
297.49	3.487
297.85	3.557
298.21	3.837
298.57	4.233
298.93	4.444
299.29	4.632
299.65	4.905
300.01	5.175
300.37	5.429
300.73	5.781
301.09	6.035
301.45	6.452
301.81	6.770
302.17	7.031
302.53	7.218
302.89	7.558
303.25	7.800
303.61	8.110
303.97	8.444
304.33	8.956
304.69	9.341
305.05	9.719
305.41	10.055
305.77	10.444
306.13	10.833
306.49	11.288
306.85	11.692
307.21	12.049
307.57	12.352
307.93	12.623
308.29	12.719
308.65	12.848
309.01	13.009
309.37	13.115
309.73	13.291
310.09	13.506
310.45	13.714
310.81	13.851
311.17	14.092
311.53	14.251
311.89	14.432
312.25	14.699
312.61	14.946
312.96	15.243
313.32	15.425
313.68	15.567
314.04	15.715
314.40	15.864
314.76	15.998
315.12	16.056
315.48	16.271
315.84	16.406
316.20	16.588
316.56	16.653
316.92	16.711
317.27	16.918
317.63	17.096
317.99	17.253
318.35	17.346
318.71	17.482
319.07	17.516
319.43	17.423
319.79	17.456
320.15	17.345
320.50	17.403
320.86	17.432
321.22	17.367
321.58	17.163
321.94	17.052
322.30	16.900
322.66	16.876
323.01	16.758
323.37	16.734
323.73	16.704
324.09	16.708
324.45	16.671
324.81	16.591
325.17	16.571
325.52	16.682
325.88	16.669
326.24	16.669
326.60	16.596
326.96	16.649
327.31	16.674
327.67	16.623
328.03	16.620
328.39	16.616
328.75	16.598
329.11	16.628
329.46	16.520
329.82	16.479
330.18	16.553
330.54	16.406
330.90	16.436
331.25	16.491
331.61	16.377
331.97	16.386
332.33	16.182
332.68	16.100
333.04	15.967
333.40	15.819
333.76	15.802
334.11	15.677
334.47	15.656
334.83	15.514
335.19	15.377
335.54	15.418
335.90	15.323
336.26	15.486
336.62	15.500
336.97	15.488
337.33	15.570
337.69	15.506
338.05	15.511
338.40	15.502
338.76	15.456
339.12	15.345
339.48	15.246
339.83	15.140
340.19	14.982
340.55	14.882
340.90	14.814
341.26	14.770
341.62	14.678
341.97	14.569
342.33	14.588
342.69	14.586
343.04	14.475
343.40	14.445
343.76	14.431
344.12	14.372
344.47	14.368
344.83	14.404
345.19	14.364
345.54	14.302
345.90	14.265
346.26	14.164
346.61	14.112
346.97	14.156
347.32	14.073
347.68	14.008
348.04	14.000
348.39	13.919
348.75	13.785
349.11	13.792
349.46	13.813
349.82	13.798
350.18	13.753
350.53	13.734
350.89	13.732
351.24	13.715
351.60	13.820
351.96	13.732
352.31	13.693
352.67	13.729
353.02	13.560
353.38	13.502
353.74	13.428
354.09	13.316
354.45	13.196
354.80	13.098
355.16	13.036
355.52	12.835
355.87	12.771
356.23	12.699
356.58	12.513
356.94	12.403
357.29	12.325
357.65	12.261
358.00	12.251
358.36	12.202
358.72	12.141
359.07	12.082
359.43	12.073
359.78	12.022
360.14	11.949
360.49	11.958
360.85	12.031
361.20	12.013
361.56	11.937
361.91	11.845
362.27	11.805
362.62	11.777
362.98	11.743
363.33	11.715
363.69	11.690
364.04	11.709
364.40	11.689
364.75	11.649
365.11	11.600
365.46	11.629
365.82	11.611
366.17	11.573
366.53	11.554
366.88	11.510
367.24	11.446
367.59	11.423
367.95	11.387
368.30	11.372
368.66	11.357
369.01	11.341
369.37	11.289
369.72	11.260
370.08	11.221
370.43	11.209
370.78	11.184
371.14	11.154
371.49	11.125
371.85	11.069
372.20	11.009
372.56	10.932
372.91	10.860
373.26	10.802
373.62	10.785
373.97	10.799
374.33	10.707
374.68	10.683
375.03	10.664
375.39	10.604
375.74	10.557
376.10	10.462
376.45	10.397
376.80	10.384
377.16	10.369
377.51	10.283
377.87	10.201
378.22	10.169
378.57	10.137
378.93	10.068
379.28	10.043
379.63	10.018
379.99	10.031
380.34	9.953
380.70	9.889
381.05	9.831
381.40	9.802
381.76	9.763
382.11	9.725
382.46	9.682
382.82	9.626
383.17	9.547
383.52	9.521
383.88	9.453
384.23	9.475
384.58	9.464
384.94	9.420
385.29	9.406
385.64	9.364
385.99	9.305
386.35	9.205
386.70	9.162
387.05	9.163
387.41	9.061
387.76	8.985
388.11	8.897
388.47	8.807
388.82	8.757
389.17	8.705
389.52	8.667
389.88	8.605
390.23	8.578
390.58	8.507
390.93	8.434
391.29	8.377
391.64	8.351
391.99	8.320
392.34	8.269
392.70	8.233
393.05	8.194
393.40	8.112
393.75	8.100
394.11	8.074
394.46	8.034
394.81	7.963
395.16	7.898
395.52	7.858
395.87	7.829
396.22	7.766
396.57	7.697
396.92	7.627
397.28	7.626
397.63	7.556
397.98	7.481
398.33	7.458
398.68	7.417
399.04	7.382
399.39	7.318
399.74	7.248
400.09	7.238
400.44	7.157
400.80	7.136
401.15	7.067
401.50	7.019
401.85	6.964
402.20	6.907
402.55	6.889
402.90	6.905
403.26	6.856
403.61	6.801
403.96	6.752
404.31	6.747
404.66	6.702
405.01	6.641
405.36	6.586
405.72	6.581
406.07	6.530
406.42	6.434
406.77	6.343
407.12	6.293
407.47	6.277
407.82	6.235
408.17	6.203
408.53	6.158
408.88	6.136
409.23	6.116
409.58	6.052
409.93	6.017
410.28	5.997
410.63	5.965
410.98	5.950
411.33	5.933
411.68	5.889
412.03	5.821
412.38	5.750
412.73	5.708
413.09	5.649
413.44	5.617
413.79	5.569
414.14	5.537
414.49	5.497
414.84	5.460
415.19	5.387
415.54	5.347
415.89	5.315
416.24	5.284
416.59	5.255
416.94	5.227
417.29	5.200
417.64	5.187
417.99	5.158
418.34	5.135
418.69	5.095
419.04	5.087
419.39	5.077
419.74	5.041
420.09	5.011
420.44	4.990
420.79	4.963
421.14	4.932
421.49	4.900
421.84	4.887
422.19	4.870
422.54	4.881
422.89	4.860
423.24	4.846
423.59	4.851
423.94	4.855
424.29	4.839
424.64	4.855
424.99	4.866
425.34	4.867
425.68	4.880
426.03	4.878
426.38	4.861
426.73	4.854
427.08	4.861
427.43	4.864
427.78	4.863
428.13	4.880
428.48	4.880
428.83	4.872
429.18	4.885
429.53	4.880
429.87	4.889
430.22	4.892
430.57	4.921
430.92	4.904
431.27	4.913
431.62	4.931
431.97	4.926
432.32	4.924
432.67	4.923
433.01	4.938
433.36	4.954
433.71	4.976
434.06	4.988
434.41	4.985
434.76	5.009
435.11	5.020
435.45	5.017
435.80	5.032
436.15	5.047
436.50	5.063
436.85	5.077
437.20	5.082
437.54	5.077
437.89	5.071
438.24	5.076
438.59	5.081
438.94	5.095
439.29	5.123
439.63	5.141
439.98	5.140
440.33	5.152
440.68	5.150
441.03	5.146
441.37	5.173
441.72	5.194
442.07	5.219
442.42	5.228
442.76	5.242
443.11	5.260
443.46	5.273
443.81	5.290
444.16	5.303
444.50	5.317
444.85	5.327
445.20	5.317
445.55	5.322
445.89	5.316
446.24	5.315
446.59	5.321
446.94	5.307
447.28	5.297
447.63	5.297
447.98	5.312
448.32	5.309
448.67	5.321
449.02	5.335
449.37	5.352
449.71	5.368
450.06	5.402
450.41	5.400
450.75	5.419
451.10	5.435
451.45	5.454
451.79	5.436
452.14	5.444
452.49	5.445
452.84	5.444
453.18	5.448
453.53	5.457
453.88	5.452
454.22	5.456
454.57	5.457
454.92	5.464
455.26	5.458
455.61	5.479
455.95	5.475
456.30	5.491
456.65	5.501
456.99	5.504
457.34	5.494
457.69	5.502
458.03	5.516
458.38	5.521
458.73	5.528
459.07	5.542
459.42	5.546
459.76	5.571
460.11	5.578
460.46	5.589
460.80	5.612
461.15	5.641
461.49	5.646
461.84	5.665
462.19	5.692
462.53	5.726
462.88	5.759
463.22	5.790
463.57	5.805
463.91	5.822
464.26	5.848
464.61	5.846
464.95	5.870
465.30	5.891
465.64	5.919
465.99	5.931
466.33	5.957
466.68	5.971
467.02	5.981
467.37	5.975
467.71	6.008
468.06	6.004
468.41	6.024
468.75	6.033
469.10	6.053
469.44	6.046
469.79	6.061
470.13	6.049
470.48	6.052
470.82	6.042
471.17	6.058
471.51	6.030
471.86	6.045
472.20	6.053
472.55	6.043
472.89	6.016
473.23	6.002
473.58	5.978
473.92	5.956
474.27	5.923
474.61	5.923
474.96	5.906
475.30	5.900
475.65	5.881
475.99	5.847
476.34	5.835
476.68	5.817
477.02	5.789
477.37	5.763
477.71	5.740
478.06	5.725
478.40	5.708
478.75	5.712
479.09	5.729
479.43	5.815
479.78	5.933
480.12	6.065
480.47	6.206
480.81	6.361
481.15	6.508
481.50	6.652
481.84	6.818
482.19	7.000
482.53	7.170
482.87	7.302
483.22	7.327
483.56	7.286
483.90	7.189
484.25	7.062
484.59	6.898
484.94	6.722
485.28	6.540
485.62	6.322
485.97	6.081
486.31	5.864
486.65	5.701
487.00	5.591
487.34	5.529
487.68	5.511
488.03	5.515
488.37	5.525
488.71	5.552
489.06	5.576
489.40	5.618
489.74	5.658
490.09	5.701
490.43	5.728
490.77	5.762
491.11	5.793
491.46	5.795
491.80	5.814
492.14	5.826
492.49	5.840
492.83	5.860
493.17	5.879
493.51	5.907
493.86	5.927
494.20	5.957
494.54	5.989
494.88	6.021
495.23	6.059
495.57	6.087
495.91	6.122
496.25	6.143
496.60	6.168
496.94	6.204
497.28	6.248
497.62	6.290
497.97	6.329
498.31	6.365
498.65	6.408
498.99	6.465
499.33	6.496
499.68	6.563
500.02	6.635
500.36	6.675
500.70	6.696
501.04	6.739
501.39	6.792
501.73	6.843
502.07	6.899
502.41	6.933
502.75	6.975
503.09	7.021
503.44	7.044
503.78	7.075
504.12	7.146
504.46	7.203
504.80	7.235
505.14	7.265
505.49	7.296
505.83	7.327
506.17	7.366
506.51	7.399
506.85	7.442
507.19	7.482
507.53	7.490
507.87	7.512
508.22	7.545
508.56	7.585
508.90	7.617
509.24	7.657
509.58	7.684
509.92	7.713
510.26	7.747
510.60	7.773
510.94	7.809
511.28	7.859
511.63	7.888
511.97	7.920
512.31	7.955
512.65	7.990
512.99	8.008
513.33	8.056
513.67	8.082
514.01	8.107
514.35	8.126
514.69	8.140
515.03	8.150
515.37	8.161
515.71	8.190
516.05	8.197
516.39	8.196
516.73	8.202
517.07	8.199
517.41	8.204
517.75	8.198
518.09	8.200
518.43	8.212
518.77	8.238
519.11	8.253
519.45	8.234
519.79	8.234
520.13	8.230
520.47	8.243
520.81	8.250
521.15	8.255
521.49	8.269
521.83	8.265
522.17	8.258
522.51	8.227
522.85	8.197
523.19	8.215
523.53	8.229
523.87	8.256
524.21	8.292
524.55	8.338
524.89	8.396
525.23	8.464
525.57	8.533
525.91	8.595
526.25	8.670
526.58	8.753
526.92	8.800
527.26	8.832
527.60	8.800
527.94	8.702
528.28	8.591
528.62	8.481
528.96	8.402
529.30	8.332
529.64	8.254
529.97	8.163
530.31	8.056
530.65	7.973
530.99	7.900
531.33	7.901
531.67	7.958
532.01	8.028
532.35	8.091
532.68	8.086
533.02	8.068
533.36	8.047
533.70	8.025
534.04	8.025
534.38	7.995
534.71	7.968
535.05	7.948
535.39	7.932
535.73	7.920
536.07	7.891
536.41	7.868
536.74	7.864
537.08	7.862
537.42	7.851
537.76	7.835
538.10	7.835
538.43	7.822
538.77	7.808
539.11	7.805
539.45	7.794
539.79	7.797
540.12	7.797
540.46	7.789
540.80	7.759
541.14	7.752
541.47	7.730
541.81	7.703
542.15	7.693
542.49	7.674
542.82	7.641
543.16	7.602
543.50	7.559
543.84	7.524
544.17	7.494
544.51	7.487
544.85	7.471
545.18	7.456
545.52	7.442
545.86	7.430
546.20	7.424
546.53	7.420
546.87	7.412
547.21	7.412
547.54	7.412
547.88	7.405
548.22	7.409
548.55	7.395
548.89	7.375
549.23	7.372
549.56	7.360
549.90	7.344
550.24	7.340
550.57	7.359
550.91	7.342
551.25	7.320
551.58	7.292
551.92	7.271
552.26	7.276
552.59	7.296
552.93	7.302
553.27	7.300
553.60	7.313
553.94	7.301
554.27	7.293
554.61	7.283
554.95	7.289
555.28	7.306
555.62	7.317
555.95	7.294
556.29	7.279
556.63	7.281
556.96	7.300
557.30	7.291
557.63	7.289
557.97	7.270
558.31	7.289
558.64	7.296
558.98	7.291
559.31	7.293
559.65	7.298
559.98	7.286
560.32	7.276
560.65	7.268
560.99	7.262
561.33	7.262
561.66	7.285
562.00	7.286
562.33	7.308
562.67	7.303
563.00	7.308
563.34	7.327
563.67	7.335
564.01	7.340
564.34	7.352
564.68	7.376
565.01	7.395
565.35	7.386
565.68	7.389
566.02	7.374
566.35	7.375
566.69	7.380
567.02	7.393
567.36	7.406
567.69	7.424
568.03	7.407
568.36	7.407
568.69	7.403
569.03	7.399
569.36	7.406
569.70	7.429
570.03	7.436
570.37	7.433
570.70	7.425
571.04	7.417
571.37	7.420
571.70	7.454
572.04	7.437
572.37	7.446
572.71	7.473
573.04	7.481
573.37	7.462
573.71	7.478
574.04	7.490
574.38	7.499
574.71	7.514
575.04	7.500
575.38	7.482
575.71	7.488
576.05	7.521
576.38	7.534
576.71	7.556
577.05	7.620
577.38	7.641
577.71	7.679
578.05	7.674
578.38	7.695
578.71	7.715
579.05	7.750
579.38	7.794
579.71	7.794
580.05	7.792
580.38	7.816
580.71	7.787
581.05	7.781
581.38	7.788
581.71	7.810
582.05	7.802
582.38	7.820
582.71	7.809
583.04	7.805
583.38	7.798
583.71	7.818
584.04	7.791
584.38	7.792
584.71	7.833
585.04	7.835
585.37	7.857
585.71	7.888
586.04	7.896
586.37	7.886
586.70	7.901
587.04	7.886
587.37	7.907
587.70	7.929
588.03	7.926
588.37	7.910
588.70	7.888
589.03	7.876
589.36	7.860
589.69	7.860
590.03	7.894
590.36	7.891
590.69	7.932
591.02	7.905
591.35	7.911
591.69	7.938
592.02	7.944
592.35	7.952
592.68	7.997
593.01	8.024
593.35	8.022
593.68	8.016
594.01	8.034
594.34	8.026
594.67	8.041
595.00	8.033
595.34	8.050
595.67	8.050
596.00	8.056
596.33	8.051
596.66	8.045
596.99	8.076
597.32	8.106
597.65	8.111
597.99	8.118
598.32	8.140
598.65	8.163
598.98	8.169
599.31	8.202
599.64	8.230
599.97	8.202
600.30	8.219
600.63	8.231
600.96	8.233
601.30	8.252
601.63	8.268
601.96	8.271
602.29	8.301
602.62	8.302
602.95	8.304
603.28	8.312
603.61	8.330
603.94	8.334
604.27	8.330
604.60	8.333
604.93	8.327
605.26	8.332
605.59	8.342
605.92	8.323
606.25	8.332
606.58	8.340
606.91	8.332
607.24	8.349
607.57	8.391
607.90	8.418
608.23	8.423
608.56	8.439
608.89	8.459
609.22	8.473
609.55	8.486
609.88	8.486
610.21	8.479
610.54	8.498
610.87	8.517
611.20	8.495
611.53	8.465
611.86	8.445
612.19	8.443
612.52	8.432
612.85	8.433
613.18	8.437
613.51	8.436
613.84	8.452
614.17	8.460
614.49	8.427
614.82	8.433
615.15	8.440
615.48	8.471
615.81	8.468
616.14	8.461
616.47	8.443
616.80	8.433
617.13	8.435
617.46	8.412
617.78	8.389
618.11	8.403
618.44	8.376
618.77	8.370
619.10	8.346
619.43	8.363
619.76	8.350
620.09	8.331
620.41	8.334
620.74	8.309
621.07	8.319
621.40	8.338
621.73	8.342
622.06	8.380
622.38	8.387
622.71	8.380
623.04	8.358
623.37	8.372
623.70	8.416
624.02	8.409
624.35	8.454
624.68	8.449
625.01	8.425
625.34	8.445
625.66	8.427
625.99	8.414
626.32	8.422
626.65	8.424
626.98	8.422
627.30	8.375
627.63	8.370
627.96	8.334
628.29	8.334
628.61	8.342
628.94	8.308
629.27	8.292
629.60	8.328
629.92	8.327
630.25	8.286
630.58	8.268
630.91	8.269
631.23	8.261
631.56	8.254
631.89	8.237
632.21	8.218
632.54	8.229
632.87	8.252
633.19	8.201
633.52	8.215
633.85	8.235
634.18	8.221
634.50	8.206
634.83	8.196
635.16	8.176
635.48	8.176
635.81	8.173
636.14	8.155
636.46	8.098
636.79	8.101
637.11	8.095
637.44	8.093
637.77	8.099
638.09	8.122
638.42	8.143
638.75	8.121
639.07	8.111
639.40	8.115
639.73	8.110
640.05	8.162
640.38	8.165
640.70	8.088
641.03	8.067
641.36	8.081
641.68	8.069
642.01	8.038
642.33	8.054
642.66	8.024
642.98	8.040
643.31	8.006
643.64	7.951
643.96	7.922
644.29	7.943
644.61	7.970
644.94	7.916
645.26	7.930
645.59	7.943
645.91	7.955
646.24	7.981
646.56	7.997
646.89	8.002
647.22	7.993
647.54	7.996
647.87	8.007
648.19	7.984
648.52	8.002
648.84	7.994
649.17	8.004
649.49	8.006
649.82	7.978
650.14	7.941
650.47	7.971
650.79	7.998
651.11	7.998
651.44	8.016
651.76	8.039
652.09	8.052
652.41	8.049
652.74	8.077
653.06	8.041
653.39	8.051
653.71	8.055
654.04	8.021
654.36	7.976
654.68	7.959
655.01	7.918
655.33	7.899
655.66	7.903
655.98	7.842
656.30	7.764
656.63	7.807
656.95	7.796
657.28	7.768
657.60	7.743
657.92	7.761
658.25	7.792
658.57	7.767
658.90	7.707
659.22	7.644
659.54	7.640
659.87	7.635
660.19	7.561
660.51	7.571
660.84	7.539
661.16	7.552
661.48	7.504
661.81	7.437
662.13	7.454
662.45	7.445
662.78	7.477
663.10	7.479
663.42	7.456
663.75	7.475
664.07	7.420
664.39	7.468
664.72	7.457
665.04	7.492
665.36	7.528
665.69	7.544
666.01	7.533
666.33	7.516
666.65	7.547
666.98	7.575
667.30	7.624
667.62	7.608
667.94	7.574
668.27	7.524
668.59	7.502
668.91	7.449
669.23	7.411
669.56	7.444
669.88	7.388
670.20	7.418
670.52	7.375
670.85	7.352
671.17	7.355
671.49	7.352
671.81	7.370
672.13	7.339
672.46	7.258
672.78	7.274
673.10	7.297
673.42	7.339
673.74	7.320
674.07	7.335
674.39	7.337
674.71	7.376
675.03	7.332
675.35	7.346
675.67	7.354
676.00	7.373
676.32	7.392
676.64	7.372
676.96	7.377
677.28	7.327
677.60	7.336
677.92	7.326
678.25	7.335
678.57	7.372
678.89	7.378
679.21	7.384
679.53	7.452
679.85	7.448
680.17	7.457
680.49	7.500
680.81	7.482
681.13	7.473
681.46	7.415
681.78	7.455
682.10	7.514
682.42	7.477
682.74	7.499
683.06	7.525
683.38	7.522
683.70	7.559
684.02	7.555
684.34	7.661
684.66	7.728
684.98	7.772
685.30	7.773
685.62	7.728
685.94	7.774
686.26	7.763
686.58	7.692
686.90	7.642
687.22	7.627
687.54	7.582
687.86	7.558
688.18	7.547
688.50	7.534
688.82	7.453
689.14	7.456
689.46	7.461
689.78	7.449
690.10	7.516
690.42	7.545
690.74	7.577
691.06	7.563
691.38	7.531
691.70	7.477
692.02	7.428
692.34	7.493
692.66	7.490
692.98	7.455
693.30	7.429
693.62	7.349
693.94	7.358
694.26	7.221
694.57	7.232
694.89	7.240
695.21	7.281
695.53	7.329
695.85	7.306
696.17	7.272
696.49	7.287
696.81	7.378
697.13	7.441
697.44	7.415
697.76	7.492
698.08	7.526
698.40	7.543
698.72	7.513
699.04	7.534
699.36	7.529
699.67	7.570
699.99	7.560
700.31	7.470
700.63	7.397
700.95	7.442
701.27	7.433
701.58	7.446
701.90	7.416
702.22	7.387
702.54	7.316
702.86	7.322
703.17	7.316
703.49	7.259
703.81	7.218
704.13	7.268
704.45	7.159
704.76	7.153
705.08	7.161
705.40	7.090
705.72	7.057
706.03	7.102
706.35	7.056
706.67	7.001
706.99	7.052
707.30	7.102
707.62	7.094
707.94	7.162
708.26	7.127
708.57	7.045
708.89	7.000
709.21	6.994
709.53	6.947
709.84	6.990
710.16	6.979
710.48	7.047
710.79	7.087
711.11	7.040
711.43	7.047
711.74	7.132
712.06	7.218
712.38	7.300
712.69	7.344
713.01	7.313
713.33	7.362
713.64	7.372
713.96	7.308
714.28	7.299
714.59	7.404
714.91	7.450
715.23	7.452
715.54	7.417
715.86	7.445
716.17	7.531
716.49	7.730
716.81	7.699
717.12	7.739
717.44	7.833
717.76	7.731
718.07	7.675
718.39	7.650
718.70	7.603
719.02	7.589
719.33	7.601
719.65	7.489
719.97	7.291
720.28	7.223
720.60	7.178
720.91	7.055
721.23	7.115
721.54	7.148
721.86	7.150
722.17	7.125
722.49	7.081
722.81	6.970
723.12	7.052
723.44	7.069
723.75	7.058
724.07	7.085
724.38	7.129
724.70	7.091
725.01	7.124
725.33	7.128
725.64	7.154
725.96	7.108
726.27	7.232
726.59	7.197
726.90	7.137
727.22	7.201
727.53	7.263
727.84	7.225
728.16	7.222
728.47	7.093
728.79	7.072
729.10	7.079
729.42	7.149
729.73	6.969
730.05	6.929
730.36	6.968
730.67	6.834
730.99	6.792
731.30	6.735
731.62	6.762
731.93	6.789
732.24	6.780
732.56	6.690
732.87	6.675
733.19	6.828
733.50	6.810
733.81	6.832
734.13	6.940
734.44	6.806
734.76	6.798
735.07	6.624
735.38	6.490
735.70	6.398
736.01	6.349
736.32	6.273
736.64	6.114
736.95	6.101
737.26	6.007
737.58	5.968
737.89	6.162
738.20	6.225
738.52	6.416
738.83	6.561
739.14	6.544
739.45	6.399
739.77	6.473
740.08	6.478
740.39	6.469
740.71	6.614
741.02	6.445
741.33	6.291
741.64	6.108
741.96	6.014
742.27	5.834
742.58	5.856
742.90	5.899
743.21	5.703
743.52	5.845
743.83	5.743
744.14	5.440
744.46	5.441
744.77	5.525
745.08	5.656
745.39	5.709
745.71	5.979
746.02	5.913
746.33	6.121
746.64	6.318
746.95	6.216
747.27	6.249
747.58	6.408
747.89	6.382
748.20	6.167
748.51	6.114
748.82	6.021
749.14	5.830
749.45	5.834
749.76	5.743
750.07	5.486
750.38	5.451
750.69	5.390
751.01	5.398
751.32	5.553
751.63	5.644
751.94	5.745
752.25	5.833
752.56	5.866
752.87	5.913
753.18	5.995
753.49	6.039
753.81	6.223
754.12	6.173
754.43	6.178
754.74	6.184
755.05	6.306
755.36	6.163
755.67	6.288
755.98	6.317
756.29	6.462
756.60	6.489
756.91	6.765
757.22	6.539
757.53	6.747
757.84	6.810
758.15	6.901
758.46	7.005
758.77	7.125
759.09	7.198
759.40	7.351
759.71	7.343
760.02	7.392
760.33	7.407
760.64	7.569
760.95	7.627
761.26	7.795
761.57	7.734
761.88	7.743
762.18	7.779
762.49	7.809
762.80	7.657
763.11	7.688
763.42	7.666
763.73	7.607
764.04	7.508
764.35	7.395
764.66	7.212
764.97	7.211
765.28	6.931
765.59	6.681
765.90	6.463
766.21	6.459
766.52	6.280
766.83	6.266
767.14	6.215
767.44	6.107
767.75	6.156
768.06	6.100
768.37	6.021
768.68	5.997
768.99	6.400
769.30	6.338
769.61	6.100
769.91	6.014
770.22	5.882
770.53	5.900
770.84	5.936
771.15	5.957
771.46	5.825
771.77	5.724
772.07	5.563
772.38	5.475
772.69	5.193
773.00	5.437
773.31	5.285
773.61	5.220
773.92	4.884
774.23	4.716
774.54	4.241
774.85	4.438
775.15	4.543
775.46	4.938
775.77	4.604
776.08	4.822
776.39	4.615
776.69	4.789
777.00	4.828
777.31	5.288
777.62	5.568
777.92	5.825
778.23	5.967
778.54	5.986
778.85	5.775
779.15	5.779
779.46	5.879
779.77	5.938
780.07	6.019
780.38	6.119
780.69	5.718
781.00	5.257
781.30	5.114
781.61	4.654
781.92	4.494
782.22	4.558
782.53	4.880
782.84	4.644
783.14	4.897
783.45	4.744
783.76	4.709
784.06	4.705
784.37	5.150
784.68	5.495
784.98	5.662
785.29	5.978
785.60	6.000
785.90	5.898
786.21	5.685
786.51	5.778
786.82	6.050
787.13	6.114
787.43	6.593
787.74	6.676
788.04	6.656
788.35	6.942
788.66	6.922
788.96	7.032
789.27	7.248
789.57	7.610
789.88	7.680
790.19	7.429
790.49	7.219
790.80	6.971
791.10	7.104
791.41	7.001
791.71	6.952
792.02	6.758
792.32	6.830
792.63	6.491
792.93	6.670
793.24	6.582
793.54	6.524
793.85	6.847
794.15	6.810
794.46	6.685
794.76	6.944
795.07	6.934
795.37	7.083
795.68	6.896
795.98	7.288
796.29	7.418
796.59	7.063
796.90	7.185
797.20	7.085
797.51	6.925
797.81	6.729
798.12	6.402
798.42	6.303
798.72	6.103
799.03	6.199
799.33	5.967
799.64	5.486
799.94	5.923
800.25	5.834
800.55	5.776
800.85	6.003
801.16	6.085
801.46	6.095
801.77	5.987
802.07	6.090
802.37	6.235
802.68	6.211
802.98	6.523
803.28	6.484
803.59	6.468
803.89	6.263
804.20	6.256
804.50	6.237
804.80	6.989
805.11	7.120
805.41	7.371
805.71	7.147
806.02	6.899
806.32	7.116
806.62	6.867
806.93	7.101
807.23	7.082
807.53	6.942
807.83	7.475
808.14	6.608
808.44	6.440
808.74	5.617
809.05	5.759
809.35	6.208
809.65	5.765
809.95	6.438
810.26	6.437
810.56	6.265
810.86	7.039
811.16	6.519
811.47	6.613
811.77	6.905
812.07	7.946
812.37	8.534
812.68	8.224
812.98	8.930
813.28	8.441
813.58	8.680
813.88	8.946
814.19	8.415
814.49	8.068
814.79	8.241
815.09	8.019
815.39	7.461
815.70	7.103
816.00	7.223
816.30	6.829
816.60	6.819
816.90	6.771
817.20	6.802
817.50	6.985
817.81	7.218
818.11	7.300
818.41	7.792
818.71	8.131
819.01	8.217
819.31	8.276
819.61	8.165
819.92	8.257
820.22	8.300
820.52	8.269
820.82	8.225
821.12	8.349
821.42	8.399
821.72	8.311
822.02	8.297
822.32	8.275
822.62	8.202
822.92	8.275
823.22	8.307
823.52	8.218
823.83	8.370
824.13	8.429
824.43	8.433
824.73	8.422
825.03	8.450
825.33	8.276
825.63	8.266
825.93	8.366
826.23	8.376
826.53	8.374
826.83	8.391
827.13	8.429
827.43	8.344
827.73	8.279
828.03	8.232
828.33	8.134
828.63	8.123
828.93	8.085
829.23	8.143
829.53	8.069
829.83	7.691
830.13	8.036
830.42	7.522
830.72	7.507
831.02	7.329
831.32	7.465
831.62	7.618
831.92	7.683
832.22	7.947
832.52	7.953
832.82	8.265
833.12	8.244
833.42	8.297
833.72	8.485
834.01	8.496
834.31	8.699
834.61	8.930
834.91	8.869
835.21	8.908
835.51	8.504
835.81	8.445
836.11	8.001
836.40	8.602
836.70	8.239
837.00	8.273
837.30	8.406
837.60	8.532
837.90	8.090
838.19	7.870
838.49	7.864
838.79	8.123
839.09	8.179
839.39	8.034
839.68	7.420
839.98	7.298
840.28	6.808
840.58	6.081
840.88	5.819
841.17	5.610
841.47	5.480
841.77	6.097
842.07	5.315
842.36	4.726
842.66	4.736
842.96	4.589
843.26	4.889
843.55	5.568
843.85	6.876
844.15	5.775
844.45	6.465
844.74	7.805
845.04	7.856
845.34	8.619
845.63	9.389
845.93	10.382
846.23	11.171
846.53	10.285
846.82	10.200
847.12	9.404
847.42	11.403
847.71	12.218
848.01	11.299
848.31	11.562
848.60	11.912
848.90	11.412
849.19	11.000
849.49	9.938
849.79	10.855
850.08	11.166
850.38	12.085
850.68	10.972
850.97	10.622
851.27	9.155
851.56	8.814
851.86	9.183
852.16	9.480
852.45	9.169
852.75	9.186
853.04	9.419
853.34	9.750
853.64	10.580
853.93	11.196
854.23	10.658
854.52	12.615
854.82	12.290
855.11	12.397
855.41	11.832
855.70	12.311
856.00	12.906
856.30	12.205
856.59	11.180
856.89	11.891
857.18	10.506
857.48	10.352
857.77	9.595
858.07	10.721
858.36	9.938
858.66	9.502
858.95	8.810
859.25	7.550
859.54	7.097
859.84	8.681
860.13	6.613
860.42	7.203
860.72	7.102
861.01	8.137
861.31	7.253
861.60	6.106
861.90	7.081
862.19	8.000
862.49	9.458
862.78	9.981
863.07	7.621
863.37	7.089
863.66	6.158
863.96	6.045
864.25	6.028
864.54	6.608
864.84	9.264
865.13	8.595
865.43	7.066
865.72	15.079
866.01	17.767
866.31	22.047
866.60	-0.243
866.89	0.566
>>>>>End Spectral Data<<<<<
