OOIBase32 Version 2.0.0.6 Data File
++++++++++++++++++++++++++++++++++++
Date: 01-23-2012, 22:05:23
User: Valued Ocean Optics Customer
Spectrometer Serial Number: USB2E2917
Spectrometer Channel: Master
Integration Time (msec): 5
Spectra Averaged: 10
Boxcar Smoothing: 5
Correct for Electrical Dark: Enabled
Time Normalized: Disabled
Dual-beam Reference: Disabled
Reference Channel: Master
Temperature: Not acquired
Spectrometer Type: S2000
ADC Type: USB2000
Number of Pixels in File: 2048
Graph Title: 
>>>>>Begin Spectral Data<<<<<
180.30	0.000
180.67	0.000
181.03	273.863
181.40	-133.221
181.77	6241.400
182.14	51.221
182.51	81.367
182.88	-3369.174
183.25	-212.873
183.62	-35.031
183.99	43.301
184.36	-311.927
184.73	82.529
185.10	20.923
185.46	8.713
185.83	161.430
186.20	72.180
186.57	659.796
186.94	88.428
187.31	109.887
187.68	38.016
188.05	-58.306
188.42	-29.366
188.78	-40.107
189.15	-28.291
189.52	-29.820
189.89	-17.960
190.26	-25.766
190.63	-0.126
191.00	-4.231
191.37	6.117
191.73	8.457
192.10	10.367
192.47	9.572
192.84	22.285
193.21	26.445
193.58	33.138
193.94	30.308
194.31	19.471
194.68	13.738
195.05	16.518
195.42	3.104
195.79	-0.109
196.15	0.652
196.52	-4.012
196.89	-13.561
197.26	-15.564
197.63	-33.702
198.00	-30.735
198.36	-17.941
198.73	-15.463
199.10	-19.363
199.47	-7.549
199.84	-15.275
200.20	-7.171
200.57	-27.552
200.94	-20.320
201.31	-34.268
201.68	-7.866
202.04	-14.957
202.41	-13.881
202.78	-27.701
203.15	-18.942
203.51	-46.865
203.88	-37.824
204.25	-55.846
204.62	-24.836
204.98	-22.148
205.35	-11.545
205.72	-15.064
206.09	-2.921
206.46	-4.559
206.82	-0.131
207.19	-9.431
207.56	-2.022
207.92	-14.514
208.29	-13.721
208.66	-12.324
209.03	-5.530
209.39	-12.683
209.76	-20.297
210.13	-24.361
210.50	-21.980
210.86	-13.488
211.23	-1.867
211.60	-5.583
211.96	7.464
212.33	0.596
212.70	1.370
213.07	-12.827
213.43	-6.569
213.80	-3.171
214.17	-12.654
214.53	-10.206
214.90	-8.943
215.27	-13.249
215.63	-16.692
216.00	-15.677
216.37	5.814
216.74	-2.075
217.10	2.630
217.47	-4.047
217.84	-1.278
218.20	16.816
218.57	21.079
218.94	18.751
219.30	27.322
219.67	25.738
220.04	22.864
220.40	10.592
220.77	18.075
221.13	14.134
221.50	14.084
221.87	6.725
222.23	-2.970
222.60	-6.835
222.97	-10.406
223.33	-17.843
223.70	-11.825
224.07	-8.625
224.43	-3.803
224.80	-4.635
225.16	-3.850
225.53	-2.166
225.90	-4.136
226.26	-5.262
226.63	-7.019
226.99	-6.969
227.36	-6.179
227.73	-6.786
228.09	-9.477
228.46	-10.943
228.82	-9.548
229.19	-9.646
229.56	-10.476
229.92	-9.376
230.29	-6.555
230.65	-4.372
231.02	-2.951
231.38	-5.750
231.75	-6.270
232.12	-4.576
232.48	-3.303
232.85	-3.892
233.21	-1.315
233.58	0.116
233.94	2.621
234.31	-0.194
234.68	-0.950
235.04	-1.936
235.41	0.673
235.77	2.267
236.14	1.331
236.50	-1.024
236.87	-0.732
237.23	-2.127
237.60	-1.574
237.96	-2.304
238.33	-0.176
238.69	0.057
239.06	0.179
239.42	0.005
239.79	-0.288
240.15	-0.334
240.52	0.136
240.88	0.139
241.25	0.568
241.61	0.125
241.98	0.394
242.34	-0.594
242.71	-0.435
243.07	-0.115
243.44	0.173
243.80	0.250
244.17	0.656
244.53	0.892
244.90	0.668
245.26	0.547
245.63	0.496
245.99	0.320
246.36	0.581
246.72	0.194
247.09	-0.117
247.45	-0.541
247.81	-0.975
248.18	-1.704
248.54	-2.016
248.91	-2.116
249.27	-1.775
249.64	-1.674
250.00	-1.487
250.36	-1.561
250.73	-1.309
251.09	-0.817
251.46	-0.628
251.82	-0.157
252.19	0.698
252.55	0.776
252.91	0.840
253.28	-0.484
253.64	-0.402
254.01	-0.661
254.37	-0.482
254.73	0.126
255.10	0.336
255.46	0.497
255.83	0.127
256.19	0.053
256.55	0.089
256.92	0.016
257.28	0.411
257.65	0.521
258.01	0.653
258.37	0.358
258.74	0.184
259.10	0.133
259.46	0.367
259.83	0.761
260.19	0.815
260.55	0.707
260.92	0.788
261.28	0.543
261.64	0.347
262.01	0.115
262.37	-0.020
262.73	-0.564
263.10	-0.673
263.46	-0.748
263.82	-0.984
264.19	-0.945
264.55	-0.919
264.91	-0.821
265.28	-0.438
265.64	-0.555
266.00	-0.675
266.37	-0.422
266.73	0.213
267.09	-0.013
267.46	-0.269
267.82	-0.306
268.18	-0.292
268.54	-0.296
268.91	-0.016
269.27	0.043
269.63	0.291
270.00	0.526
270.36	0.695
270.72	0.423
271.08	0.303
271.45	0.242
271.81	0.540
272.17	0.533
272.53	0.483
272.90	0.105
273.26	0.169
273.62	-0.052
273.98	-0.248
274.35	-0.415
274.71	-0.045
275.07	0.285
275.43	0.638
275.80	0.473
276.16	0.665
276.52	0.540
276.88	0.616
277.25	0.225
277.61	0.341
277.97	0.259
278.33	0.184
278.69	-0.103
279.06	-0.041
279.42	-0.592
279.78	-0.560
280.14	-0.641
280.50	-0.414
280.87	-0.239
281.23	0.053
281.59	0.023
281.95	0.145
282.31	0.307
282.68	0.494
283.04	0.388
283.40	0.661
283.76	0.475
284.12	0.611
284.48	0.645
284.85	0.540
285.21	0.436
285.57	0.577
285.93	0.626
286.29	0.616
286.65	0.614
287.02	0.688
287.38	0.668
287.74	0.822
288.10	0.561
288.46	0.448
288.82	0.436
289.18	0.398
289.54	0.199
289.91	0.308
290.27	0.274
290.63	0.222
290.99	0.145
291.35	0.236
291.71	0.432
292.07	0.556
292.43	0.781
292.79	1.036
293.16	1.211
293.52	1.395
293.88	1.460
294.24	1.735
294.60	1.719
294.96	1.805
295.32	1.923
295.68	1.763
296.04	1.971
296.40	2.054
296.76	2.085
297.12	2.224
297.49	2.333
297.85	2.464
298.21	2.597
298.57	2.766
298.93	3.046
299.29	3.211
299.65	3.335
300.01	3.409
300.37	3.384
300.73	3.713
301.09	3.913
301.45	4.122
301.81	4.123
302.17	4.076
302.53	4.231
302.89	4.199
303.25	4.202
303.61	4.669
303.97	4.855
304.33	5.134
304.69	5.124
305.05	5.146
305.41	5.110
305.77	5.326
306.13	5.502
306.49	5.761
306.85	5.903
307.21	6.013
307.57	6.025
307.93	6.116
308.29	6.263
308.65	6.247
309.01	6.269
309.37	6.407
309.73	6.488
310.09	6.493
310.45	6.423
310.81	6.509
311.17	6.437
311.53	6.443
311.89	6.508
312.25	6.430
312.61	6.555
312.96	6.700
313.32	6.726
313.68	6.593
314.04	6.597
314.40	6.625
314.76	6.622
315.12	6.785
315.48	6.809
315.84	6.684
316.20	6.682
316.56	6.769
316.92	6.784
317.27	6.711
317.63	6.813
317.99	6.803
318.35	6.630
318.71	6.558
319.07	6.578
319.43	6.599
319.79	6.549
320.15	6.448
320.50	6.218
320.86	6.255
321.22	6.272
321.58	6.331
321.94	6.220
322.30	6.415
322.66	6.528
323.01	6.548
323.37	6.392
323.73	6.414
324.09	6.560
324.45	6.592
324.81	6.435
325.17	6.340
325.52	6.240
325.88	6.339
326.24	6.334
326.60	6.314
326.96	6.311
327.31	6.324
327.67	6.258
328.03	6.106
328.39	5.982
328.75	5.961
329.11	6.062
329.46	5.985
329.82	5.869
330.18	5.702
330.54	5.612
330.90	5.494
331.25	5.428
331.61	5.395
331.97	5.424
332.33	5.542
332.68	5.473
333.04	5.433
333.40	5.512
333.76	5.598
334.11	5.495
334.47	5.390
334.83	5.249
335.19	5.318
335.54	5.406
335.90	5.487
336.26	5.450
336.62	5.492
336.97	5.440
337.33	5.291
337.69	5.208
338.05	5.304
338.40	5.318
338.76	5.444
339.12	5.354
339.48	5.378
339.83	5.243
340.19	5.200
340.55	5.089
340.90	5.064
341.26	5.016
341.62	4.981
341.97	5.039
342.33	5.112
342.69	5.073
343.04	5.080
343.40	4.974
343.76	5.026
344.12	5.091
344.47	5.217
344.83	5.156
345.19	5.188
345.54	5.197
345.90	5.142
346.26	5.026
346.61	5.114
346.97	5.036
347.32	5.102
347.68	4.983
348.04	4.903
348.39	4.826
348.75	4.935
349.11	4.917
349.46	4.919
349.82	4.935
350.18	4.963
350.53	4.817
350.89	4.845
351.24	4.787
351.60	4.828
351.96	4.831
352.31	4.866
352.67	4.781
353.02	4.797
353.38	4.773
353.74	4.679
354.09	4.630
354.45	4.680
354.80	4.657
355.16	4.618
355.52	4.572
355.87	4.539
356.23	4.501
356.58	4.532
356.94	4.502
357.29	4.494
357.65	4.499
358.00	4.528
358.36	4.490
358.72	4.480
359.07	4.459
359.43	4.485
359.78	4.479
360.14	4.437
360.49	4.388
360.85	4.381
361.20	4.404
361.56	4.401
361.91	4.341
362.27	4.334
362.62	4.312
362.98	4.282
363.33	4.196
363.69	4.172
364.04	4.179
364.40	4.205
364.75	4.161
365.11	4.123
365.46	4.097
365.82	4.097
366.17	4.055
366.53	4.095
366.88	4.063
367.24	4.155
367.59	4.170
367.95	4.191
368.30	4.132
368.66	4.163
369.01	4.183
369.37	4.206
369.72	4.215
370.08	4.268
370.43	4.181
370.78	4.204
371.14	4.139
371.49	4.109
371.85	4.090
372.20	4.133
372.56	4.152
372.91	4.127
373.26	4.101
373.62	4.066
373.97	4.006
374.33	4.023
374.68	4.010
375.03	4.030
375.39	3.979
375.74	3.908
376.10	3.854
376.45	3.822
376.80	3.816
377.16	3.812
377.51	3.815
377.87	3.762
378.22	3.759
378.57	3.764
378.93	3.752
379.28	3.823
379.63	3.854
379.99	3.883
380.34	3.851
380.70	3.812
381.05	3.799
381.40	3.780
381.76	3.828
382.11	3.847
382.46	3.773
382.82	3.715
383.17	3.688
383.52	3.678
383.88	3.630
384.23	3.638
384.58	3.615
384.94	3.578
385.29	3.568
385.64	3.541
385.99	3.515
386.35	3.584
386.70	3.599
387.05	3.567
387.41	3.564
387.76	3.556
388.11	3.499
388.47	3.501
388.82	3.483
389.17	3.484
389.52	3.478
389.88	3.452
390.23	3.441
390.58	3.441
390.93	3.423
391.29	3.400
391.64	3.410
391.99	3.414
392.34	3.389
392.70	3.418
393.05	3.408
393.40	3.394
393.75	3.397
394.11	3.326
394.46	3.299
394.81	3.240
395.16	3.192
395.52	3.144
395.87	3.105
396.22	3.089
396.57	3.045
396.92	2.980
397.28	2.970
397.63	2.933
397.98	2.966
398.33	2.945
398.68	2.942
399.04	2.922
399.39	2.908
399.74	2.896
400.09	2.885
400.44	2.873
400.80	2.855
401.15	2.833
401.50	2.820
401.85	2.812
402.20	2.795
402.55	2.804
402.90	2.794
403.26	2.805
403.61	2.817
403.96	2.824
404.31	2.819
404.66	2.846
405.01	2.839
405.36	2.843
405.72	2.809
406.07	2.819
406.42	2.798
406.77	2.787
407.12	2.738
407.47	2.740
407.82	2.702
408.17	2.668
408.53	2.642
408.88	2.628
409.23	2.609
409.58	2.576
409.93	2.545
410.28	2.543
410.63	2.545
410.98	2.551
411.33	2.515
411.68	2.514
412.03	2.522
412.38	2.526
412.73	2.502
413.09	2.495
413.44	2.501
413.79	2.514
414.14	2.517
414.49	2.528
414.84	2.530
415.19	2.560
415.54	2.559
415.89	2.558
416.24	2.556
416.59	2.582
416.94	2.590
417.29	2.599
417.64	2.601
417.99	2.610
418.34	2.611
418.69	2.617
419.04	2.615
419.39	2.628
419.74	2.634
420.09	2.648
420.44	2.645
420.79	2.658
421.14	2.656
421.49	2.658
421.84	2.659
422.19	2.662
422.54	2.668
422.89	2.666
423.24	2.653
423.59	2.647
423.94	2.644
424.29	2.644
424.64	2.614
424.99	2.611
425.34	2.606
425.68	2.591
426.03	2.595
426.38	2.583
426.73	2.570
427.08	2.572
427.43	2.569
427.78	2.565
428.13	2.565
428.48	2.588
428.83	2.598
429.18	2.591
429.53	2.599
429.87	2.591
430.22	2.589
430.57	2.593
430.92	2.608
431.27	2.609
431.62	2.589
431.97	2.570
432.32	2.559
432.67	2.554
433.01	2.557
433.36	2.565
433.71	2.556
434.06	2.565
434.41	2.570
434.76	2.575
435.11	2.571
435.45	2.596
435.80	2.597
436.15	2.603
436.50	2.586
436.85	2.586
437.20	2.579
437.54	2.590
437.89	2.575
438.24	2.566
438.59	2.560
438.94	2.573
439.29	2.569
439.63	2.577
439.98	2.568
440.33	2.587
440.68	2.580
441.03	2.575
441.37	2.563
441.72	2.569
442.07	2.586
442.42	2.593
442.76	2.589
443.11	2.603
443.46	2.606
443.81	2.623
444.16	2.622
444.50	2.635
444.85	2.659
445.20	2.672
445.55	2.669
445.89	2.659
446.24	2.646
446.59	2.639
446.94	2.617
447.28	2.615
447.63	2.601
447.98	2.594
448.32	2.582
448.67	2.549
449.02	2.521
449.37	2.539
449.71	2.533
450.06	2.509
450.41	2.505
450.75	2.504
451.10	2.487
451.45	2.497
451.79	2.500
452.14	2.502
452.49	2.492
452.84	2.506
453.18	2.477
453.53	2.490
453.88	2.512
454.22	2.514
454.57	2.518
454.92	2.530
455.26	2.523
455.61	2.524
455.95	2.525
456.30	2.536
456.65	2.535
456.99	2.543
457.34	2.534
457.69	2.547
458.03	2.552
458.38	2.556
458.73	2.550
459.07	2.568
459.42	2.567
459.76	2.553
460.11	2.532
460.46	2.520
460.80	2.524
461.15	2.519
461.49	2.476
461.84	2.470
462.19	2.451
462.53	2.465
462.88	2.414
463.22	2.397
463.57	2.417
463.91	2.454
464.26	2.476
464.61	2.469
464.95	2.476
465.30	2.499
465.64	2.500
465.99	2.503
466.33	2.481
466.68	2.513
467.02	2.522
467.37	2.510
467.71	2.474
468.06	2.451
468.41	2.435
468.75	2.434
469.10	2.410
469.44	2.389
469.79	2.373
470.13	2.382
470.48	2.340
470.82	2.333
471.17	2.323
471.51	2.317
471.86	2.310
472.20	2.315
472.55	2.298
472.89	2.305
473.23	2.298
473.58	2.304
473.92	2.285
474.27	2.287
474.61	2.283
474.96	2.276
475.30	2.252
475.65	2.245
475.99	2.230
476.34	2.234
476.68	2.232
477.02	2.236
477.37	2.232
477.71	2.232
478.06	2.254
478.40	2.283
478.75	2.320
479.09	2.390
479.43	2.453
479.78	2.506
480.12	2.553
480.47	2.612
480.81	2.675
481.15	2.741
481.50	2.803
481.84	2.858
482.19	2.917
482.53	2.976
482.87	3.001
483.22	2.991
483.56	2.969
483.90	2.925
484.25	2.859
484.59	2.798
484.94	2.745
485.28	2.692
485.62	2.640
485.97	2.579
486.31	2.510
486.65	2.464
487.00	2.450
487.34	2.453
487.68	2.466
488.03	2.488
488.37	2.500
488.71	2.501
489.06	2.493
489.40	2.473
489.74	2.446
490.09	2.431
490.43	2.411
490.77	2.390
491.11	2.366
491.46	2.354
491.80	2.336
492.14	2.301
492.49	2.260
492.83	2.233
493.17	2.200
493.51	2.180
493.86	2.165
494.20	2.154
494.54	2.136
494.88	2.116
495.23	2.110
495.57	2.095
495.91	2.099
496.25	2.094
496.60	2.085
496.94	2.090
497.28	2.085
497.62	2.075
497.97	2.070
498.31	2.064
498.65	2.045
498.99	2.025
499.33	2.022
499.68	2.030
500.02	2.027
500.36	2.020
500.70	1.996
501.04	1.993
501.39	1.970
501.73	1.966
502.07	1.963
502.41	1.967
502.75	1.967
503.09	1.967
503.44	1.960
503.78	1.965
504.12	1.973
504.46	1.995
504.80	2.001
505.14	2.008
505.49	2.005
505.83	2.026
506.17	2.030
506.51	2.033
506.85	2.029
507.19	2.033
507.53	2.032
507.87	2.036
508.22	2.032
508.56	2.019
508.90	2.017
509.24	2.015
509.58	1.987
509.92	1.992
510.26	1.973
510.60	1.962
510.94	1.962
511.28	1.962
511.63	1.956
511.97	1.941
512.31	1.938
512.65	1.937
512.99	1.931
513.33	1.932
513.67	1.933
514.01	1.966
514.35	1.991
514.69	2.000
515.03	2.019
515.37	2.025
515.71	2.036
516.05	2.055
516.39	2.058
516.73	2.070
517.07	2.076
517.41	2.084
517.75	2.059
518.09	2.049
518.43	2.020
518.77	1.994
519.11	1.986
519.45	1.979
519.79	1.946
520.13	1.950
520.47	1.925
520.81	1.930
521.15	1.922
521.49	1.930
521.83	1.922
522.17	1.942
522.51	1.969
522.85	1.989
523.19	2.009
523.53	2.055
523.87	2.084
524.21	2.135
524.55	2.167
524.89	2.195
525.23	2.228
525.57	2.267
525.91	2.294
526.25	2.314
526.58	2.335
526.92	2.358
527.26	2.367
527.60	2.370
527.94	2.364
528.28	2.355
528.62	2.340
528.96	2.323
529.30	2.300
529.64	2.280
529.97	2.249
530.31	2.221
530.65	2.191
530.99	2.168
531.33	2.158
531.67	2.144
532.01	2.131
532.35	2.130
532.68	2.118
533.02	2.102
533.36	2.079
533.70	2.065
534.04	2.038
534.38	2.022
534.71	1.997
535.05	1.974
535.39	1.945
535.73	1.934
536.07	1.909
536.41	1.912
536.74	1.928
537.08	1.944
537.42	1.956
537.76	1.975
538.10	1.987
538.43	2.007
538.77	2.016
539.11	2.032
539.45	2.042
539.79	2.065
540.12	2.074
540.46	2.069
540.80	2.062
541.14	2.046
541.47	2.037
541.81	2.023
542.15	2.007
542.49	1.977
542.82	1.961
543.16	1.937
543.50	1.901
543.84	1.875
544.17	1.855
544.51	1.831
544.85	1.839
545.18	1.827
545.52	1.806
545.86	1.786
546.20	1.782
546.53	1.760
546.87	1.734
547.21	1.710
547.54	1.671
547.88	1.653
548.22	1.646
548.55	1.626
548.89	1.622
549.23	1.633
549.56	1.618
549.90	1.625
550.24	1.621
550.57	1.635
550.91	1.645
551.25	1.649
551.58	1.635
551.92	1.623
552.26	1.602
552.59	1.579
552.93	1.557
553.27	1.566
553.60	1.518
553.94	1.506
554.27	1.477
554.61	1.486
554.95	1.489
555.28	1.498
555.62	1.496
555.95	1.506
556.29	1.507
556.63	1.512
556.96	1.514
557.30	1.552
557.63	1.555
557.97	1.568
558.31	1.552
558.64	1.571
558.98	1.566
559.31	1.577
559.65	1.574
559.98	1.577
560.32	1.567
560.65	1.577
560.99	1.572
561.33	1.589
561.66	1.583
562.00	1.594
562.33	1.585
562.67	1.582
563.00	1.605
563.34	1.630
563.67	1.628
564.01	1.644
564.34	1.619
564.68	1.625
565.01	1.620
565.35	1.614
565.68	1.614
566.02	1.621
566.35	1.637
566.69	1.617
567.02	1.603
567.36	1.619
567.69	1.622
568.03	1.645
568.36	1.657
568.69	1.650
569.03	1.657
569.36	1.661
569.70	1.633
570.03	1.634
570.37	1.651
570.70	1.662
571.04	1.653
571.37	1.651
571.70	1.642
572.04	1.632
572.37	1.630
572.71	1.640
573.04	1.627
573.37	1.661
573.71	1.656
574.04	1.641
574.38	1.615
574.71	1.612
575.04	1.603
575.38	1.612
575.71	1.601
576.05	1.606
576.38	1.589
576.71	1.579
577.05	1.541
577.38	1.513
577.71	1.507
578.05	1.511
578.38	1.489
578.71	1.473
579.05	1.451
579.38	1.459
579.71	1.426
580.05	1.404
580.38	1.402
580.71	1.399
581.05	1.401
581.38	1.404
581.71	1.397
582.05	1.403
582.38	1.408
582.71	1.417
583.04	1.380
583.38	1.402
583.71	1.408
584.04	1.415
584.38	1.407
584.71	1.420
585.04	1.425
585.37	1.445
585.71	1.467
586.04	1.488
586.37	1.509
586.70	1.548
587.04	1.556
587.37	1.566
587.70	1.565
588.03	1.613
588.37	1.611
588.70	1.596
589.03	1.590
589.36	1.560
589.69	1.544
590.03	1.493
590.36	1.476
590.69	1.480
591.02	1.469
591.35	1.458
591.69	1.416
592.02	1.434
592.35	1.434
592.68	1.443
593.01	1.462
593.35	1.476
593.68	1.498
594.01	1.484
594.34	1.477
594.67	1.494
595.00	1.505
595.34	1.506
595.67	1.480
596.00	1.467
596.33	1.446
596.66	1.410
596.99	1.367
597.32	1.346
597.65	1.364
597.99	1.343
598.32	1.302
598.65	1.271
598.98	1.250
599.31	1.244
599.64	1.243
599.97	1.254
600.30	1.251
600.63	1.281
600.96	1.303
601.30	1.303
601.63	1.310
601.96	1.345
602.29	1.364
602.62	1.376
602.95	1.373
603.28	1.365
603.61	1.337
603.94	1.356
604.27	1.340
604.60	1.310
604.93	1.283
605.26	1.287
605.59	1.254
605.92	1.237
606.25	1.215
606.58	1.216
606.91	1.214
607.24	1.240
607.57	1.205
607.90	1.191
608.23	1.173
608.56	1.165
608.89	1.123
609.22	1.119
609.55	1.077
609.88	1.041
610.21	0.995
610.54	0.983
610.87	0.922
611.20	0.912
611.53	0.893
611.86	0.888
612.19	0.884
612.52	0.846
612.85	0.808
613.18	0.799
613.51	0.783
613.84	0.781
614.17	0.744
614.49	0.737
614.82	0.738
615.15	0.719
615.48	0.678
615.81	0.650
616.14	0.671
616.47	0.655
616.80	0.656
617.13	0.652
617.46	0.648
617.78	0.633
618.11	0.632
618.44	0.603
618.77	0.591
619.10	0.607
619.43	0.585
619.76	0.553
620.09	0.545
620.41	0.543
620.74	0.561
621.07	0.531
621.40	0.514
621.73	0.531
622.06	0.553
622.38	0.570
622.71	0.543
623.04	0.557
623.37	0.599
623.70	0.611
624.02	0.649
624.35	0.681
624.68	0.713
625.01	0.769
625.34	0.753
625.66	0.782
625.99	0.769
626.32	0.804
626.65	0.805
626.98	0.784
627.30	0.772
627.63	0.736
627.96	0.718
628.29	0.704
628.61	0.661
628.94	0.669
629.27	0.617
629.60	0.636
629.92	0.591
630.25	0.605
630.58	0.582
630.91	0.577
631.23	0.557
631.56	0.529
631.89	0.536
632.21	0.540
632.54	0.495
632.87	0.510
633.19	0.490
633.52	0.493
633.85	0.487
634.18	0.474
634.50	0.455
634.83	0.437
635.16	0.450
635.48	0.422
635.81	0.393
636.14	0.393
636.46	0.349
636.79	0.318
637.11	0.315
637.44	0.310
637.77	0.300
638.09	0.290
638.42	0.262
638.75	0.206
639.07	0.162
639.40	0.153
639.73	0.158
640.05	0.185
640.38	0.157
640.70	0.177
641.03	0.127
641.36	0.137
641.68	0.125
642.01	0.126
642.33	0.136
642.66	0.167
642.98	0.159
643.31	0.145
643.64	0.113
643.96	0.133
644.29	0.093
644.61	0.134
644.94	0.143
645.26	0.176
645.59	0.232
645.91	0.293
646.24	0.303
646.56	0.307
646.89	0.285
647.22	0.306
647.54	0.305
647.87	0.338
648.19	0.301
648.52	0.331
648.84	0.315
649.17	0.293
649.49	0.259
649.82	0.246
650.14	0.271
650.47	0.323
650.79	0.304
651.11	0.297
651.44	0.295
651.76	0.289
652.09	0.258
652.41	0.276
652.74	0.275
653.06	0.260
653.39	0.283
653.71	0.296
654.04	0.301
654.36	0.330
654.68	0.334
655.01	0.315
655.33	0.339
655.66	0.352
655.98	0.365
656.30	0.410
656.63	0.408
656.95	0.435
657.28	0.417
657.60	0.380
657.92	0.351
658.25	0.347
658.57	0.352
658.90	0.324
659.22	0.288
659.54	0.263
659.87	0.162
660.19	0.134
660.51	0.059
660.84	0.024
661.16	-0.010
661.48	-0.059
661.81	-0.097
662.13	-0.136
662.45	-0.150
662.78	-0.158
663.10	-0.168
663.42	-0.106
663.75	-0.102
664.07	-0.080
664.39	-0.073
664.72	-0.053
665.04	-0.035
665.36	-0.010
665.69	-0.009
666.01	-0.045
666.33	-0.044
666.65	-0.072
666.98	-0.106
667.30	-0.103
667.62	-0.200
667.94	-0.221
668.27	-0.255
668.59	-0.243
668.91	-0.266
669.23	-0.221
669.56	-0.228
669.88	-0.267
670.20	-0.325
670.52	-0.367
670.85	-0.368
671.17	-0.302
671.49	-0.278
671.81	-0.246
672.13	-0.279
672.46	-0.285
672.78	-0.404
673.10	-0.432
673.42	-0.419
673.74	-0.357
674.07	-0.324
674.39	-0.398
674.71	-0.400
675.03	-0.387
675.35	-0.413
675.67	-0.341
676.00	-0.310
676.32	-0.227
676.64	-0.145
676.96	-0.115
677.28	-0.098
677.60	-0.064
677.92	0.010
678.25	0.034
678.57	0.021
678.89	0.005
679.21	-0.017
679.53	-0.019
679.85	-0.049
680.17	-0.069
680.49	-0.096
680.81	-0.101
681.13	-0.114
681.46	-0.128
681.78	-0.125
682.10	-0.129
682.42	-0.091
682.74	-0.055
683.06	-0.101
683.38	-0.058
683.70	-0.008
684.02	0.017
684.34	0.041
684.66	0.088
684.98	0.127
685.30	0.168
685.62	0.201
685.94	0.200
686.26	0.178
686.58	0.213
686.90	0.202
687.22	0.132
687.54	0.160
687.86	0.125
688.18	0.054
688.50	-0.023
688.82	-0.101
689.14	-0.166
689.46	-0.170
689.78	-0.264
690.10	-0.249
690.42	-0.236
690.74	-0.268
691.06	-0.291
691.38	-0.314
691.70	-0.330
692.02	-0.309
692.34	-0.291
692.66	-0.294
692.98	-0.319
693.30	-0.239
693.62	-0.257
693.94	-0.336
694.26	-0.227
694.57	-0.221
694.89	-0.144
695.21	-0.043
695.53	-0.022
695.85	-0.010
696.17	0.067
696.49	0.095
696.81	0.146
697.13	0.157
697.44	0.278
697.76	0.210
698.08	0.198
698.40	0.150
698.72	0.090
699.04	0.025
699.36	-0.028
699.67	-0.143
699.99	-0.297
700.31	-0.451
700.63	-0.551
700.95	-0.771
701.27	-0.857
701.58	-0.983
701.90	-1.107
702.22	-1.277
702.54	-1.374
702.86	-1.482
703.17	-1.591
703.49	-1.514
703.81	-1.500
704.13	-1.475
704.45	-1.442
704.76	-1.458
705.08	-1.469
705.40	-1.505
705.72	-1.438
706.03	-1.377
706.35	-1.303
706.67	-1.320
706.99	-1.339
707.30	-1.357
707.62	-1.410
707.94	-1.384
708.26	-1.357
708.57	-1.323
708.89	-1.212
709.21	-1.249
709.53	-1.222
709.84	-1.268
710.16	-1.152
710.48	-1.091
710.79	-1.082
711.11	-1.089
711.43	-1.155
711.74	-1.197
712.06	-1.154
712.38	-1.233
712.69	-1.150
713.01	-1.160
713.33	-1.064
713.64	-1.064
713.96	-1.055
714.28	-0.936
714.59	-0.841
714.91	-0.702
715.23	-0.534
715.54	-0.498
715.86	-0.333
716.17	-0.272
716.49	-0.161
716.81	-0.192
717.12	-0.301
717.44	-0.279
717.76	-0.378
718.07	-0.384
718.39	-0.500
718.70	-0.654
719.02	-0.739
719.33	-0.886
719.65	-1.040
719.97	-1.144
720.28	-1.139
720.60	-1.052
720.91	-1.092
721.23	-1.100
721.54	-1.066
721.86	-1.007
722.17	-0.925
722.49	-0.877
722.81	-0.924
723.12	-0.923
723.44	-0.958
723.75	-0.988
724.07	-0.959
724.38	-0.922
724.70	-0.872
725.01	-0.890
725.33	-0.880
725.64	-0.844
725.96	-0.806
726.27	-0.748
726.59	-0.677
726.90	-0.665
727.22	-0.621
727.53	-0.684
727.84	-0.709
728.16	-0.829
728.47	-0.875
728.79	-0.877
729.10	-0.947
729.42	-0.975
729.73	-1.001
730.05	-0.964
730.36	-0.977
730.67	-1.043
730.99	-1.054
731.30	-1.151
731.62	-1.239
731.93	-1.314
732.24	-1.377
732.56	-1.532
732.87	-1.687
733.19	-1.771
733.50	-1.982
733.81	-2.060
734.13	-2.077
734.44	-2.111
734.76	-2.109
735.07	-2.108
735.38	-2.193
735.70	-2.300
736.01	-2.314
736.32	-2.378
736.64	-2.377
736.95	-2.472
737.26	-2.563
737.58	-2.730
737.89	-2.745
738.20	-2.906
738.52	-3.008
738.83	-2.997
739.14	-3.017
739.45	-3.045
739.77	-3.000
740.08	-3.088
740.39	-3.208
740.71	-3.200
741.02	-3.038
741.33	-3.047
741.64	-3.074
741.96	-3.303
742.27	-3.475
742.58	-3.639
742.90	-3.600
743.21	-3.852
743.52	-3.910
743.83	-3.658
744.14	-3.682
744.46	-4.060
744.77	-4.107
745.08	-3.965
745.39	-3.829
745.71	-3.983
746.02	-3.964
746.33	-4.161
746.64	-3.900
746.95	-3.801
747.27	-3.865
747.58	-4.004
747.89	-3.770
748.20	-3.879
748.51	-3.997
748.82	-3.869
749.14	-3.764
749.45	-3.733
749.76	-3.542
750.07	-3.685
750.38	-3.738
750.69	-3.612
751.01	-3.498
751.32	-3.487
751.63	-3.479
751.94	-3.502
752.25	-3.493
752.56	-3.392
752.87	-3.308
753.18	-3.394
753.49	-3.271
753.81	-3.374
754.12	-3.520
754.43	-3.350
754.74	-3.267
755.05	-3.202
755.36	-2.926
755.67	-2.674
755.98	-2.335
756.29	-2.109
756.60	-1.785
756.91	-1.423
757.22	-1.047
757.53	-0.678
757.84	-0.380
758.15	-0.111
758.46	0.377
758.77	0.619
759.09	0.945
759.40	1.095
759.71	1.259
760.02	1.234
760.33	1.215
760.64	1.412
760.95	1.464
761.26	1.431
761.57	1.455
761.88	1.270
762.18	1.163
762.49	0.937
762.80	0.837
763.11	0.619
763.42	0.621
763.73	0.491
764.04	0.056
764.35	-0.274
764.66	-0.606
764.97	-0.977
765.28	-1.175
765.59	-1.546
765.90	-1.731
766.21	-1.949
766.52	-2.213
766.83	-2.656
767.14	-2.978
767.44	-2.992
767.75	-3.131
768.06	-3.205
768.37	-3.356
768.68	-3.549
768.99	-3.627
769.30	-3.843
769.61	-4.429
769.91	-4.764
770.22	-4.933
770.53	-5.054
770.84	-4.905
771.15	-4.836
771.46	-4.929
771.77	-5.175
772.07	-5.119
772.38	-5.395
772.69	-5.524
773.00	-5.494
773.31	-5.081
773.61	-5.166
773.92	-5.231
774.23	-5.516
774.54	-5.759
774.85	-6.014
775.15	-5.843
775.46	-6.066
775.77	-5.814
776.08	-5.737
776.39	-5.840
776.69	-5.822
777.00	-5.507
777.31	-5.495
777.62	-5.236
777.92	-5.291
778.23	-4.802
778.54	-4.828
778.85	-4.783
779.15	-4.742
779.46	-4.756
779.77	-4.562
780.07	-4.681
780.38	-4.926
780.69	-4.882
781.00	-5.376
781.30	-5.435
781.61	-5.937
781.92	-5.845
782.22	-5.823
782.53	-5.807
782.84	-5.915
783.14	-5.659
783.45	-5.620
783.76	-5.073
784.06	-5.008
784.37	-4.227
784.68	-3.948
784.98	-3.423
785.29	-3.180
785.60	-2.807
785.90	-2.676
786.21	-2.548
786.51	-2.432
786.82	-2.373
787.13	-2.068
787.43	-1.955
787.74	-2.397
788.04	-2.295
788.35	-2.525
788.66	-2.733
788.96	-2.972
789.27	-2.784
789.57	-2.769
789.88	-2.613
790.19	-2.426
790.49	-2.923
790.80	-2.542
791.10	-2.402
791.41	-2.511
791.71	-2.420
792.02	-2.184
792.32	-2.157
792.63	-2.124
792.93	-2.092
793.24	-2.773
793.54	-2.985
793.85	-2.714
794.15	-2.976
794.46	-3.120
794.76	-2.907
795.07	-2.991
795.37	-3.022
795.68	-2.769
795.98	-2.959
796.29	-2.810
796.59	-2.341
796.90	-2.345
797.20	-2.573
797.51	-2.324
797.81	-2.245
798.12	-2.218
798.42	-2.075
798.72	-2.433
799.03	-2.598
799.33	-2.737
799.64	-2.901
799.94	-3.159
800.25	-3.048
800.55	-2.910
800.85	-3.527
801.16	-3.393
801.46	-3.355
801.77	-3.556
802.07	-3.341
802.37	-3.541
802.68	-3.496
802.98	-3.689
803.28	-3.138
803.59	-3.188
803.89	-3.314
804.20	-3.012
804.50	-2.928
804.80	-3.349
805.11	-2.773
805.41	-2.666
805.71	-2.436
806.02	-2.350
806.32	-1.699
806.62	-2.065
806.93	-2.138
807.23	-1.858
807.53	-1.867
807.83	-1.785
808.14	-1.234
808.44	-1.532
808.74	-1.134
809.05	-0.672
809.35	-0.444
809.65	-1.019
809.95	-0.715
810.26	-0.357
810.56	-0.137
810.86	0.234
811.16	0.365
811.47	0.080
811.77	0.269
812.07	0.022
812.37	-0.278
812.68	-0.331
812.98	0.485
813.28	0.355
813.58	0.467
813.88	-0.017
814.19	-0.197
814.49	-0.651
814.79	-0.480
815.09	-0.506
815.39	-0.392
815.70	-0.250
816.00	-0.161
816.30	-0.747
816.60	-0.456
816.90	-0.211
817.20	0.433
817.50	0.940
817.81	1.442
818.11	1.710
818.41	2.042
818.71	2.221
819.01	2.364
819.31	2.457
819.61	2.749
819.92	2.843
820.22	2.902
820.52	2.963
820.82	3.054
821.12	3.134
821.42	3.230
821.72	3.288
822.02	3.261
822.32	3.245
822.62	3.297
822.92	3.300
823.22	3.266
823.52	3.245
823.83	3.153
824.13	3.103
824.43	3.081
824.73	2.978
825.03	2.902
825.33	2.991
825.63	3.066
825.93	3.062
826.23	2.966
826.53	2.917
826.83	3.016
827.13	3.002
827.43	2.892
827.73	2.704
828.03	2.616
828.33	2.356
828.63	2.393
828.93	2.193
829.23	2.150
829.53	1.848
829.83	2.044
830.13	1.682
830.42	1.735
830.72	1.849
831.02	1.949
831.32	2.081
831.62	2.277
831.92	1.988
832.22	2.174
832.52	1.951
832.82	2.525
833.12	2.215
833.42	2.395
833.72	2.566
834.01	2.469
834.31	2.369
834.61	2.295
834.91	2.205
835.21	2.279
835.51	2.168
835.81	2.589
836.11	1.938
836.40	2.074
836.70	1.934
837.00	1.435
837.30	1.144
837.60	1.563
837.90	1.745
838.19	1.769
838.49	1.018
838.79	0.948
839.09	0.709
839.39	0.629
839.68	0.435
839.98	0.270
840.28	0.230
840.58	-0.181
840.88	-1.405
841.17	-2.222
841.47	-2.637
841.77	-1.553
842.07	-2.455
842.36	-3.496
842.66	-4.367
842.96	-3.565
843.26	-4.747
843.55	-5.294
843.85	-5.133
844.15	-4.629
844.45	-4.504
844.74	-4.097
845.04	-5.424
845.34	-4.741
845.63	-6.316
845.93	-5.664
846.23	-6.941
846.53	-6.553
846.82	-6.420
847.12	-6.696
847.42	-8.535
847.71	-9.676
848.01	-10.881
848.31	-10.956
848.60	-12.837
848.90	-13.154
849.19	-13.542
849.49	-14.310
849.79	-15.047
850.08	-13.784
850.38	-11.430
850.68	-8.655
850.97	-6.832
851.27	-5.009
851.56	-5.181
851.86	-3.322
852.16	-1.387
852.45	-0.997
852.75	-0.064
853.04	0.719
853.34	0.009
853.64	-3.021
853.93	-3.085
854.23	-2.860
854.52	-4.349
854.82	-2.669
855.11	-3.116
855.41	-2.909
855.70	-2.722
856.00	-3.276
856.30	-2.548
856.59	-3.723
856.89	-1.610
857.18	-2.742
857.48	-4.173
857.77	-5.582
858.07	-6.123
858.36	-7.474
858.66	-8.476
858.95	-7.653
859.25	-6.925
859.54	-9.099
859.84	-8.376
860.13	-9.178
860.42	-8.232
860.72	-7.285
861.01	-4.526
861.31	-5.335
861.60	-4.461
861.90	-4.896
862.19	-7.633
862.49	-7.954
862.78	-4.413
863.07	-3.952
863.37	-5.873
863.66	-8.123
863.96	-9.096
864.25	-10.038
864.54	-9.707
864.84	-9.401
865.13	-9.690
865.43	-8.964
865.72	-3.403
866.01	-5.689
866.31	-5.086
866.60	-23.271
866.89	-15.547
>>>>>End Spectral Data<<<<<
