OOIBase32 Version 2.0.0.6 Data File
++++++++++++++++++++++++++++++++++++
Date: 01-20-2012, 23:32:21
User: Valued Ocean Optics Customer
Spectrometer Serial Number: USB2E2917
Spectrometer Channel: Master
Integration Time (msec): 3
Spectra Averaged: 10
Boxcar Smoothing: 5
Correct for Electrical Dark: Enabled
Time Normalized: Disabled
Dual-beam Reference: Disabled
Reference Channel: Master
Temperature: Not acquired
Spectrometer Type: S2000
ADC Type: USB2000
Number of Pixels in File: 2048
Graph Title: 
>>>>>Begin Spectral Data<<<<<
180.30	0.000
180.67	0.000
181.03	34.869
181.40	49.050
181.77	46.218
182.14	29.664
182.51	81.132
182.88	-8.959
183.25	-625.749
183.62	-25.151
183.99	95.250
184.36	208.296
184.73	160.621
185.10	56.382
185.46	75.415
185.83	-119.575
186.20	-1458.455
186.57	2089.061
186.94	32.610
187.31	-561.007
187.68	32.150
188.05	33.195
188.42	68.642
188.78	82.954
189.15	80.144
189.52	70.215
189.89	75.811
190.26	78.600
190.63	83.380
191.00	70.241
191.37	73.887
191.73	78.311
192.10	85.154
192.47	91.767
192.84	92.478
193.21	84.169
193.58	81.218
193.94	79.614
194.31	72.127
194.68	64.158
195.05	63.706
195.42	66.632
195.79	63.101
196.15	66.633
196.52	57.546
196.89	47.091
197.26	76.190
197.63	69.837
198.00	64.296
198.36	63.662
198.73	44.115
199.10	42.177
199.47	17.726
199.84	23.870
200.20	-11.278
200.57	23.705
200.94	24.996
201.31	6.434
201.68	26.626
202.04	16.842
202.41	23.988
202.78	37.398
203.15	33.387
203.51	39.265
203.88	37.327
204.25	42.839
204.62	45.386
204.98	36.591
205.35	19.443
205.72	-14.246
206.09	-1.588
206.46	-23.256
206.82	-6.700
207.19	-1.570
207.56	4.681
207.92	15.499
208.29	13.551
208.66	7.193
209.03	14.671
209.39	26.928
209.76	27.495
210.13	11.018
210.50	20.107
210.86	20.703
211.23	18.432
211.60	8.481
211.96	-0.342
212.33	17.077
212.70	17.230
213.07	5.848
213.43	34.783
213.80	48.849
214.17	69.844
214.53	79.755
214.90	81.891
215.27	81.532
215.63	75.797
216.00	63.580
216.37	45.090
216.74	38.871
217.10	59.929
217.47	57.394
217.84	53.398
218.20	37.299
218.57	47.634
218.94	58.368
219.30	52.108
219.67	33.589
220.04	41.359
220.40	59.278
220.77	59.665
221.13	44.467
221.50	48.163
221.87	41.838
222.23	42.134
222.60	27.547
222.97	23.405
223.33	31.550
223.70	36.438
224.07	28.902
224.43	22.603
224.80	25.827
225.16	26.451
225.53	22.490
225.90	20.950
226.26	22.184
226.63	18.185
226.99	17.768
227.36	16.427
227.73	14.502
228.09	14.291
228.46	15.494
228.82	12.517
229.19	12.175
229.56	9.994
229.92	11.573
230.29	8.860
230.65	13.449
231.02	14.249
231.38	11.669
231.75	13.210
232.12	13.179
232.48	14.204
232.85	13.655
233.21	12.278
233.58	11.076
233.94	11.754
234.31	16.317
234.68	15.616
235.04	15.558
235.41	16.097
235.77	18.777
236.14	20.321
236.50	18.045
236.87	16.779
237.23	16.258
237.60	16.760
237.96	15.541
238.33	12.881
238.69	12.170
239.06	11.725
239.42	11.463
239.79	9.606
240.15	9.471
240.52	8.837
240.88	9.072
241.25	8.884
241.61	8.613
241.98	8.519
242.34	8.301
242.71	7.665
243.07	6.934
243.44	6.425
243.80	6.451
244.17	5.700
244.53	5.414
244.90	5.359
245.26	5.287
245.63	4.879
245.99	4.391
246.36	4.498
246.72	4.506
247.09	4.620
247.45	4.534
247.81	4.288
248.18	4.551
248.54	4.727
248.91	4.110
249.27	4.150
249.64	4.119
250.00	4.137
250.36	3.855
250.73	3.617
251.09	3.894
251.46	4.338
251.82	4.266
252.19	3.945
252.55	4.575
252.91	4.934
253.28	4.378
253.64	4.061
254.01	4.646
254.37	5.178
254.73	4.845
255.10	3.789
255.46	3.514
255.83	3.076
256.19	3.107
256.55	2.716
256.92	2.782
257.28	3.229
257.65	3.464
258.01	3.377
258.37	3.119
258.74	3.448
259.10	3.593
259.46	3.765
259.83	3.910
260.19	4.208
260.55	4.020
260.92	4.229
261.28	4.194
261.64	4.315
262.01	4.180
262.37	4.501
262.73	3.966
263.10	4.743
263.46	4.301
263.82	4.384
264.19	3.884
264.55	4.149
264.91	4.036
265.28	3.589
265.64	3.397
266.00	3.369
266.37	3.423
266.73	3.920
267.09	3.335
267.46	3.750
267.82	4.133
268.18	4.181
268.54	4.375
268.91	4.569
269.27	4.688
269.63	5.166
270.00	5.194
270.36	5.086
270.72	4.845
271.08	5.035
271.45	4.988
271.81	5.309
272.17	5.485
272.53	5.731
272.90	5.740
273.26	5.968
273.62	5.740
273.98	6.056
274.35	6.343
274.71	6.500
275.07	6.379
275.43	6.380
275.80	5.760
276.16	5.530
276.52	5.136
276.88	4.634
277.25	4.611
277.61	4.253
277.97	3.939
278.33	3.402
278.69	3.722
279.06	3.790
279.42	3.710
279.78	3.482
280.14	3.222
280.50	3.210
280.87	3.041
281.23	3.043
281.59	3.235
281.95	3.491
282.31	3.530
282.68	3.238
283.04	3.178
283.40	3.047
283.76	3.124
284.12	3.666
284.48	3.660
284.85	3.897
285.21	4.124
285.57	4.192
285.93	3.754
286.29	3.731
286.65	3.570
287.02	3.756
287.38	3.853
287.74	4.198
288.10	3.925
288.46	3.770
288.82	3.825
289.18	3.329
289.54	3.249
289.91	3.626
290.27	3.733
290.63	4.016
290.99	4.017
291.35	4.110
291.71	3.987
292.07	3.944
292.43	3.959
292.79	4.015
293.16	4.391
293.52	4.342
293.88	4.353
294.24	4.332
294.60	4.295
294.96	3.927
295.32	3.860
295.68	3.646
296.04	3.617
296.40	3.881
296.76	3.925
297.12	3.681
297.49	3.596
297.85	3.484
298.21	3.504
298.57	3.484
298.93	3.687
299.29	3.713
299.65	3.681
300.01	3.825
300.37	3.608
300.73	3.416
301.09	3.534
301.45	3.545
301.81	3.752
302.17	3.560
302.53	3.889
302.89	3.895
303.25	3.880
303.61	4.075
303.97	4.126
304.33	4.234
304.69	4.424
305.05	4.405
305.41	4.401
305.77	4.414
306.13	4.777
306.49	4.438
306.85	4.483
307.21	4.438
307.57	4.381
307.93	4.241
308.29	4.079
308.65	4.004
309.01	3.974
309.37	4.083
309.73	4.155
310.09	4.057
310.45	4.201
310.81	4.205
311.17	4.341
311.53	4.252
311.89	4.168
312.25	4.266
312.61	4.364
312.96	4.566
313.32	4.542
313.68	4.447
314.04	4.518
314.40	4.395
314.76	4.441
315.12	4.317
315.48	4.426
315.84	4.521
316.20	4.567
316.56	4.557
316.92	4.395
317.27	4.599
317.63	4.522
317.99	4.326
318.35	4.452
318.71	4.557
319.07	4.626
319.43	4.717
319.79	4.793
320.15	4.825
320.50	4.863
320.86	4.997
321.22	4.867
321.58	5.015
321.94	5.417
322.30	5.491
322.66	5.476
323.01	5.526
323.37	5.581
323.73	5.682
324.09	5.858
324.45	5.921
324.81	5.860
325.17	6.060
325.52	6.164
325.88	6.182
326.24	6.192
326.60	6.265
326.96	6.494
327.31	6.595
327.67	6.730
328.03	6.738
328.39	6.977
328.75	7.226
329.11	7.205
329.46	7.337
329.82	7.377
330.18	7.427
330.54	7.523
330.90	7.399
331.25	7.543
331.61	7.652
331.97	7.765
332.33	7.715
332.68	7.799
333.04	7.890
333.40	7.915
333.76	7.992
334.11	8.013
334.47	7.954
334.83	8.202
335.19	8.247
335.54	8.227
335.90	8.193
336.26	8.163
336.62	8.089
336.97	8.137
337.33	8.076
337.69	7.906
338.05	8.048
338.40	8.205
338.76	8.145
339.12	8.003
339.48	8.035
339.83	8.159
340.19	8.076
340.55	8.025
340.90	8.023
341.26	8.109
341.62	8.176
341.97	8.088
342.33	8.030
342.69	7.976
343.04	8.119
343.40	8.206
343.76	8.224
344.12	8.373
344.47	8.407
344.83	8.342
345.19	8.274
345.54	8.278
345.90	8.396
346.26	8.407
346.61	8.450
346.97	8.421
347.32	8.320
347.68	8.267
348.04	8.263
348.39	8.396
348.75	8.464
349.11	8.469
349.46	8.473
349.82	8.472
350.18	8.483
350.53	8.427
350.89	8.407
351.24	8.451
351.60	8.480
351.96	8.554
352.31	8.549
352.67	8.605
353.02	8.666
353.38	8.590
353.74	8.625
354.09	8.592
354.45	8.764
354.80	8.767
355.16	8.766
355.52	8.704
355.87	8.667
356.23	8.612
356.58	8.592
356.94	8.675
357.29	8.792
357.65	8.763
358.00	8.847
358.36	8.745
358.72	8.836
359.07	8.793
359.43	8.867
359.78	8.917
360.14	9.043
360.49	9.010
360.85	8.979
361.20	9.015
361.56	8.957
361.91	8.960
362.27	8.984
362.62	8.951
362.98	9.036
363.33	9.014
363.69	9.043
364.04	8.975
364.40	9.061
364.75	9.072
365.11	9.085
365.46	9.140
365.82	9.178
366.17	9.261
366.53	9.296
366.88	9.275
367.24	9.347
367.59	9.325
367.95	9.375
368.30	9.403
368.66	9.464
369.01	9.465
369.37	9.511
369.72	9.493
370.08	9.480
370.43	9.532
370.78	9.626
371.14	9.658
371.49	9.700
371.85	9.772
372.20	9.794
372.56	9.800
372.91	9.910
373.26	9.993
373.62	10.076
373.97	10.133
374.33	10.209
374.68	10.232
375.03	10.257
375.39	10.363
375.74	10.410
376.10	10.498
376.45	10.549
376.80	10.545
377.16	10.585
377.51	10.674
377.87	10.712
378.22	10.730
378.57	10.835
378.93	10.928
379.28	10.979
379.63	11.001
379.99	11.078
380.34	11.171
380.70	11.252
381.05	11.315
381.40	11.334
381.76	11.388
382.11	11.450
382.46	11.488
382.82	11.513
383.17	11.549
383.52	11.645
383.88	11.656
384.23	11.686
384.58	11.803
384.94	11.850
385.29	11.931
385.64	12.040
385.99	12.113
386.35	12.185
386.70	12.308
387.05	12.419
387.41	12.497
387.76	12.553
388.11	12.629
388.47	12.720
388.82	12.829
389.17	12.879
389.52	12.950
389.88	13.036
390.23	13.130
390.58	13.180
390.93	13.188
391.29	13.238
391.64	13.337
391.99	13.376
392.34	13.367
392.70	13.440
393.05	13.532
393.40	13.607
393.75	13.693
394.11	13.700
394.46	13.723
394.81	13.811
395.16	13.857
395.52	13.914
395.87	13.997
396.22	14.092
396.57	14.096
396.92	14.202
397.28	14.268
397.63	14.328
397.98	14.389
398.33	14.483
398.68	14.515
399.04	14.600
399.39	14.638
399.74	14.664
400.09	14.692
400.44	14.757
400.80	14.728
401.15	14.740
401.50	14.741
401.85	14.783
402.20	14.768
402.55	14.819
402.90	14.880
403.26	14.945
403.61	14.996
403.96	15.026
404.31	15.075
404.66	15.143
405.01	15.187
405.36	15.229
405.72	15.305
406.07	15.415
406.42	15.471
406.77	15.452
407.12	15.468
407.47	15.526
407.82	15.560
408.17	15.620
408.53	15.662
408.88	15.691
409.23	15.749
409.58	15.754
409.93	15.806
410.28	15.869
410.63	15.969
410.98	15.998
411.33	16.030
411.68	16.038
412.03	16.055
412.38	16.068
412.73	16.125
413.09	16.166
413.44	16.177
413.79	16.161
414.14	16.155
414.49	16.138
414.84	16.147
415.19	16.138
415.54	16.158
415.89	16.158
416.24	16.187
416.59	16.197
416.94	16.193
417.29	16.235
417.64	16.260
417.99	16.250
418.34	16.258
418.69	16.280
419.04	16.290
419.39	16.307
419.74	16.320
420.09	16.328
420.44	16.310
420.79	16.324
421.14	16.329
421.49	16.330
421.84	16.365
422.19	16.374
422.54	16.373
422.89	16.389
423.24	16.424
423.59	16.440
423.94	16.467
424.29	16.506
424.64	16.518
424.99	16.531
425.34	16.534
425.68	16.548
426.03	16.550
426.38	16.594
426.73	16.626
427.08	16.648
427.43	16.648
427.78	16.646
428.13	16.663
428.48	16.687
428.83	16.711
429.18	16.762
429.53	16.761
429.87	16.797
430.22	16.840
430.57	16.887
430.92	16.873
431.27	16.912
431.62	16.953
431.97	16.980
432.32	16.999
432.67	17.022
433.01	17.075
433.36	17.125
433.71	17.172
434.06	17.187
434.41	17.164
434.76	17.219
435.11	17.255
435.45	17.251
435.80	17.301
436.15	17.330
436.50	17.338
436.85	17.303
437.20	17.328
437.54	17.326
437.89	17.332
438.24	17.368
438.59	17.372
438.94	17.375
439.29	17.384
439.63	17.365
439.98	17.385
440.33	17.416
440.68	17.421
441.03	17.402
441.37	17.419
441.72	17.443
442.07	17.408
442.42	17.384
442.76	17.378
443.11	17.382
443.46	17.388
443.81	17.351
444.16	17.329
444.50	17.352
444.85	17.366
445.20	17.353
445.55	17.340
445.89	17.356
446.24	17.368
446.59	17.362
446.94	17.366
447.28	17.366
447.63	17.382
447.98	17.382
448.32	17.376
448.67	17.352
449.02	17.353
449.37	17.355
449.71	17.377
450.06	17.360
450.41	17.363
450.75	17.354
451.10	17.317
451.45	17.349
451.79	17.346
452.14	17.361
452.49	17.369
452.84	17.394
453.18	17.390
453.53	17.398
453.88	17.453
454.22	17.495
454.57	17.519
454.92	17.580
455.26	17.577
455.61	17.591
455.95	17.613
456.30	17.674
456.65	17.712
456.99	17.734
457.34	17.770
457.69	17.806
458.03	17.823
458.38	17.868
458.73	17.895
459.07	17.932
459.42	17.994
459.76	18.017
460.11	18.030
460.46	18.044
460.80	18.121
461.15	18.164
461.49	18.245
461.84	18.294
462.19	18.358
462.53	18.404
462.88	18.489
463.22	18.550
463.57	18.610
463.91	18.641
464.26	18.709
464.61	18.723
464.95	18.784
465.30	18.788
465.64	18.840
465.99	18.833
466.33	18.857
466.68	18.850
467.02	18.860
467.37	18.901
467.71	18.954
468.06	19.005
468.41	19.045
468.75	19.059
469.10	19.078
469.44	19.116
469.79	19.181
470.13	19.225
470.48	19.253
470.82	19.311
471.17	19.361
471.51	19.413
471.86	19.386
472.20	19.406
472.55	19.440
472.89	19.461
473.23	19.464
473.58	19.458
473.92	19.472
474.27	19.511
474.61	19.495
474.96	19.460
475.30	19.451
475.65	19.482
475.99	19.495
476.34	19.512
476.68	19.510
477.02	19.530
477.37	19.524
477.71	19.537
478.06	19.533
478.40	19.535
478.75	19.614
479.09	19.685
479.43	19.748
479.78	19.838
480.12	19.934
480.47	20.027
480.81	20.091
481.15	20.171
481.50	20.247
481.84	20.331
482.19	20.413
482.53	20.480
482.87	20.509
483.22	20.542
483.56	20.554
483.90	20.540
484.25	20.536
484.59	20.534
484.94	20.532
485.28	20.513
485.62	20.476
485.97	20.447
486.31	20.402
486.65	20.427
487.00	20.437
487.34	20.445
487.68	20.484
488.03	20.522
488.37	20.566
488.71	20.611
489.06	20.665
489.40	20.711
489.74	20.758
490.09	20.821
490.43	20.826
490.77	20.872
491.11	20.927
491.46	20.977
491.80	21.010
492.14	21.076
492.49	21.111
492.83	21.172
493.17	21.244
493.51	21.348
493.86	21.453
494.20	21.573
494.54	21.665
494.88	21.793
495.23	21.865
495.57	21.944
495.91	22.012
496.25	22.124
496.60	22.210
496.94	22.307
497.28	22.372
497.62	22.460
497.97	22.577
498.31	22.712
498.65	22.783
498.99	22.937
499.33	23.089
499.68	23.239
500.02	23.340
500.36	23.469
500.70	23.639
501.04	23.786
501.39	23.914
501.73	24.053
502.07	24.162
502.41	24.286
502.75	24.378
503.09	24.528
503.44	24.640
503.78	24.808
504.12	24.938
504.46	25.031
504.80	25.162
505.14	25.298
505.49	25.402
505.83	25.512
506.17	25.662
506.51	25.806
506.85	25.895
507.19	26.013
507.53	26.113
507.87	26.236
508.22	26.360
508.56	26.463
508.90	26.529
509.24	26.651
509.58	26.761
509.92	26.856
510.26	26.940
510.60	27.038
510.94	27.116
511.28	27.197
511.63	27.289
511.97	27.374
512.31	27.476
512.65	27.589
512.99	27.657
513.33	27.758
513.67	27.842
514.01	27.941
514.35	28.008
514.69	28.095
515.03	28.186
515.37	28.237
515.71	28.301
516.05	28.360
516.39	28.388
516.73	28.475
517.07	28.518
517.41	28.561
517.75	28.604
518.09	28.693
518.43	28.736
518.77	28.787
519.11	28.828
519.45	28.883
519.79	28.935
520.13	29.038
520.47	29.068
520.81	29.120
521.15	29.179
521.49	29.243
521.83	29.266
522.17	29.348
522.51	29.414
522.85	29.483
523.19	29.570
523.53	29.693
523.87	29.812
524.21	29.974
524.55	30.111
524.89	30.227
525.23	30.310
525.57	30.389
525.91	30.464
526.25	30.557
526.58	30.632
526.92	30.682
527.26	30.702
527.60	30.702
527.94	30.677
528.28	30.645
528.62	30.617
528.96	30.596
529.30	30.576
529.64	30.530
529.97	30.439
530.31	30.383
530.65	30.330
530.99	30.296
531.33	30.272
531.67	30.254
532.01	30.247
532.35	30.246
532.68	30.231
533.02	30.203
533.36	30.174
533.70	30.153
534.04	30.160
534.38	30.142
534.71	30.111
535.05	30.116
535.39	30.059
535.73	30.059
536.07	30.037
536.41	30.039
536.74	30.058
537.08	30.085
537.42	30.121
537.76	30.113
538.10	30.136
538.43	30.203
538.77	30.219
539.11	30.272
539.45	30.267
539.79	30.268
540.12	30.286
540.46	30.274
540.80	30.242
541.14	30.238
541.47	30.208
541.81	30.173
542.15	30.115
542.49	30.065
542.82	30.010
543.16	29.950
543.50	29.925
543.84	29.845
544.17	29.835
544.51	29.834
544.85	29.789
545.18	29.779
545.52	29.789
545.86	29.760
546.20	29.737
546.53	29.733
546.87	29.753
547.21	29.713
547.54	29.729
547.88	29.684
548.22	29.686
548.55	29.692
548.89	29.654
549.23	29.594
549.56	29.567
549.90	29.576
550.24	29.552
550.57	29.533
550.91	29.514
551.25	29.494
551.58	29.489
551.92	29.458
552.26	29.408
552.59	29.437
552.93	29.444
553.27	29.439
553.60	29.383
553.94	29.343
554.27	29.326
554.61	29.275
554.95	29.257
555.28	29.206
555.62	29.164
555.95	29.136
556.29	29.076
556.63	29.023
556.96	28.970
557.30	28.967
557.63	28.927
557.97	28.902
558.31	28.947
558.64	28.880
558.98	28.865
559.31	28.818
559.65	28.793
559.98	28.743
560.32	28.699
560.65	28.675
560.99	28.640
561.33	28.627
561.66	28.589
562.00	28.522
562.33	28.531
562.67	28.478
563.00	28.487
563.34	28.452
563.67	28.427
564.01	28.427
564.34	28.360
564.68	28.306
565.01	28.230
565.35	28.184
565.68	28.138
566.02	28.052
566.35	28.037
566.69	27.970
567.02	27.954
567.36	27.917
567.69	27.848
568.03	27.844
568.36	27.812
568.69	27.790
569.03	27.747
569.36	27.679
569.70	27.671
570.03	27.650
570.37	27.602
570.70	27.530
571.04	27.487
571.37	27.457
571.70	27.403
572.04	27.346
572.37	27.361
572.71	27.326
573.04	27.294
573.37	27.242
573.71	27.150
574.04	27.132
574.38	27.125
574.71	27.067
575.04	27.037
575.38	26.974
575.71	26.941
576.05	26.873
576.38	26.805
576.71	26.769
577.05	26.727
577.38	26.691
577.71	26.630
578.05	26.563
578.38	26.558
578.71	26.494
579.05	26.422
579.38	26.418
579.71	26.314
580.05	26.252
580.38	26.213
580.71	26.133
581.05	26.127
581.38	26.112
581.71	26.028
582.05	25.947
582.38	25.926
582.71	25.938
583.04	25.851
583.38	25.843
583.71	25.846
584.04	25.791
584.38	25.756
584.71	25.704
585.04	25.663
585.37	25.639
585.71	25.598
586.04	25.536
586.37	25.500
586.70	25.465
587.04	25.419
587.37	25.342
587.70	25.318
588.03	25.298
588.37	25.246
588.70	25.160
589.03	25.122
589.36	25.100
589.69	25.052
590.03	24.970
590.36	24.944
590.69	24.882
591.02	24.831
591.35	24.778
591.69	24.744
592.02	24.689
592.35	24.646
592.68	24.653
593.01	24.599
593.35	24.574
593.68	24.567
594.01	24.461
594.34	24.411
594.67	24.382
595.00	24.372
595.34	24.302
595.67	24.268
596.00	24.244
596.33	24.178
596.66	24.130
596.99	24.098
597.32	23.999
597.65	24.008
597.99	23.983
598.32	23.923
598.65	23.868
598.98	23.869
599.31	23.826
599.64	23.766
599.97	23.658
600.30	23.558
600.63	23.460
600.96	23.423
601.30	23.353
601.63	23.360
601.96	23.340
602.29	23.292
602.62	23.215
602.95	23.178
603.28	23.139
603.61	23.144
603.94	23.163
604.27	23.145
604.60	23.153
604.93	23.151
605.26	23.121
605.59	23.055
605.92	23.018
606.25	23.012
606.58	22.976
606.91	22.932
607.24	22.892
607.57	22.827
607.90	22.805
608.23	22.723
608.56	22.681
608.89	22.586
609.22	22.575
609.55	22.510
609.88	22.446
610.21	22.406
610.54	22.379
610.87	22.346
611.20	22.363
611.53	22.308
611.86	22.298
612.19	22.245
612.52	22.181
612.85	22.118
613.18	22.073
613.51	22.037
613.84	21.986
614.17	21.934
614.49	21.889
614.82	21.782
615.15	21.766
615.48	21.749
615.81	21.681
616.14	21.655
616.47	21.635
616.80	21.620
617.13	21.629
617.46	21.561
617.78	21.493
618.11	21.437
618.44	21.398
618.77	21.342
619.10	21.258
619.43	21.230
619.76	21.249
620.09	21.268
620.41	21.198
620.74	21.110
621.07	21.078
621.40	21.087
621.73	21.050
622.06	21.030
622.38	20.995
622.71	21.038
623.04	21.053
623.37	20.954
623.70	20.915
624.02	20.865
624.35	20.798
624.68	20.778
625.01	20.760
625.34	20.737
625.66	20.756
625.99	20.704
626.32	20.645
626.65	20.631
626.98	20.611
627.30	20.548
627.63	20.576
627.96	20.527
628.29	20.475
628.61	20.449
628.94	20.359
629.27	20.295
629.60	20.260
629.92	20.210
630.25	20.117
630.58	20.090
630.91	20.050
631.23	19.963
631.56	19.939
631.89	19.943
632.21	19.891
632.54	19.964
632.87	19.939
633.19	19.963
633.52	19.923
633.85	19.872
634.18	19.854
634.50	19.848
634.83	19.851
635.16	19.847
635.48	19.809
635.81	19.822
636.14	19.710
636.46	19.672
636.79	19.609
637.11	19.575
637.44	19.530
637.77	19.537
638.09	19.496
638.42	19.473
638.75	19.460
639.07	19.428
639.40	19.349
639.73	19.372
640.05	19.328
640.38	19.287
640.70	19.266
641.03	19.208
641.36	19.156
641.68	19.078
642.01	19.046
642.33	19.036
642.66	19.004
642.98	19.003
643.31	18.943
643.64	18.943
643.96	18.935
644.29	18.938
644.61	19.007
644.94	18.966
645.26	18.993
645.59	18.966
645.91	18.921
646.24	18.906
646.56	18.874
646.89	18.852
647.22	18.788
647.54	18.765
647.87	18.669
648.19	18.620
648.52	18.545
648.84	18.520
649.17	18.472
649.49	18.450
649.82	18.455
650.14	18.448
650.47	18.428
650.79	18.440
651.11	18.423
651.44	18.429
651.76	18.423
652.09	18.416
652.41	18.326
652.74	18.327
653.06	18.318
653.39	18.249
653.71	18.247
654.04	18.221
654.36	18.240
654.68	18.223
655.01	18.275
655.33	18.280
655.66	18.320
655.98	18.290
656.30	18.264
656.63	18.235
656.95	18.244
657.28	18.192
657.60	18.129
657.92	18.058
658.25	17.964
658.57	17.848
658.90	17.785
659.22	17.755
659.54	17.757
659.87	17.747
660.19	17.744
660.51	17.692
660.84	17.645
661.16	17.687
661.48	17.707
661.81	17.736
662.13	17.870
662.45	17.854
662.78	17.721
663.10	17.728
663.42	17.715
663.75	17.674
664.07	17.654
664.39	17.660
664.72	17.668
665.04	17.602
665.36	17.652
665.69	17.526
666.01	17.475
666.33	17.588
666.65	17.562
666.98	17.543
667.30	17.590
667.62	17.575
667.94	17.532
668.27	17.516
668.59	17.523
668.91	17.456
669.23	17.438
669.56	17.456
669.88	17.371
670.20	17.286
670.52	17.207
670.85	17.142
671.17	17.094
671.49	17.003
671.81	16.959
672.13	16.943
672.46	17.031
672.78	16.996
673.10	17.071
673.42	17.022
673.74	17.138
674.07	17.222
674.39	17.217
674.71	17.297
675.03	17.361
675.35	17.384
675.67	17.474
676.00	17.397
676.32	17.378
676.64	17.332
676.96	17.351
677.28	17.202
677.60	17.130
677.92	17.151
678.25	17.082
678.57	17.063
678.89	17.006
679.21	16.914
679.53	16.869
679.85	16.906
680.17	16.878
680.49	16.864
680.81	16.975
681.13	16.936
681.46	16.937
681.78	16.946
682.10	16.998
682.42	16.982
682.74	16.989
683.06	17.032
683.38	16.993
683.70	16.976
684.02	16.961
684.34	16.923
684.66	16.963
684.98	16.948
685.30	16.925
685.62	16.909
685.94	16.825
686.26	16.781
686.58	16.769
686.90	16.836
687.22	16.871
687.54	16.968
687.86	16.983
688.18	17.004
688.50	16.939
688.82	16.867
689.14	16.897
689.46	16.938
689.78	16.852
690.10	16.782
690.42	16.652
690.74	16.585
691.06	16.482
691.38	16.431
691.70	16.391
692.02	16.452
692.34	16.454
692.66	16.310
692.98	16.373
693.30	16.425
693.62	16.476
693.94	16.579
694.26	16.574
694.57	16.583
694.89	16.608
695.21	16.603
695.53	16.503
695.85	16.536
696.17	16.648
696.49	16.653
696.81	16.745
697.13	16.748
697.44	16.722
697.76	16.711
698.08	16.726
698.40	16.712
698.72	16.764
699.04	16.835
699.36	16.880
699.67	16.842
699.99	16.824
700.31	16.730
700.63	16.672
700.95	16.720
701.27	16.731
701.58	16.742
701.90	16.735
702.22	16.601
702.54	16.504
702.86	16.481
703.17	16.364
703.49	16.370
703.81	16.329
704.13	16.277
704.45	16.201
704.76	16.186
705.08	16.185
705.40	16.102
705.72	16.078
706.03	16.119
706.35	16.088
706.67	16.083
706.99	15.984
707.30	15.941
707.62	16.101
707.94	16.084
708.26	16.088
708.57	16.041
708.89	16.122
709.21	16.267
709.53	16.272
709.84	16.223
710.16	16.284
710.48	16.304
710.79	16.349
711.11	16.288
711.43	16.233
711.74	16.168
712.06	16.137
712.38	16.144
712.69	15.995
713.01	16.044
713.33	16.091
713.64	16.052
713.96	16.258
714.28	16.232
714.59	16.250
714.91	16.265
715.23	16.345
715.54	16.410
715.86	16.437
716.17	16.562
716.49	16.484
716.81	16.517
717.12	16.573
717.44	16.358
717.76	16.412
718.07	16.281
718.39	16.369
718.70	16.290
719.02	16.290
719.33	16.290
719.65	16.295
719.97	16.344
720.28	16.271
720.60	16.211
720.91	16.228
721.23	16.114
721.54	16.279
721.86	16.232
722.17	16.332
722.49	16.295
722.81	16.255
723.12	16.136
723.44	16.028
723.75	16.060
724.07	15.926
724.38	16.006
724.70	16.047
725.01	15.978
725.33	16.133
725.64	16.069
725.96	15.958
726.27	15.884
726.59	15.953
726.90	16.048
727.22	16.060
727.53	16.224
727.84	16.110
728.16	16.116
728.47	16.114
728.79	15.886
729.10	15.907
729.42	15.995
729.73	16.038
730.05	15.962
730.36	15.934
730.67	15.905
730.99	15.926
731.30	15.939
731.62	16.011
731.93	15.952
732.24	16.158
732.56	16.166
732.87	16.069
733.19	16.031
733.50	16.054
733.81	16.038
734.13	16.055
734.44	16.020
734.76	16.146
735.07	16.054
735.38	16.119
735.70	16.005
736.01	16.089
736.32	16.274
736.64	16.302
736.95	16.325
737.26	16.477
737.58	16.543
737.89	16.594
738.20	16.575
738.52	16.587
738.83	16.497
739.14	16.434
739.45	16.363
739.77	16.291
740.08	16.574
740.39	16.410
740.71	16.257
741.02	16.200
741.33	16.038
741.64	15.892
741.96	16.063
742.27	16.030
742.58	16.199
742.90	16.094
743.21	16.101
743.52	15.849
743.83	16.151
744.14	16.112
744.46	16.162
744.77	16.301
745.08	16.452
745.39	16.414
745.71	16.380
746.02	16.402
746.33	16.441
746.64	16.315
746.95	16.092
747.27	15.885
747.58	15.913
747.89	15.837
748.20	15.787
748.51	15.874
748.82	15.832
749.14	15.905
749.45	15.803
749.76	15.998
750.07	16.136
750.38	16.341
750.69	16.468
751.01	16.599
751.32	16.437
751.63	16.557
751.94	16.347
752.25	16.224
752.56	16.240
752.87	16.177
753.18	15.694
753.49	15.466
753.81	15.184
754.12	15.134
754.43	14.849
754.74	15.070
755.05	14.860
755.36	14.783
755.67	14.829
755.98	15.002
756.29	15.111
756.60	15.197
756.91	15.262
757.22	15.614
757.53	15.623
757.84	15.719
758.15	15.591
758.46	15.775
758.77	15.744
759.09	15.832
759.40	15.687
759.71	15.604
760.02	15.637
760.33	15.772
760.64	15.347
760.95	15.388
761.26	15.476
761.57	15.541
761.88	15.537
762.18	15.638
762.49	15.686
762.80	15.638
763.11	15.541
763.42	15.688
763.73	15.627
764.04	15.933
764.35	15.996
764.66	15.953
764.97	15.883
765.28	15.766
765.59	15.780
765.90	15.626
766.21	15.862
766.52	16.136
766.83	16.130
767.14	16.197
767.44	16.109
767.75	15.880
768.06	16.021
768.37	16.143
768.68	16.192
768.99	16.397
769.30	16.545
769.61	16.442
769.91	16.455
770.22	16.468
770.53	16.584
770.84	16.619
771.15	16.788
771.46	16.546
771.77	16.558
772.07	16.539
772.38	16.360
772.69	16.142
773.00	15.921
773.31	15.560
773.61	15.627
773.92	15.373
774.23	15.519
774.54	15.423
774.85	15.521
775.15	15.416
775.46	15.356
775.77	15.465
776.08	15.817
776.39	16.193
776.69	15.995
777.00	15.950
777.31	16.187
777.62	16.423
777.92	16.241
778.23	16.184
778.54	16.052
778.85	16.198
779.15	15.994
779.46	15.809
779.77	15.225
780.07	15.953
780.38	16.201
780.69	15.808
781.00	15.386
781.30	15.647
781.61	15.625
781.92	15.801
782.22	15.822
782.53	16.302
782.84	16.272
783.14	16.737
783.45	16.194
783.76	16.071
784.06	16.296
784.37	16.283
784.68	16.492
784.98	16.907
785.29	17.231
785.60	17.445
785.90	16.981
786.21	16.961
786.51	16.864
786.82	17.001
787.13	17.055
787.43	17.079
787.74	17.090
788.04	17.152
788.35	17.039
788.66	16.703
788.96	16.663
789.27	16.678
789.57	17.095
789.88	17.102
790.19	17.122
790.49	16.769
790.80	16.660
791.10	16.730
791.41	16.365
791.71	16.281
792.02	16.720
792.32	16.526
792.63	16.446
792.93	16.219
793.24	15.906
793.54	15.686
793.85	15.685
794.15	15.827
794.46	15.994
794.76	15.961
795.07	16.036
795.37	15.899
795.68	15.965
795.98	16.243
796.29	15.879
796.59	15.948
796.90	16.015
797.20	16.290
797.51	16.605
797.81	16.267
798.12	16.126
798.42	15.696
798.72	15.529
799.03	15.498
799.33	15.226
799.64	15.308
799.94	15.286
800.25	15.353
800.55	15.025
800.85	14.411
801.16	14.477
801.46	14.613
801.77	15.199
802.07	15.498
802.37	15.853
802.68	16.249
802.98	16.314
803.28	16.417
803.59	16.326
803.89	16.551
804.20	17.117
804.50	17.484
804.80	17.695
805.11	17.321
805.41	17.519
805.71	16.937
806.02	16.111
806.32	15.904
806.62	15.602
806.93	15.972
807.23	16.245
807.53	16.111
807.83	16.166
808.14	16.241
808.44	16.203
808.74	15.983
809.05	16.328
809.35	16.737
809.65	17.086
809.95	17.781
810.26	18.140
810.56	17.813
810.86	17.218
811.16	16.802
811.47	17.195
811.77	17.826
812.07	17.173
812.37	16.934
812.68	16.980
812.98	16.973
813.28	16.766
813.58	16.383
813.88	16.290
814.19	16.508
814.49	16.311
814.79	15.835
815.09	15.341
815.39	15.801
815.70	16.099
816.00	16.168
816.30	15.541
816.60	15.664
816.90	15.582
817.20	15.862
817.50	15.879
817.81	16.196
818.11	16.079
818.41	15.945
818.71	15.934
819.01	15.685
819.31	15.591
819.61	15.608
819.92	15.613
820.22	15.560
820.52	15.529
820.82	15.478
821.12	15.445
821.42	15.443
821.72	15.446
822.02	15.431
822.32	15.453
822.62	15.544
822.92	15.553
823.22	15.501
823.52	15.586
823.83	15.577
824.13	15.705
824.43	15.657
824.73	15.710
825.03	15.747
825.33	15.704
825.63	15.829
825.93	15.634
826.23	15.694
826.53	15.691
826.83	15.669
827.13	15.640
827.43	15.473
827.73	15.626
828.03	15.668
828.33	15.853
828.63	15.855
828.93	15.625
829.23	15.913
829.53	16.030
829.83	16.174
830.13	15.978
830.42	16.092
830.72	16.359
831.02	16.195
831.32	15.958
831.62	16.023
831.92	15.939
832.22	15.821
832.52	15.892
832.82	16.031
833.12	15.843
833.42	15.994
833.72	15.990
834.01	15.880
834.31	16.271
834.61	16.471
834.91	16.390
835.21	16.769
835.51	17.260
835.81	17.182
836.11	17.220
836.40	18.021
836.70	18.608
837.00	18.934
837.30	19.251
837.60	18.833
837.90	18.676
838.19	18.139
838.49	18.032
838.79	17.384
839.09	17.065
839.39	17.117
839.68	16.383
839.98	15.826
840.28	15.830
840.58	15.895
840.88	15.977
841.17	16.091
841.47	16.782
841.77	17.150
842.07	17.507
842.36	18.594
842.66	19.295
842.96	19.524
843.26	18.607
843.55	18.668
843.85	19.050
844.15	19.011
844.45	19.361
844.74	20.230
845.04	20.706
845.34	21.551
845.63	22.404
845.93	20.806
846.23	20.879
846.53	22.503
846.82	22.505
847.12	20.910
847.42	21.054
847.71	19.969
848.01	18.679
848.31	17.389
848.60	17.993
848.90	15.971
849.19	16.829
849.49	15.302
849.79	13.371
850.08	11.387
850.38	12.389
850.68	12.481
850.97	14.102
851.27	12.048
851.56	11.641
851.86	10.076
852.16	10.873
852.45	10.499
852.75	12.258
853.04	13.566
853.34	14.994
853.64	15.210
853.93	15.646
854.23	15.114
854.52	16.824
854.82	17.395
855.11	18.651
855.41	18.842
855.70	19.783
856.00	19.788
856.30	19.763
856.59	18.840
856.89	18.935
857.18	18.028
857.48	19.190
857.77	19.658
858.07	19.214
858.36	18.418
858.66	18.685
858.95	16.632
859.25	17.073
859.54	16.995
859.84	18.223
860.13	18.104
860.42	17.864
860.72	17.974
861.01	16.552
861.31	15.020
861.60	16.060
861.90	15.027
862.19	16.257
862.49	16.062
862.78	15.929
863.07	15.459
863.37	16.185
863.66	14.930
863.96	14.751
864.25	15.841
864.54	18.076
864.84	17.843
865.13	18.236
865.43	17.420
865.72	23.284
866.01	21.587
866.31	23.295
866.60	18.065
866.89	8.675
>>>>>End Spectral Data<<<<<
