OOIBase32 Version 2.0.0.6 Data File
++++++++++++++++++++++++++++++++++++
Date: 01-20-2012, 22:56:02
User: Valued Ocean Optics Customer
Spectrometer Serial Number: USB2E2917
Spectrometer Channel: Master
Integration Time (msec): 3
Spectra Averaged: 10
Boxcar Smoothing: 5
Correct for Electrical Dark: Enabled
Time Normalized: Disabled
Dual-beam Reference: Disabled
Reference Channel: Master
Temperature: Not acquired
Spectrometer Type: S2000
ADC Type: USB2000
Number of Pixels in File: 2048
Graph Title: 
>>>>>Begin Spectral Data<<<<<
180.30	0.000
180.67	0.000
181.03	403.896
181.40	98.425
181.77	-147.366
182.14	145.218
182.51	3847.653
182.88	20.569
183.25	-7.633
183.62	296.752
183.99	255.174
184.36	25.696
184.73	75.478
185.10	136.431
185.46	-26.465
185.83	311.407
186.20	57.163
186.57	-844.353
186.94	-4586.223
187.31	-139.983
187.68	42.273
188.05	-18.411
188.42	-81.304
188.78	30.632
189.15	-65.238
189.52	-53.417
189.89	10.684
190.26	9.852
190.63	5.528
191.00	16.012
191.37	20.418
191.73	-10.260
192.10	-17.037
192.47	-127.052
192.84	11.080
193.21	-1800.042
193.58	345.883
193.94	249.973
194.31	276.516
194.68	357.434
195.05	785.707
195.42	1133.472
195.79	398.682
196.15	276.142
196.52	312.158
196.89	397.903
197.26	3815.049
197.63	-323.721
198.00	-108.404
198.36	-153.077
198.73	-109.053
199.10	-59.812
199.47	-132.433
199.84	-102.390
200.20	-0.417
200.57	23.463
200.94	21.302
201.31	1.503
201.68	14.365
202.04	1.994
202.41	0.950
202.78	-15.282
203.15	-37.267
203.51	-71.924
203.88	-93.507
204.25	-140.716
204.62	-232.623
204.98	-130.954
205.35	-69.097
205.72	-72.336
206.09	-257.539
206.46	-129.987
206.82	-84.234
207.19	-37.788
207.56	2.510
207.92	-0.923
208.29	2.850
208.66	11.068
209.03	15.621
209.39	-2.354
209.76	-6.302
210.13	7.624
210.50	11.505
210.86	28.091
211.23	30.476
211.60	12.326
211.96	15.935
212.33	18.570
212.70	9.702
213.07	-23.054
213.43	-11.722
213.80	-22.699
214.17	-29.607
214.53	-34.391
214.90	-56.667
215.27	-85.967
215.63	-94.257
216.00	-86.596
216.37	-74.513
216.74	-81.288
217.10	-45.347
217.47	-36.034
217.84	-16.240
218.20	-11.047
218.57	7.401
218.94	15.916
219.30	28.989
219.67	29.353
220.04	31.469
220.40	33.378
220.77	33.576
221.13	31.535
221.50	25.579
221.87	12.964
222.23	17.679
222.60	7.273
222.97	3.550
223.33	-4.787
223.70	-4.215
224.07	-0.529
224.43	-0.051
224.80	-0.531
225.16	-0.899
225.53	1.249
225.90	4.227
226.26	2.274
226.63	3.398
226.99	2.563
227.36	3.137
227.73	4.572
228.09	4.975
228.46	4.173
228.82	5.149
229.19	5.044
229.56	5.040
229.92	3.911
230.29	6.286
230.65	4.696
231.02	5.641
231.38	5.599
231.75	4.937
232.12	5.329
232.48	5.997
232.85	4.725
233.21	4.350
233.58	4.199
233.94	5.240
234.31	3.659
234.68	6.940
235.04	6.444
235.41	6.830
235.77	6.783
236.14	6.955
236.50	6.138
236.87	6.295
237.23	6.634
237.60	6.370
237.96	6.270
238.33	5.433
238.69	4.514
239.06	3.475
239.42	3.875
239.79	3.593
240.15	3.102
240.52	3.477
240.88	3.480
241.25	3.208
241.61	3.504
241.98	3.991
242.34	4.538
242.71	4.340
243.07	4.621
243.44	4.528
243.80	4.741
244.17	4.736
244.53	4.863
244.90	5.150
245.26	5.133
245.63	4.889
245.99	4.870
246.36	4.518
246.72	4.582
247.09	4.680
247.45	4.762
247.81	4.917
248.18	4.962
248.54	4.708
248.91	4.538
249.27	4.709
249.64	4.633
250.00	4.464
250.36	4.899
250.73	4.677
251.09	4.829
251.46	5.090
251.82	5.002
252.19	5.020
252.55	5.291
252.91	5.660
253.28	5.772
253.64	6.319
254.01	6.205
254.37	5.845
254.73	5.447
255.10	5.077
255.46	4.840
255.83	4.851
256.19	4.633
256.55	4.562
256.92	3.909
257.28	3.958
257.65	3.986
258.01	4.084
258.37	4.087
258.74	4.251
259.10	4.201
259.46	4.249
259.83	4.220
260.19	4.374
260.55	4.266
260.92	4.330
261.28	4.221
261.64	4.045
262.01	3.542
262.37	3.531
262.73	3.475
263.10	3.576
263.46	3.208
263.82	3.409
264.19	3.666
264.55	3.966
264.91	4.525
265.28	4.722
265.64	4.847
266.00	5.199
266.37	5.072
266.73	5.361
267.09	5.420
267.46	5.536
267.82	5.190
268.18	4.935
268.54	4.662
268.91	4.504
269.27	4.237
269.63	4.351
270.00	4.151
270.36	4.238
270.72	4.228
271.08	4.332
271.45	4.399
271.81	4.169
272.17	4.186
272.53	4.615
272.90	4.480
273.26	4.494
273.62	4.226
273.98	4.154
274.35	3.913
274.71	3.838
275.07	3.740
275.43	3.516
275.80	3.834
276.16	3.888
276.52	3.699
276.88	3.662
277.25	3.741
277.61	4.070
277.97	4.446
278.33	4.556
278.69	4.220
279.06	4.223
279.42	4.443
279.78	4.432
280.14	4.584
280.50	4.565
280.87	4.594
281.23	4.668
281.59	4.605
281.95	4.569
282.31	4.635
282.68	4.676
283.04	4.769
283.40	4.638
283.76	4.758
284.12	4.650
284.48	4.707
284.85	4.611
285.21	4.367
285.57	4.219
285.93	4.138
286.29	4.124
286.65	4.314
287.02	4.338
287.38	4.411
287.74	4.243
288.10	4.097
288.46	3.941
288.82	3.942
289.18	4.048
289.54	4.213
289.91	4.170
290.27	4.216
290.63	4.068
290.99	3.870
291.35	3.823
291.71	3.883
292.07	4.142
292.43	4.054
292.79	4.250
293.16	4.216
293.52	4.076
293.88	4.120
294.24	4.076
294.60	3.988
294.96	4.111
295.32	4.182
295.68	4.296
296.04	4.168
296.40	4.195
296.76	4.153
297.12	4.172
297.49	4.177
297.85	4.113
298.21	4.070
298.57	4.236
298.93	4.303
299.29	4.334
299.65	4.254
300.01	4.178
300.37	4.164
300.73	4.210
301.09	4.243
301.45	4.437
301.81	4.609
302.17	4.605
302.53	4.673
302.89	4.805
303.25	4.884
303.61	4.794
303.97	4.891
304.33	4.924
304.69	4.870
305.05	4.998
305.41	4.746
305.77	4.458
306.13	4.621
306.49	4.400
306.85	4.202
307.21	4.121
307.57	4.361
307.93	4.369
308.29	4.456
308.65	4.474
309.01	4.363
309.37	4.383
309.73	4.475
310.09	4.443
310.45	4.623
310.81	4.658
311.17	4.616
311.53	4.473
311.89	4.539
312.25	4.470
312.61	4.419
312.96	4.561
313.32	4.675
313.68	4.720
314.04	4.768
314.40	4.680
314.76	4.640
315.12	4.690
315.48	4.757
315.84	4.705
316.20	4.742
316.56	4.826
316.92	4.769
317.27	4.806
317.63	4.840
317.99	4.791
318.35	4.797
318.71	4.942
319.07	5.002
319.43	4.972
319.79	4.998
320.15	4.938
320.50	5.001
320.86	5.014
321.22	4.992
321.58	4.984
321.94	5.134
322.30	5.155
322.66	5.244
323.01	5.229
323.37	5.224
323.73	5.227
324.09	5.386
324.45	5.417
324.81	5.500
325.17	5.583
325.52	5.780
325.88	5.782
326.24	5.848
326.60	5.876
326.96	5.965
327.31	6.091
327.67	6.121
328.03	6.162
328.39	6.263
328.75	6.264
329.11	6.306
329.46	6.282
329.82	6.286
330.18	6.396
330.54	6.348
330.90	6.409
331.25	6.542
331.61	6.698
331.97	6.829
332.33	6.873
332.68	6.981
333.04	7.016
333.40	7.126
333.76	7.065
334.11	7.136
334.47	7.154
334.83	7.235
335.19	7.281
335.54	7.273
335.90	7.289
336.26	7.408
336.62	7.479
336.97	7.523
337.33	7.552
337.69	7.759
338.05	7.716
338.40	7.803
338.76	7.768
339.12	7.692
339.48	7.784
339.83	7.716
340.19	7.617
340.55	7.482
340.90	7.620
341.26	7.592
341.62	7.532
341.97	7.580
342.33	7.615
342.69	7.619
343.04	7.645
343.40	7.576
343.76	7.587
344.12	7.601
344.47	7.792
344.83	7.754
345.19	7.695
345.54	7.753
345.90	7.767
346.26	7.809
346.61	7.884
346.97	7.901
347.32	7.948
347.68	8.014
348.04	8.094
348.39	7.988
348.75	7.933
349.11	7.925
349.46	7.850
349.82	7.767
350.18	7.733
350.53	7.644
350.89	7.677
351.24	7.752
351.60	7.801
351.96	7.712
352.31	7.740
352.67	7.816
353.02	7.929
353.38	8.051
353.74	8.163
354.09	8.218
354.45	8.245
354.80	8.254
355.16	8.189
355.52	8.226
355.87	8.339
356.23	8.351
356.58	8.274
356.94	8.238
357.29	8.243
357.65	8.282
358.00	8.318
358.36	8.339
358.72	8.348
359.07	8.372
359.43	8.339
359.78	8.340
360.14	8.402
360.49	8.536
360.85	8.576
361.20	8.566
361.56	8.502
361.91	8.457
362.27	8.523
362.62	8.566
362.98	8.641
363.33	8.688
363.69	8.706
364.04	8.754
364.40	8.720
364.75	8.818
365.11	8.890
365.46	9.038
365.82	9.129
366.17	9.152
366.53	9.177
366.88	9.146
367.24	9.132
367.59	9.180
367.95	9.153
368.30	9.187
368.66	9.137
369.01	9.133
369.37	9.089
369.72	9.058
370.08	9.083
370.43	9.141
370.78	9.249
371.14	9.330
371.49	9.369
371.85	9.454
372.20	9.496
372.56	9.594
372.91	9.646
373.26	9.735
373.62	9.819
373.97	9.883
374.33	9.904
374.68	9.895
375.03	9.914
375.39	9.926
375.74	9.959
376.10	9.957
376.45	9.980
376.80	10.029
377.16	10.077
377.51	10.120
377.87	10.130
378.22	10.165
378.57	10.243
378.93	10.279
379.28	10.371
379.63	10.477
379.99	10.559
380.34	10.659
380.70	10.758
381.05	10.779
381.40	10.856
381.76	10.955
382.11	11.024
382.46	11.116
382.82	11.229
383.17	11.286
383.52	11.282
383.88	11.386
384.23	11.432
384.58	11.408
384.94	11.487
385.29	11.536
385.64	11.586
385.99	11.689
386.35	11.656
386.70	11.673
387.05	11.707
387.41	11.811
387.76	11.850
388.11	11.906
388.47	12.032
388.82	12.113
389.17	12.138
389.52	12.196
389.88	12.255
390.23	12.371
390.58	12.415
390.93	12.514
391.29	12.576
391.64	12.682
391.99	12.748
392.34	12.807
392.70	12.880
393.05	12.967
393.40	13.022
393.75	13.081
394.11	13.170
394.46	13.226
394.81	13.216
395.16	13.229
395.52	13.203
395.87	13.244
396.22	13.275
396.57	13.292
396.92	13.358
397.28	13.417
397.63	13.428
397.98	13.405
398.33	13.435
398.68	13.484
399.04	13.552
399.39	13.631
399.74	13.637
400.09	13.625
400.44	13.663
400.80	13.690
401.15	13.725
401.50	13.785
401.85	13.866
402.20	13.939
402.55	14.021
402.90	14.064
403.26	14.084
403.61	14.143
403.96	14.219
404.31	14.289
404.66	14.333
405.01	14.375
405.36	14.388
405.72	14.455
406.07	14.515
406.42	14.533
406.77	14.584
407.12	14.672
407.47	14.732
407.82	14.842
408.17	14.860
408.53	14.901
408.88	14.950
409.23	15.030
409.58	15.031
409.93	15.046
410.28	15.094
410.63	15.128
410.98	15.138
411.33	15.180
411.68	15.163
412.03	15.191
412.38	15.229
412.73	15.255
413.09	15.252
413.44	15.285
413.79	15.326
414.14	15.362
414.49	15.366
414.84	15.387
415.19	15.397
415.54	15.422
415.89	15.450
416.24	15.460
416.59	15.494
416.94	15.506
417.29	15.515
417.64	15.518
417.99	15.532
418.34	15.548
418.69	15.580
419.04	15.592
419.39	15.612
419.74	15.614
420.09	15.615
420.44	15.637
420.79	15.658
421.14	15.680
421.49	15.729
421.84	15.747
422.19	15.784
422.54	15.803
422.89	15.848
423.24	15.876
423.59	15.917
423.94	15.989
424.29	16.017
424.64	16.102
424.99	16.121
425.34	16.156
425.68	16.206
426.03	16.255
426.38	16.292
426.73	16.321
427.08	16.347
427.43	16.418
427.78	16.439
428.13	16.459
428.48	16.441
428.83	16.494
429.18	16.528
429.53	16.552
429.87	16.564
430.22	16.598
430.57	16.605
430.92	16.633
431.27	16.633
431.62	16.645
431.97	16.675
432.32	16.697
432.67	16.744
433.01	16.744
433.36	16.775
433.71	16.809
434.06	16.840
434.41	16.845
434.76	16.862
435.11	16.909
435.45	16.924
435.80	16.921
436.15	16.956
436.50	16.940
436.85	16.977
437.20	17.002
437.54	17.021
437.89	17.037
438.24	17.084
438.59	17.101
438.94	17.099
439.29	17.127
439.63	17.151
439.98	17.160
440.33	17.191
440.68	17.192
441.03	17.187
441.37	17.172
441.72	17.168
442.07	17.170
442.42	17.176
442.76	17.169
443.11	17.169
443.46	17.169
443.81	17.181
444.16	17.185
444.50	17.193
444.85	17.181
445.20	17.213
445.55	17.201
445.89	17.237
446.24	17.253
446.59	17.289
446.94	17.308
447.28	17.343
447.63	17.338
447.98	17.363
448.32	17.389
448.67	17.433
449.02	17.444
449.37	17.474
449.71	17.435
450.06	17.454
450.41	17.462
450.75	17.455
451.10	17.443
451.45	17.480
451.79	17.462
452.14	17.469
452.49	17.476
452.84	17.485
453.18	17.491
453.53	17.563
453.88	17.566
454.22	17.587
454.57	17.607
454.92	17.645
455.26	17.655
455.61	17.710
455.95	17.725
456.30	17.765
456.65	17.801
456.99	17.845
457.34	17.838
457.69	17.861
458.03	17.875
458.38	17.921
458.73	17.924
459.07	17.960
459.42	17.979
459.76	18.029
460.11	18.045
460.46	18.075
460.80	18.108
461.15	18.166
461.49	18.215
461.84	18.280
462.19	18.286
462.53	18.355
462.88	18.392
463.22	18.415
463.57	18.440
463.91	18.510
464.26	18.535
464.61	18.571
464.95	18.596
465.30	18.622
465.64	18.624
465.99	18.720
466.33	18.767
466.68	18.804
467.02	18.858
467.37	18.896
467.71	18.898
468.06	18.945
468.41	18.992
468.75	19.026
469.10	19.086
469.44	19.140
469.79	19.152
470.13	19.157
470.48	19.202
470.82	19.230
471.17	19.258
471.51	19.294
471.86	19.325
472.20	19.372
472.55	19.379
472.89	19.367
473.23	19.370
473.58	19.349
473.92	19.373
474.27	19.370
474.61	19.404
474.96	19.374
475.30	19.382
475.65	19.388
475.99	19.368
476.34	19.398
476.68	19.454
477.02	19.495
477.37	19.538
477.71	19.584
478.06	19.634
478.40	19.713
478.75	19.822
479.09	19.961
479.43	20.089
479.78	20.237
480.12	20.371
480.47	20.511
480.81	20.638
481.15	20.780
481.50	20.930
481.84	21.148
482.19	21.337
482.53	21.488
482.87	21.506
483.22	21.384
483.56	21.299
483.90	21.275
484.25	21.229
484.59	21.206
484.94	21.156
485.28	21.067
485.62	20.891
485.97	20.709
486.31	20.577
486.65	20.593
487.00	20.763
487.34	20.903
487.68	20.946
488.03	20.986
488.37	21.014
488.71	21.031
489.06	21.050
489.40	21.077
489.74	21.110
490.09	21.137
490.43	21.119
490.77	21.135
491.11	21.141
491.46	21.163
491.80	21.189
492.14	21.202
492.49	21.231
492.83	21.283
493.17	21.330
493.51	21.363
493.86	21.447
494.20	21.512
494.54	21.581
494.88	21.645
495.23	21.704
495.57	21.764
495.91	21.810
496.25	21.865
496.60	21.928
496.94	22.003
497.28	22.107
497.62	22.145
497.97	22.239
498.31	22.344
498.65	22.416
498.99	22.505
499.33	22.588
499.68	22.719
500.02	22.809
500.36	22.888
500.70	22.957
501.04	23.013
501.39	23.101
501.73	23.174
502.07	23.231
502.41	23.280
502.75	23.363
503.09	23.450
503.44	23.483
503.78	23.596
504.12	23.700
504.46	23.793
504.80	23.857
505.14	23.945
505.49	24.032
505.83	24.149
506.17	24.223
506.51	24.276
506.85	24.359
507.19	24.442
507.53	24.503
507.87	24.580
508.22	24.648
508.56	24.754
508.90	24.837
509.24	24.938
509.58	24.975
509.92	25.095
510.26	25.189
510.60	25.277
510.94	25.347
511.28	25.453
511.63	25.555
511.97	25.628
512.31	25.689
512.65	25.743
512.99	25.815
513.33	25.912
513.67	25.976
514.01	26.070
514.35	26.119
514.69	26.202
515.03	26.244
515.37	26.273
515.71	26.342
516.05	26.421
516.39	26.468
516.73	26.490
517.07	26.522
517.41	26.570
517.75	26.586
518.09	26.657
518.43	26.700
518.77	26.762
519.11	26.807
519.45	26.851
519.79	26.868
520.13	26.927
520.47	27.010
520.81	27.085
521.15	27.163
521.49	27.257
521.83	27.291
522.17	27.341
522.51	27.363
522.85	27.463
523.19	27.607
523.53	27.764
523.87	27.921
524.21	28.081
524.55	28.257
524.89	28.403
525.23	28.548
525.57	28.699
525.91	28.834
526.25	28.968
526.58	29.064
526.92	29.126
527.26	29.172
527.60	29.220
527.94	29.247
528.28	29.240
528.62	29.224
528.96	29.181
529.30	29.142
529.64	29.098
529.97	29.041
530.31	28.996
530.65	28.959
530.99	28.947
531.33	28.921
531.67	28.905
532.01	28.891
532.35	28.897
532.68	28.937
533.02	28.931
533.36	28.942
533.70	28.948
534.04	28.958
534.38	28.961
534.71	28.977
535.05	28.970
535.39	28.987
535.73	29.026
536.07	29.090
536.41	29.105
536.74	29.158
537.08	29.240
537.42	29.330
537.76	29.380
538.10	29.469
538.43	29.526
538.77	29.621
539.11	29.674
539.45	29.721
539.79	29.746
540.12	29.800
540.46	29.847
540.80	29.854
541.14	29.840
541.47	29.854
541.81	29.846
542.15	29.829
542.49	29.811
542.82	29.811
543.16	29.794
543.50	29.806
543.84	29.796
544.17	29.771
544.51	29.763
544.85	29.773
545.18	29.782
545.52	29.766
545.86	29.806
546.20	29.800
546.53	29.799
546.87	29.819
547.21	29.793
547.54	29.784
547.88	29.805
548.22	29.827
548.55	29.867
548.89	29.899
549.23	29.943
549.56	29.928
549.90	29.946
550.24	29.926
550.57	29.971
550.91	30.010
551.25	30.016
551.58	30.031
551.92	30.023
552.26	30.032
552.59	30.035
552.93	30.056
553.27	30.057
553.60	30.105
553.94	30.158
554.27	30.153
554.61	30.172
554.95	30.216
555.28	30.265
555.62	30.276
555.95	30.264
556.29	30.295
556.63	30.291
556.96	30.334
557.30	30.341
557.63	30.333
557.97	30.310
558.31	30.277
558.64	30.278
558.98	30.223
559.31	30.282
559.65	30.318
559.98	30.298
560.32	30.309
560.65	30.338
560.99	30.333
561.33	30.349
561.66	30.375
562.00	30.382
562.33	30.364
562.67	30.391
563.00	30.377
563.34	30.372
563.67	30.398
564.01	30.408
564.34	30.393
564.68	30.383
565.01	30.380
565.35	30.354
565.68	30.369
566.02	30.394
566.35	30.382
566.69	30.379
567.02	30.384
567.36	30.340
567.69	30.315
568.03	30.305
568.36	30.316
568.69	30.295
569.03	30.276
569.36	30.241
569.70	30.209
570.03	30.204
570.37	30.180
570.70	30.165
571.04	30.132
571.37	30.108
571.70	30.082
572.04	30.027
572.37	30.019
572.71	30.019
573.04	30.021
573.37	30.003
573.71	29.964
574.04	29.936
574.38	29.879
574.71	29.886
575.04	29.865
575.38	29.832
575.71	29.846
576.05	29.842
576.38	29.820
576.71	29.769
577.05	29.746
577.38	29.768
577.71	29.780
578.05	29.810
578.38	29.760
578.71	29.746
579.05	29.742
579.38	29.709
579.71	29.647
580.05	29.619
580.38	29.611
580.71	29.605
581.05	29.575
581.38	29.516
581.71	29.465
582.05	29.468
582.38	29.434
582.71	29.367
583.04	29.313
583.38	29.279
583.71	29.245
584.04	29.221
584.38	29.194
584.71	29.138
585.04	29.097
585.37	29.063
585.71	29.056
586.04	29.049
586.37	29.065
586.70	29.047
587.04	29.075
587.37	29.085
587.70	29.071
588.03	29.030
588.37	28.982
588.70	29.020
589.03	29.008
589.36	28.991
589.69	28.951
590.03	28.926
590.36	28.868
590.69	28.790
591.02	28.731
591.35	28.677
591.69	28.629
592.02	28.609
592.35	28.448
592.68	28.390
593.01	28.308
593.35	28.255
593.68	28.155
594.01	28.137
594.34	28.124
594.67	28.094
595.00	28.018
595.34	27.969
595.67	27.926
596.00	27.926
596.33	27.901
596.66	27.891
596.99	27.875
597.32	27.895
597.65	27.856
597.99	27.770
598.32	27.688
598.65	27.666
598.98	27.636
599.31	27.583
599.64	27.523
599.97	27.397
600.30	27.326
600.63	27.222
600.96	27.141
601.30	27.045
601.63	27.019
601.96	27.002
602.29	26.954
602.62	26.884
602.95	26.844
603.28	26.809
603.61	26.822
603.94	26.764
604.27	26.729
604.60	26.672
604.93	26.644
605.26	26.574
605.59	26.508
605.92	26.433
606.25	26.389
606.58	26.335
606.91	26.287
607.24	26.224
607.57	26.210
607.90	26.206
608.23	26.143
608.56	26.136
608.89	26.127
609.22	26.104
609.55	26.106
609.88	26.062
610.21	26.027
610.54	26.010
610.87	25.935
611.20	25.878
611.53	25.838
611.86	25.855
612.19	25.791
612.52	25.722
612.85	25.671
613.18	25.631
613.51	25.614
613.84	25.554
614.17	25.484
614.49	25.469
614.82	25.373
615.15	25.274
615.48	25.195
615.81	25.169
616.14	25.160
616.47	25.055
616.80	24.982
617.13	24.932
617.46	24.921
617.78	24.850
618.11	24.774
618.44	24.752
618.77	24.702
619.10	24.700
619.43	24.617
619.76	24.522
620.09	24.508
620.41	24.499
620.74	24.447
621.07	24.333
621.40	24.268
621.73	24.203
622.06	24.161
622.38	24.095
622.71	24.020
623.04	23.972
623.37	23.937
623.70	23.880
624.02	23.790
624.35	23.752
624.68	23.758
625.01	23.747
625.34	23.758
625.66	23.765
625.99	23.765
626.32	23.741
626.65	23.720
626.98	23.664
627.30	23.628
627.63	23.599
627.96	23.564
628.29	23.525
628.61	23.490
628.94	23.421
629.27	23.318
629.60	23.228
629.92	23.125
630.25	23.054
630.58	23.024
630.91	22.965
631.23	22.921
631.56	22.855
631.89	22.794
632.21	22.720
632.54	22.697
632.87	22.628
633.19	22.625
633.52	22.629
633.85	22.600
634.18	22.542
634.50	22.475
634.83	22.465
635.16	22.457
635.48	22.431
635.81	22.402
636.14	22.348
636.46	22.332
636.79	22.257
637.11	22.200
637.44	22.140
637.77	22.083
638.09	22.072
638.42	22.002
638.75	21.913
639.07	21.857
639.40	21.822
639.73	21.786
640.05	21.727
640.38	21.712
640.70	21.669
641.03	21.692
641.36	21.718
641.68	21.724
642.01	21.679
642.33	21.674
642.66	21.662
642.98	21.637
643.31	21.582
643.64	21.562
643.96	21.536
644.29	21.516
644.61	21.445
644.94	21.387
645.26	21.313
645.59	21.271
645.91	21.254
646.24	21.202
646.56	21.215
646.89	21.163
647.22	21.139
647.54	21.132
647.87	21.080
648.19	21.050
648.52	21.019
648.84	21.009
649.17	21.048
649.49	20.972
649.82	20.945
650.14	20.909
650.47	20.896
650.79	20.865
651.11	20.746
651.44	20.742
651.76	20.725
652.09	20.681
652.41	20.648
652.74	20.575
653.06	20.585
653.39	20.461
653.71	20.368
654.04	20.307
654.36	20.330
654.68	20.388
655.01	20.331
655.33	20.272
655.66	20.256
655.98	20.223
656.30	20.221
656.63	20.178
656.95	20.265
657.28	20.269
657.60	20.367
657.92	20.270
658.25	20.201
658.57	20.217
658.90	20.244
659.22	20.182
659.54	20.179
659.87	20.109
660.19	20.029
660.51	19.931
660.84	19.898
661.16	19.725
661.48	19.734
661.81	19.701
662.13	19.640
662.45	19.572
662.78	19.610
663.10	19.555
663.42	19.548
663.75	19.547
664.07	19.586
664.39	19.559
664.72	19.583
665.04	19.580
665.36	19.554
665.69	19.570
666.01	19.541
666.33	19.451
666.65	19.467
666.98	19.426
667.30	19.406
667.62	19.318
667.94	19.276
668.27	19.237
668.59	19.180
668.91	19.186
669.23	19.135
669.56	19.081
669.88	19.163
670.20	19.139
670.52	19.086
670.85	19.085
671.17	19.130
671.49	19.160
671.81	19.183
672.13	19.206
672.46	19.122
672.78	19.076
673.10	19.053
673.42	18.895
673.74	18.889
674.07	18.899
674.39	18.872
674.71	18.801
675.03	18.755
675.35	18.794
675.67	18.758
676.00	18.798
676.32	18.803
676.64	18.774
676.96	18.852
677.28	18.794
677.60	18.800
677.92	18.813
678.25	18.840
678.57	18.731
678.89	18.657
679.21	18.609
679.53	18.612
679.85	18.600
680.17	18.603
680.49	18.659
680.81	18.610
681.13	18.589
681.46	18.596
681.78	18.583
682.10	18.765
682.42	18.755
682.74	18.780
683.06	18.752
683.38	18.763
683.70	18.793
684.02	18.692
684.34	18.719
684.66	18.751
684.98	18.741
685.30	18.723
685.62	18.619
685.94	18.713
686.26	18.712
686.58	18.706
686.90	18.725
687.22	18.763
687.54	18.800
687.86	18.868
688.18	18.878
688.50	18.876
688.82	18.896
689.14	18.970
689.46	18.824
689.78	18.834
690.10	18.917
690.42	18.899
690.74	18.801
691.06	18.739
691.38	18.613
691.70	18.632
692.02	18.585
692.34	18.554
692.66	18.496
692.98	18.451
693.30	18.448
693.62	18.426
693.94	18.361
694.26	18.364
694.57	18.293
694.89	18.253
695.21	18.130
695.53	18.182
695.85	18.118
696.17	18.147
696.49	18.235
696.81	18.203
697.13	18.140
697.44	18.190
697.76	18.276
698.08	18.346
698.40	18.442
698.72	18.513
699.04	18.476
699.36	18.517
699.67	18.519
699.99	18.423
700.31	18.445
700.63	18.442
700.95	18.316
701.27	18.184
701.58	18.147
701.90	18.097
702.22	18.093
702.54	18.124
702.86	18.114
703.17	17.962
703.49	17.978
703.81	17.994
704.13	17.963
704.45	18.022
704.76	18.031
705.08	18.034
705.40	17.950
705.72	17.913
706.03	17.884
706.35	17.918
706.67	17.863
706.99	17.846
707.30	17.804
707.62	17.830
707.94	17.783
708.26	17.806
708.57	17.769
708.89	17.789
709.21	17.787
709.53	17.718
709.84	17.699
710.16	17.788
710.48	17.852
710.79	17.813
711.11	17.754
711.43	17.747
711.74	17.737
712.06	17.863
712.38	17.937
712.69	17.922
713.01	17.984
713.33	18.064
713.64	18.081
713.96	18.131
714.28	18.088
714.59	18.245
714.91	18.373
715.23	18.374
715.54	18.252
715.86	18.337
716.17	18.423
716.49	18.453
716.81	18.345
717.12	18.434
717.44	18.356
717.76	18.519
718.07	18.552
718.39	18.548
718.70	18.564
719.02	18.605
719.33	18.598
719.65	18.525
719.97	18.429
720.28	18.384
720.60	18.248
720.91	18.248
721.23	18.193
721.54	17.981
721.86	17.880
722.17	17.967
722.49	17.985
722.81	17.994
723.12	18.102
723.44	18.173
723.75	18.183
724.07	18.238
724.38	18.201
724.70	18.160
725.01	18.294
725.33	18.327
725.64	18.239
725.96	18.096
726.27	17.841
726.59	17.711
726.90	17.631
727.22	17.611
727.53	17.644
727.84	17.708
728.16	17.706
728.47	17.600
728.79	17.430
729.10	17.443
729.42	17.616
729.73	17.672
730.05	17.636
730.36	17.661
730.67	17.721
730.99	17.640
731.30	17.522
731.62	17.467
731.93	17.427
732.24	17.503
732.56	17.540
732.87	17.386
733.19	17.387
733.50	17.358
733.81	17.256
734.13	17.332
734.44	17.236
734.76	17.277
735.07	17.251
735.38	17.182
735.70	17.203
736.01	17.184
736.32	17.053
736.64	17.004
736.95	16.869
737.26	16.918
737.58	16.615
737.89	16.621
738.20	16.524
738.52	16.441
738.83	16.507
739.14	16.587
739.45	16.357
739.77	16.588
740.08	16.617
740.39	16.677
740.71	16.659
741.02	16.729
741.33	16.461
741.64	16.511
741.96	16.472
742.27	16.412
742.58	16.230
742.90	16.364
743.21	16.193
743.52	16.215
743.83	16.287
744.14	16.137
744.46	16.058
744.77	16.262
745.08	16.152
745.39	16.210
745.71	16.244
746.02	16.122
746.33	16.085
746.64	16.003
746.95	15.883
747.27	15.887
747.58	15.948
747.89	16.043
748.20	16.148
748.51	16.289
748.82	16.227
749.14	16.188
749.45	16.324
749.76	16.151
750.07	15.998
750.38	15.924
750.69	15.879
751.01	15.898
751.32	15.864
751.63	15.905
751.94	15.923
752.25	16.133
752.56	16.184
752.87	16.133
753.18	16.234
753.49	16.390
753.81	16.365
754.12	16.431
754.43	16.383
754.74	16.299
755.05	16.130
755.36	16.023
755.67	15.899
755.98	15.910
756.29	15.933
756.60	16.155
756.91	16.316
757.22	16.686
757.53	16.785
757.84	17.116
758.15	17.445
758.46	17.820
758.77	17.898
759.09	18.027
759.40	18.027
759.71	18.237
760.02	18.183
760.33	18.166
760.64	18.096
760.95	18.180
761.26	18.097
761.57	18.016
761.88	17.887
762.18	17.823
762.49	17.742
762.80	17.830
763.11	17.636
763.42	17.617
763.73	17.509
764.04	17.389
764.35	17.198
764.66	16.947
764.97	16.748
765.28	16.481
765.59	16.451
765.90	16.271
766.21	15.991
766.52	16.196
766.83	16.082
767.14	15.795
767.44	15.659
767.75	15.487
768.06	15.642
768.37	15.549
768.68	15.677
768.99	15.341
769.30	15.327
769.61	15.299
769.91	14.969
770.22	14.903
770.53	15.135
770.84	15.179
771.15	15.115
771.46	14.852
771.77	14.849
772.07	14.915
772.38	15.174
772.69	14.799
773.00	14.858
773.31	14.974
773.61	15.110
773.92	14.955
774.23	14.725
774.54	14.796
774.85	14.905
775.15	15.164
775.46	14.947
775.77	14.847
776.08	15.253
776.39	15.047
776.69	14.589
777.00	14.121
777.31	14.144
777.62	14.327
777.92	14.176
778.23	13.946
778.54	13.495
778.85	13.332
779.15	13.490
779.46	13.474
779.77	13.714
780.07	14.290
780.38	14.283
780.69	14.706
781.00	14.727
781.30	14.928
781.61	15.178
781.92	15.546
782.22	15.610
782.53	15.530
782.84	15.687
783.14	15.668
783.45	15.354
783.76	15.521
784.06	15.225
784.37	15.275
784.68	15.396
784.98	15.471
785.29	15.516
785.60	15.468
785.90	15.522
786.21	15.398
786.51	15.358
786.82	15.620
787.13	15.865
787.43	16.156
787.74	16.157
788.04	16.118
788.35	15.996
788.66	15.724
788.96	16.070
789.27	16.004
789.57	16.067
789.88	16.293
790.19	15.711
790.49	15.356
790.80	14.966
791.10	14.678
791.41	14.629
791.71	14.701
792.02	14.914
792.32	14.834
792.63	14.920
792.93	15.039
793.24	14.679
793.54	15.003
793.85	15.012
794.15	15.089
794.46	15.308
794.76	15.117
795.07	15.258
795.37	15.436
795.68	15.437
795.98	15.300
796.29	15.162
796.59	15.307
796.90	15.112
797.20	15.601
797.51	15.498
797.81	15.411
798.12	15.768
798.42	15.464
798.72	15.256
799.03	15.285
799.33	15.596
799.64	15.685
799.94	15.897
800.25	16.353
800.55	15.637
800.85	16.063
801.16	16.047
801.46	15.691
801.77	15.757
802.07	15.604
802.37	15.903
802.68	15.738
802.98	15.532
803.28	15.255
803.59	15.040
803.89	15.019
804.20	14.542
804.50	14.752
804.80	14.789
805.11	14.812
805.41	14.723
805.71	14.274
806.02	14.250
806.32	14.189
806.62	14.154
806.93	14.381
807.23	14.730
807.53	14.920
807.83	14.844
808.14	14.773
808.44	14.925
808.74	15.333
809.05	15.265
809.35	15.017
809.65	15.417
809.95	15.175
810.26	14.766
810.56	15.066
810.86	15.188
811.16	15.614
811.47	16.283
811.77	16.110
812.07	16.062
812.37	16.343
812.68	16.739
812.98	16.889
813.28	17.670
813.58	17.910
813.88	17.626
814.19	18.120
814.49	17.997
814.79	17.590
815.09	17.710
815.39	17.319
815.70	17.402
816.00	17.781
816.30	17.832
816.60	17.484
816.90	17.383
817.20	17.243
817.50	16.943
817.81	17.256
818.11	17.444
818.41	17.573
818.71	17.783
819.01	17.843
819.31	17.813
819.61	17.746
819.92	17.777
820.22	17.794
820.52	17.890
820.82	17.922
821.12	17.934
821.42	17.975
821.72	18.037
822.02	18.020
822.32	18.033
822.62	18.024
822.92	18.044
823.22	18.030
823.52	18.121
823.83	18.077
824.13	18.135
824.43	18.093
824.73	18.250
825.03	18.131
825.33	18.253
825.63	18.114
825.93	18.104
826.23	18.062
826.53	18.096
826.83	18.009
827.13	18.176
827.43	18.233
827.73	18.332
828.03	17.986
828.33	17.875
828.63	17.656
828.93	17.619
829.23	17.262
829.53	17.373
829.83	17.472
830.13	17.295
830.42	17.191
830.72	16.691
831.02	16.340
831.32	16.044
831.62	16.283
831.92	16.349
832.22	16.480
832.52	16.854
832.82	16.846
833.12	16.844
833.42	16.974
833.72	16.862
834.01	17.065
834.31	16.960
834.61	17.324
834.91	17.260
835.21	17.048
835.51	17.204
835.81	17.069
836.11	16.821
836.40	16.361
836.70	16.293
837.00	15.949
837.30	15.425
837.60	15.424
837.90	15.124
838.19	15.180
838.49	15.819
838.79	16.173
839.09	15.913
839.39	15.981
839.68	16.167
839.98	16.139
840.28	16.140
840.58	16.898
840.88	16.897
841.17	16.975
841.47	16.693
841.77	17.300
842.07	16.786
842.36	17.553
842.66	17.425
842.96	18.204
843.26	18.003
843.55	18.709
843.85	17.634
844.15	17.953
844.45	17.409
844.74	18.267
845.04	16.871
845.34	16.149
845.63	15.192
845.93	16.642
846.23	16.187
846.53	15.871
846.82	16.179
847.12	16.490
847.42	16.687
847.71	16.718
848.01	16.394
848.31	15.098
848.60	14.227
848.90	15.193
849.19	14.207
849.49	14.176
849.79	14.357
850.08	13.495
850.38	14.358
850.68	14.028
850.97	13.565
851.27	13.196
851.56	14.274
851.86	15.024
852.16	13.708
852.45	13.969
852.75	13.840
853.04	15.100
853.34	14.427
853.64	12.998
853.93	12.566
854.23	13.411
854.52	13.212
854.82	12.857
855.11	12.791
855.41	14.610
855.70	14.060
856.00	14.014
856.30	13.755
856.59	15.049
856.89	14.537
857.18	15.357
857.48	14.186
857.77	15.914
858.07	16.614
858.36	16.827
858.66	14.989
858.95	13.587
859.25	12.129
859.54	11.802
859.84	11.935
860.13	12.336
860.42	10.253
860.72	11.505
861.01	8.993
861.31	7.641
861.60	7.736
861.90	7.203
862.19	8.474
862.49	9.836
862.78	8.505
863.07	7.401
863.37	9.549
863.66	9.984
863.96	10.656
864.25	12.116
864.54	14.133
864.84	14.719
865.13	15.093
865.43	16.313
865.72	12.494
866.01	25.281
866.31	19.204
866.60	9.221
866.89	27.258
>>>>>End Spectral Data<<<<<
