OOIBase32 Version 2.0.0.6 Data File
++++++++++++++++++++++++++++++++++++
Date: 01-20-2012, 23:26:28
User: Valued Ocean Optics Customer
Spectrometer Serial Number: USB2E2917
Spectrometer Channel: Master
Integration Time (msec): 3
Spectra Averaged: 10
Boxcar Smoothing: 5
Correct for Electrical Dark: Enabled
Time Normalized: Disabled
Dual-beam Reference: Disabled
Reference Channel: Master
Temperature: Not acquired
Spectrometer Type: S2000
ADC Type: USB2000
Number of Pixels in File: 2048
Graph Title: 
>>>>>Begin Spectral Data<<<<<
180.30	0.000
180.67	0.000
181.03	558.274
181.40	84.234
181.77	180.453
182.14	202.340
182.51	243.988
182.88	754.230
183.25	-451.122
183.62	111.573
183.99	19.031
184.36	40.219
184.73	212.541
185.10	-138.860
185.46	59.262
185.83	38.622
186.20	161.165
186.57	-27.522
186.94	-288.093
187.31	57.952
187.68	113.488
188.05	52.980
188.42	40.471
188.78	35.361
189.15	46.132
189.52	48.216
189.89	62.150
190.26	67.809
190.63	67.084
191.00	70.862
191.37	62.519
191.73	71.786
192.10	74.647
192.47	76.331
192.84	86.082
193.21	81.220
193.58	65.686
193.94	50.739
194.31	41.424
194.68	34.545
195.05	30.802
195.42	40.206
195.79	35.213
196.15	35.684
196.52	43.638
196.89	49.881
197.26	51.057
197.63	45.934
198.00	45.801
198.36	47.690
198.73	47.465
199.10	39.313
199.47	38.618
199.84	41.365
200.20	33.779
200.57	21.684
200.94	17.366
201.31	16.815
201.68	20.334
202.04	22.996
202.41	19.594
202.78	9.951
203.15	24.747
203.51	24.861
203.88	24.065
204.25	32.382
204.62	47.401
204.98	44.969
205.35	52.512
205.72	57.048
206.09	41.806
206.46	39.598
206.82	46.638
207.19	54.593
207.56	55.743
207.92	37.048
208.29	24.351
208.66	8.422
209.03	-31.205
209.39	-42.539
209.76	-35.661
210.13	-21.571
210.50	-19.639
210.86	-49.897
211.23	-76.654
211.60	-84.161
211.96	-84.462
212.33	-44.543
212.70	-62.680
213.07	-24.290
213.43	-2.064
213.80	-5.839
214.17	9.845
214.53	9.501
214.90	3.043
215.27	6.759
215.63	11.996
216.00	14.902
216.37	17.357
216.74	23.681
217.10	15.910
217.47	3.126
217.84	7.812
218.20	-0.547
218.57	8.120
218.94	13.629
219.30	15.737
219.67	12.754
220.04	14.336
220.40	13.406
220.77	14.665
221.13	11.020
221.50	14.881
221.87	11.936
222.23	11.731
222.60	3.628
222.97	6.729
223.33	10.273
223.70	14.484
224.07	13.305
224.43	10.692
224.80	12.333
225.16	15.825
225.53	15.635
225.90	18.269
226.26	16.845
226.63	18.536
226.99	17.614
227.36	17.376
227.73	17.287
228.09	17.818
228.46	18.877
228.82	16.408
229.19	15.495
229.56	14.682
229.92	12.243
230.29	12.238
230.65	13.802
231.02	15.078
231.38	14.388
231.75	14.723
232.12	15.713
232.48	16.197
232.85	16.709
233.21	16.693
233.58	18.832
233.94	20.907
234.31	22.212
234.68	18.633
235.04	17.785
235.41	16.103
235.77	15.066
236.14	15.948
236.50	15.136
236.87	16.332
237.23	16.561
237.60	15.425
237.96	14.106
238.33	13.189
238.69	14.258
239.06	13.195
239.42	13.442
239.79	13.163
240.15	11.832
240.52	10.917
240.88	10.634
241.25	10.571
241.61	10.664
241.98	10.659
242.34	10.262
242.71	9.398
243.07	9.336
243.44	9.354
243.80	9.329
244.17	8.921
244.53	9.191
244.90	9.248
245.26	9.040
245.63	8.848
245.99	8.688
246.36	8.989
246.72	9.613
247.09	9.747
247.45	9.459
247.81	9.154
248.18	9.147
248.54	9.056
248.91	8.745
249.27	9.197
249.64	9.063
250.00	9.170
250.36	9.033
250.73	7.987
251.09	8.193
251.46	8.692
251.82	9.190
252.19	9.562
252.55	10.177
252.91	11.075
253.28	10.240
253.64	10.495
254.01	10.309
254.37	9.645
254.73	9.835
255.10	8.474
255.46	8.007
255.83	7.680
256.19	8.139
256.55	7.909
256.92	7.602
257.28	7.533
257.65	7.535
258.01	7.597
258.37	7.586
258.74	7.325
259.10	7.679
259.46	7.946
259.83	7.954
260.19	7.874
260.55	7.899
260.92	7.552
261.28	7.797
261.64	7.811
262.01	8.050
262.37	8.316
262.73	8.697
263.10	8.466
263.46	8.375
263.82	8.756
264.19	8.612
264.55	8.515
264.91	8.862
265.28	8.443
265.64	7.979
266.00	7.684
266.37	7.655
266.73	7.741
267.09	7.730
267.46	7.649
267.82	7.476
268.18	7.238
268.54	6.884
268.91	6.809
269.27	7.033
269.63	7.043
270.00	7.169
270.36	7.168
270.72	6.944
271.08	7.143
271.45	6.948
271.81	6.978
272.17	7.361
272.53	7.607
272.90	7.581
273.26	7.795
273.62	8.077
273.98	7.784
274.35	7.831
274.71	8.054
275.07	8.150
275.43	8.230
275.80	8.240
276.16	7.904
276.52	7.929
276.88	8.159
277.25	8.080
277.61	7.789
277.97	7.637
278.33	7.642
278.69	7.510
279.06	7.268
279.42	7.295
279.78	7.323
280.14	7.275
280.50	7.103
280.87	7.038
281.23	6.851
281.59	6.971
281.95	7.218
282.31	6.996
282.68	7.059
283.04	7.308
283.40	7.417
283.76	7.226
284.12	7.217
284.48	7.410
284.85	7.307
285.21	7.283
285.57	7.203
285.93	6.925
286.29	7.251
286.65	7.139
287.02	6.883
287.38	6.730
287.74	6.647
288.10	6.632
288.46	6.513
288.82	6.639
289.18	6.784
289.54	6.971
289.91	7.319
290.27	7.072
290.63	6.964
290.99	7.072
291.35	7.108
291.71	7.291
292.07	7.337
292.43	7.178
292.79	7.071
293.16	6.777
293.52	6.343
293.88	6.091
294.24	6.186
294.60	6.449
294.96	6.345
295.32	6.369
295.68	6.503
296.04	6.554
296.40	6.728
296.76	6.817
297.12	7.002
297.49	7.227
297.85	7.367
298.21	7.441
298.57	7.372
298.93	7.449
299.29	7.548
299.65	7.535
300.01	7.518
300.37	7.373
300.73	7.082
301.09	6.999
301.45	6.924
301.81	6.869
302.17	6.987
302.53	7.094
302.89	7.027
303.25	6.960
303.61	6.816
303.97	6.836
304.33	6.847
304.69	7.072
305.05	6.948
305.41	6.991
305.77	6.907
306.13	6.607
306.49	6.398
306.85	6.462
307.21	6.417
307.57	6.421
307.93	6.343
308.29	6.375
308.65	6.353
309.01	6.470
309.37	6.512
309.73	6.589
310.09	6.588
310.45	6.648
310.81	6.689
311.17	6.807
311.53	6.842
311.89	6.896
312.25	6.905
312.61	6.856
312.96	6.745
313.32	6.687
313.68	6.600
314.04	6.617
314.40	6.681
314.76	6.667
315.12	6.483
315.48	6.481
315.84	6.535
316.20	6.553
316.56	6.662
316.92	6.711
317.27	6.813
317.63	6.939
317.99	6.924
318.35	6.814
318.71	6.750
319.07	6.919
319.43	6.980
319.79	6.948
320.15	6.875
320.50	6.884
320.86	6.900
321.22	6.845
321.58	6.781
321.94	6.866
322.30	7.057
322.66	7.224
323.01	7.106
323.37	7.010
323.73	6.995
324.09	6.975
324.45	6.978
324.81	7.006
325.17	7.058
325.52	7.255
325.88	7.265
326.24	7.095
326.60	7.053
326.96	7.124
327.31	7.253
327.67	7.228
328.03	7.305
328.39	7.192
328.75	7.262
329.11	7.221
329.46	7.092
329.82	7.172
330.18	7.291
330.54	7.218
330.90	7.151
331.25	7.042
331.61	7.127
331.97	7.359
332.33	7.463
332.68	7.424
333.04	7.489
333.40	7.504
333.76	7.552
334.11	7.515
334.47	7.596
334.83	7.597
335.19	7.628
335.54	7.746
335.90	7.578
336.26	7.589
336.62	7.533
336.97	7.607
337.33	7.621
337.69	7.534
338.05	7.514
338.40	7.485
338.76	7.563
339.12	7.597
339.48	7.423
339.83	7.352
340.19	7.284
340.55	7.315
340.90	7.245
341.26	7.282
341.62	7.249
341.97	7.324
342.33	7.269
342.69	7.224
343.04	7.364
343.40	7.386
343.76	7.452
344.12	7.375
344.47	7.449
344.83	7.494
345.19	7.432
345.54	7.434
345.90	7.376
346.26	7.464
346.61	7.496
346.97	7.360
347.32	7.378
347.68	7.414
348.04	7.543
348.39	7.553
348.75	7.474
349.11	7.559
349.46	7.597
349.82	7.709
350.18	7.689
350.53	7.684
350.89	7.677
351.24	7.692
351.60	7.630
351.96	7.558
352.31	7.538
352.67	7.603
353.02	7.609
353.38	7.600
353.74	7.484
354.09	7.496
354.45	7.486
354.80	7.542
355.16	7.524
355.52	7.559
355.87	7.645
356.23	7.631
356.58	7.549
356.94	7.531
357.29	7.548
357.65	7.646
358.00	7.588
358.36	7.639
358.72	7.625
359.07	7.675
359.43	7.624
359.78	7.604
360.14	7.640
360.49	7.710
360.85	7.708
361.20	7.629
361.56	7.615
361.91	7.713
362.27	7.695
362.62	7.694
362.98	7.676
363.33	7.743
363.69	7.720
364.04	7.735
364.40	7.691
364.75	7.656
365.11	7.690
365.46	7.688
365.82	7.615
366.17	7.607
366.53	7.566
366.88	7.556
367.24	7.565
367.59	7.607
367.95	7.599
368.30	7.663
368.66	7.716
369.01	7.787
369.37	7.804
369.72	7.849
370.08	7.878
370.43	7.924
370.78	7.933
371.14	7.951
371.49	7.949
371.85	7.929
372.20	7.968
372.56	7.968
372.91	7.987
373.26	7.991
373.62	8.021
373.97	8.116
374.33	8.109
374.68	8.186
375.03	8.220
375.39	8.194
375.74	8.240
376.10	8.209
376.45	8.218
376.80	8.211
377.16	8.222
377.51	8.236
377.87	8.203
378.22	8.263
378.57	8.224
378.93	8.251
379.28	8.318
379.63	8.313
379.99	8.365
380.34	8.405
380.70	8.455
381.05	8.483
381.40	8.522
381.76	8.583
382.11	8.593
382.46	8.685
382.82	8.656
383.17	8.719
383.52	8.803
383.88	8.820
384.23	8.880
384.58	8.930
384.94	9.012
385.29	9.044
385.64	9.105
385.99	9.138
386.35	9.148
386.70	9.265
387.05	9.320
387.41	9.325
387.76	9.380
388.11	9.392
388.47	9.383
388.82	9.397
389.17	9.454
389.52	9.446
389.88	9.517
390.23	9.585
390.58	9.569
390.93	9.585
391.29	9.626
391.64	9.684
391.99	9.731
392.34	9.792
392.70	9.803
393.05	9.815
393.40	9.855
393.75	9.901
394.11	9.922
394.46	9.983
394.81	10.032
395.16	10.116
395.52	10.112
395.87	10.145
396.22	10.183
396.57	10.190
396.92	10.221
397.28	10.218
397.63	10.234
397.98	10.244
398.33	10.292
398.68	10.376
399.04	10.384
399.39	10.460
399.74	10.503
400.09	10.530
400.44	10.580
400.80	10.618
401.15	10.694
401.50	10.735
401.85	10.805
402.20	10.848
402.55	10.842
402.90	10.879
403.26	10.923
403.61	10.925
403.96	10.968
404.31	11.054
404.66	11.078
405.01	11.130
405.36	11.174
405.72	11.199
406.07	11.241
406.42	11.287
406.77	11.330
407.12	11.344
407.47	11.417
407.82	11.457
408.17	11.470
408.53	11.522
408.88	11.554
409.23	11.602
409.58	11.618
409.93	11.658
410.28	11.697
410.63	11.766
410.98	11.823
411.33	11.862
411.68	11.902
412.03	11.967
412.38	12.046
412.73	12.107
413.09	12.148
413.44	12.224
413.79	12.223
414.14	12.258
414.49	12.272
414.84	12.309
415.19	12.368
415.54	12.394
415.89	12.425
416.24	12.442
416.59	12.467
416.94	12.494
417.29	12.510
417.64	12.565
417.99	12.597
418.34	12.628
418.69	12.674
419.04	12.685
419.39	12.735
419.74	12.759
420.09	12.784
420.44	12.810
420.79	12.852
421.14	12.891
421.49	12.912
421.84	12.934
422.19	12.952
422.54	12.956
422.89	13.026
423.24	13.057
423.59	13.101
423.94	13.165
424.29	13.233
424.64	13.288
424.99	13.348
425.34	13.433
425.68	13.500
426.03	13.606
426.38	13.683
426.73	13.707
427.08	13.775
427.43	13.836
427.78	13.871
428.13	13.907
428.48	13.940
428.83	13.973
429.18	14.002
429.53	14.072
429.87	14.120
430.22	14.163
430.57	14.210
430.92	14.230
431.27	14.291
431.62	14.312
431.97	14.337
432.32	14.371
432.67	14.398
433.01	14.424
433.36	14.428
433.71	14.476
434.06	14.534
434.41	14.558
434.76	14.625
435.11	14.631
435.45	14.714
435.80	14.753
436.15	14.837
436.50	14.893
436.85	14.934
437.20	14.997
437.54	15.020
437.89	15.042
438.24	15.096
438.59	15.149
438.94	15.195
439.29	15.221
439.63	15.273
439.98	15.285
440.33	15.323
440.68	15.376
441.03	15.419
441.37	15.439
441.72	15.462
442.07	15.515
442.42	15.538
442.76	15.589
443.11	15.597
443.46	15.627
443.81	15.648
444.16	15.677
444.50	15.691
444.85	15.722
445.20	15.771
445.55	15.828
445.89	15.849
446.24	15.870
446.59	15.889
446.94	15.932
447.28	15.966
447.63	16.003
447.98	16.071
448.32	16.132
448.67	16.185
449.02	16.225
449.37	16.239
449.71	16.299
450.06	16.361
450.41	16.396
450.75	16.433
451.10	16.468
451.45	16.493
451.79	16.546
452.14	16.543
452.49	16.556
452.84	16.586
453.18	16.641
453.53	16.669
453.88	16.684
454.22	16.733
454.57	16.766
454.92	16.779
455.26	16.798
455.61	16.762
455.95	16.802
456.30	16.835
456.65	16.860
456.99	16.881
457.34	16.865
457.69	16.890
458.03	16.891
458.38	16.910
458.73	16.942
459.07	16.975
459.42	16.989
459.76	17.007
460.11	17.016
460.46	17.030
460.80	17.050
461.15	17.098
461.49	17.127
461.84	17.179
462.19	17.257
462.53	17.284
462.88	17.331
463.22	17.389
463.57	17.413
463.91	17.442
464.26	17.488
464.61	17.503
464.95	17.530
465.30	17.551
465.64	17.561
465.99	17.571
466.33	17.612
466.68	17.631
467.02	17.652
467.37	17.678
467.71	17.714
468.06	17.720
468.41	17.765
468.75	17.792
469.10	17.803
469.44	17.841
469.79	17.848
470.13	17.866
470.48	17.896
470.82	17.923
471.17	17.960
471.51	17.956
471.86	17.982
472.20	17.979
472.55	18.008
472.89	18.041
473.23	18.068
473.58	18.090
473.92	18.109
474.27	18.108
474.61	18.114
474.96	18.127
475.30	18.164
475.65	18.194
475.99	18.212
476.34	18.233
476.68	18.280
477.02	18.269
477.37	18.278
477.71	18.295
478.06	18.336
478.40	18.424
478.75	18.535
479.09	18.630
479.43	18.744
479.78	18.900
480.12	19.001
480.47	19.089
480.81	19.193
481.15	19.288
481.50	19.371
481.84	19.485
482.19	19.555
482.53	19.610
482.87	19.655
483.22	19.684
483.56	19.687
483.90	19.679
484.25	19.671
484.59	19.658
484.94	19.643
485.28	19.621
485.62	19.557
485.97	19.527
486.31	19.504
486.65	19.498
487.00	19.490
487.34	19.484
487.68	19.509
488.03	19.527
488.37	19.548
488.71	19.570
489.06	19.592
489.40	19.614
489.74	19.615
490.09	19.631
490.43	19.640
490.77	19.653
491.11	19.676
491.46	19.698
491.80	19.716
492.14	19.718
492.49	19.723
492.83	19.729
493.17	19.770
493.51	19.824
493.86	19.885
494.20	19.922
494.54	19.942
494.88	19.962
495.23	19.998
495.57	20.049
495.91	20.121
496.25	20.177
496.60	20.239
496.94	20.277
497.28	20.317
497.62	20.364
497.97	20.402
498.31	20.465
498.65	20.547
498.99	20.610
499.33	20.668
499.68	20.728
500.02	20.781
500.36	20.841
500.70	20.923
501.04	20.959
501.39	20.976
501.73	21.034
502.07	21.095
502.41	21.132
502.75	21.199
503.09	21.242
503.44	21.312
503.78	21.377
504.12	21.409
504.46	21.466
504.80	21.562
505.14	21.637
505.49	21.732
505.83	21.796
506.17	21.842
506.51	21.872
506.85	21.928
507.19	21.951
507.53	21.996
507.87	22.073
508.22	22.114
508.56	22.149
508.90	22.184
509.24	22.208
509.58	22.259
509.92	22.338
510.26	22.404
510.60	22.454
510.94	22.531
511.28	22.584
511.63	22.639
511.97	22.693
512.31	22.764
512.65	22.815
512.99	22.905
513.33	22.984
513.67	23.023
514.01	23.091
514.35	23.176
514.69	23.244
515.03	23.291
515.37	23.352
515.71	23.425
516.05	23.476
516.39	23.546
516.73	23.554
517.07	23.599
517.41	23.670
517.75	23.716
518.09	23.742
518.43	23.769
518.77	23.804
519.11	23.858
519.45	23.888
519.79	23.934
520.13	23.981
520.47	24.080
520.81	24.142
521.15	24.203
521.49	24.271
521.83	24.359
522.17	24.436
522.51	24.544
522.85	24.627
523.19	24.734
523.53	24.863
523.87	25.026
524.21	25.194
524.55	25.335
524.89	25.476
525.23	25.621
525.57	25.716
525.91	25.828
526.25	25.917
526.58	26.003
526.92	26.085
527.26	26.144
527.60	26.171
527.94	26.178
528.28	26.205
528.62	26.223
528.96	26.221
529.30	26.255
529.64	26.260
529.97	26.276
530.31	26.297
530.65	26.302
530.99	26.326
531.33	26.367
531.67	26.420
532.01	26.459
532.35	26.495
532.68	26.537
533.02	26.577
533.36	26.625
533.70	26.671
534.04	26.714
534.38	26.771
534.71	26.814
535.05	26.838
535.39	26.875
535.73	26.926
536.07	26.973
536.41	27.051
536.74	27.147
537.08	27.244
537.42	27.329
537.76	27.425
538.10	27.500
538.43	27.620
538.77	27.738
539.11	27.835
539.45	27.911
539.79	27.992
540.12	28.052
540.46	28.074
540.80	28.103
541.14	28.144
541.47	28.177
541.81	28.220
542.15	28.242
542.49	28.279
542.82	28.294
543.16	28.334
543.50	28.346
543.84	28.368
544.17	28.412
544.51	28.479
544.85	28.540
545.18	28.596
545.52	28.652
545.86	28.692
546.20	28.729
546.53	28.790
546.87	28.838
547.21	28.915
547.54	28.996
547.88	29.093
548.22	29.138
548.55	29.203
548.89	29.245
549.23	29.270
549.56	29.339
549.90	29.401
550.24	29.473
550.57	29.515
550.91	29.565
551.25	29.603
551.58	29.649
551.92	29.685
552.26	29.700
552.59	29.751
552.93	29.833
553.27	29.893
553.60	29.948
553.94	30.025
554.27	30.094
554.61	30.161
554.95	30.281
555.28	30.339
555.62	30.421
555.95	30.534
556.29	30.611
556.63	30.686
556.96	30.707
557.30	30.744
557.63	30.777
557.97	30.792
558.31	30.859
558.64	30.869
558.98	30.952
559.31	30.986
559.65	31.022
559.98	31.040
560.32	31.092
560.65	31.161
560.99	31.202
561.33	31.273
561.66	31.368
562.00	31.428
562.33	31.470
562.67	31.512
563.00	31.574
563.34	31.605
563.67	31.643
564.01	31.682
564.34	31.703
564.68	31.770
565.01	31.775
565.35	31.812
565.68	31.837
566.02	31.898
566.35	31.900
566.69	31.936
567.02	31.966
567.36	32.034
567.69	32.092
568.03	32.203
568.36	32.268
568.69	32.335
569.03	32.398
569.36	32.457
569.70	32.481
570.03	32.542
570.37	32.616
570.70	32.695
571.04	32.744
571.37	32.783
571.70	32.799
572.04	32.845
572.37	32.903
572.71	32.917
573.04	32.958
573.37	33.020
573.71	33.086
574.04	33.114
574.38	33.166
574.71	33.223
575.04	33.266
575.38	33.287
575.71	33.294
576.05	33.334
576.38	33.376
576.71	33.399
577.05	33.437
577.38	33.477
577.71	33.515
578.05	33.541
578.38	33.563
578.71	33.587
579.05	33.675
579.38	33.783
579.71	33.812
580.05	33.854
580.38	33.897
580.71	33.914
581.05	33.954
581.38	33.949
581.71	34.016
582.05	34.085
582.38	34.139
582.71	34.168
583.04	34.197
583.38	34.223
583.71	34.297
584.04	34.339
584.38	34.389
584.71	34.393
585.04	34.461
585.37	34.485
585.71	34.520
586.04	34.519
586.37	34.555
586.70	34.597
587.04	34.659
587.37	34.692
587.70	34.735
588.03	34.800
588.37	34.867
588.70	34.939
589.03	34.983
589.36	35.053
589.69	35.145
590.03	35.190
590.36	35.205
590.69	35.245
591.02	35.322
591.35	35.414
591.69	35.425
592.02	35.458
592.35	35.489
592.68	35.546
593.01	35.553
593.35	35.562
593.68	35.574
594.01	35.593
594.34	35.573
594.67	35.572
595.00	35.551
595.34	35.620
595.67	35.663
596.00	35.707
596.33	35.771
596.66	35.810
596.99	35.848
597.32	35.889
597.65	35.948
597.99	36.066
598.32	36.092
598.65	36.173
598.98	36.199
599.31	36.260
599.64	36.280
599.97	36.289
600.30	36.361
600.63	36.407
600.96	36.477
601.30	36.504
601.63	36.538
601.96	36.567
602.29	36.620
602.62	36.674
602.95	36.690
603.28	36.755
603.61	36.754
603.94	36.759
604.27	36.816
604.60	36.858
604.93	36.893
605.26	36.921
605.59	36.991
605.92	37.049
606.25	37.054
606.58	37.116
606.91	37.146
607.24	37.194
607.57	37.238
607.90	37.311
608.23	37.332
608.56	37.385
608.89	37.425
609.22	37.474
609.55	37.488
609.88	37.550
610.21	37.608
610.54	37.692
610.87	37.830
611.20	37.893
611.53	37.894
611.86	37.910
612.19	37.996
612.52	38.055
612.85	38.127
613.18	38.178
613.51	38.238
613.84	38.288
614.17	38.267
614.49	38.299
614.82	38.322
615.15	38.425
615.48	38.505
615.81	38.495
616.14	38.556
616.47	38.620
616.80	38.663
617.13	38.709
617.46	38.764
617.78	38.848
618.11	38.849
618.44	38.926
618.77	38.892
619.10	39.019
619.43	39.095
619.76	39.126
620.09	39.115
620.41	39.160
620.74	39.235
621.07	39.210
621.40	39.267
621.73	39.338
622.06	39.417
622.38	39.531
622.71	39.529
623.04	39.585
623.37	39.603
623.70	39.654
624.02	39.751
624.35	39.731
624.68	39.832
625.01	39.880
625.34	39.965
625.66	40.011
625.99	40.066
626.32	40.127
626.65	40.202
626.98	40.272
627.30	40.326
627.63	40.331
627.96	40.460
628.29	40.510
628.61	40.552
628.94	40.548
629.27	40.555
629.60	40.613
629.92	40.656
630.25	40.703
630.58	40.717
630.91	40.775
631.23	40.845
631.56	40.824
631.89	40.901
632.21	40.928
632.54	41.017
632.87	41.110
633.19	41.082
633.52	41.107
633.85	41.114
634.18	41.196
634.50	41.229
634.83	41.275
635.16	41.380
635.48	41.414
635.81	41.518
636.14	41.511
636.46	41.516
636.79	41.606
637.11	41.688
637.44	41.798
637.77	41.773
638.09	41.865
638.42	41.954
638.75	41.983
639.07	42.004
639.40	42.030
639.73	42.075
640.05	42.115
640.38	42.176
640.70	42.200
641.03	42.226
641.36	42.322
641.68	42.363
642.01	42.335
642.33	42.401
642.66	42.401
642.98	42.475
643.31	42.538
643.64	42.627
643.96	42.685
644.29	42.724
644.61	42.677
644.94	42.816
645.26	42.794
645.59	42.864
645.91	42.882
646.24	42.966
646.56	42.986
646.89	43.053
647.22	43.048
647.54	43.015
647.87	43.114
648.19	43.158
648.52	43.212
648.84	43.363
649.17	43.392
649.49	43.424
649.82	43.458
650.14	43.472
650.47	43.484
650.79	43.536
651.11	43.635
651.44	43.639
651.76	43.718
652.09	43.752
652.41	43.734
652.74	43.806
653.06	43.971
653.39	44.056
653.71	44.091
654.04	44.202
654.36	44.275
654.68	44.266
655.01	44.258
655.33	44.299
655.66	44.240
655.98	44.316
656.30	44.376
656.63	44.337
656.95	44.353
657.28	44.482
657.60	44.486
657.92	44.540
658.25	44.623
658.57	44.751
658.90	44.869
659.22	44.961
659.54	44.908
659.87	44.955
660.19	45.005
660.51	45.093
660.84	45.104
661.16	45.097
661.48	45.124
661.81	45.224
662.13	45.283
662.45	45.271
662.78	45.342
663.10	45.518
663.42	45.547
663.75	45.530
664.07	45.427
664.39	45.522
664.72	45.644
665.04	45.622
665.36	45.622
665.69	45.637
666.01	45.765
666.33	45.816
666.65	45.810
666.98	45.798
667.30	45.829
667.62	46.066
667.94	46.046
668.27	46.020
668.59	46.057
668.91	46.143
669.23	46.192
669.56	46.132
669.88	46.160
670.20	46.143
670.52	46.222
670.85	46.285
671.17	46.157
671.49	46.171
671.81	46.187
672.13	46.345
672.46	46.368
672.78	46.366
673.10	46.373
673.42	46.371
673.74	46.382
674.07	46.387
674.39	46.463
674.71	46.619
675.03	46.625
675.35	46.723
675.67	46.709
676.00	46.768
676.32	46.692
676.64	46.714
676.96	46.785
677.28	46.912
677.60	46.954
677.92	46.965
678.25	46.941
678.57	47.009
678.89	46.988
679.21	47.010
679.53	46.975
679.85	47.071
680.17	47.130
680.49	47.077
680.81	47.090
681.13	47.084
681.46	47.106
681.78	47.144
682.10	47.127
682.42	47.224
682.74	47.289
683.06	47.297
683.38	47.288
683.70	47.369
684.02	47.512
684.34	47.602
684.66	47.706
684.98	47.800
685.30	47.818
685.62	47.856
685.94	47.871
686.26	47.778
686.58	47.837
686.90	47.909
687.22	47.845
687.54	47.820
687.86	47.786
688.18	47.727
688.50	47.702
688.82	47.676
689.14	47.711
689.46	47.716
689.78	47.831
690.10	47.789
690.42	47.850
690.74	47.931
691.06	47.951
691.38	47.921
691.70	47.950
692.02	47.991
692.34	48.007
692.66	48.035
692.98	47.971
693.30	47.985
693.62	48.052
693.94	48.006
694.26	47.978
694.57	48.066
694.89	48.224
695.21	48.332
695.53	48.386
695.85	48.528
696.17	48.563
696.49	48.711
696.81	48.681
697.13	48.770
697.44	48.857
697.76	48.974
698.08	48.994
698.40	48.961
698.72	48.897
699.04	48.868
699.36	48.756
699.67	48.782
699.99	48.706
700.31	48.716
700.63	48.657
700.95	48.687
701.27	48.578
701.58	48.422
701.90	48.351
702.22	48.394
702.54	48.536
702.86	48.563
703.17	48.527
703.49	48.681
703.81	48.764
704.13	48.788
704.45	48.685
704.76	48.784
705.08	48.783
705.40	48.829
705.72	48.862
706.03	48.756
706.35	48.854
706.67	48.913
706.99	48.803
707.30	48.762
707.62	48.787
707.94	48.925
708.26	48.880
708.57	49.015
708.89	49.045
709.21	49.073
709.53	49.074
709.84	49.043
710.16	49.029
710.48	49.010
710.79	49.113
711.11	49.172
711.43	49.093
711.74	49.171
712.06	49.261
712.38	49.214
712.69	49.250
713.01	49.288
713.33	49.361
713.64	49.275
713.96	49.319
714.28	49.318
714.59	49.316
714.91	49.372
715.23	49.376
715.54	49.302
715.86	49.322
716.17	49.366
716.49	49.495
716.81	49.411
717.12	49.440
717.44	49.497
717.76	49.479
718.07	49.468
718.39	49.511
718.70	49.452
719.02	49.530
719.33	49.540
719.65	49.514
719.97	49.343
720.28	49.275
720.60	49.308
720.91	49.375
721.23	49.409
721.54	49.460
721.86	49.385
722.17	49.453
722.49	49.429
722.81	49.479
723.12	49.394
723.44	49.405
723.75	49.516
724.07	49.595
724.38	49.626
724.70	49.623
725.01	49.500
725.33	49.579
725.64	49.550
725.96	49.485
726.27	49.504
726.59	49.517
726.90	49.532
727.22	49.669
727.53	49.770
727.84	49.800
728.16	49.769
728.47	49.828
728.79	49.754
729.10	49.826
729.42	49.860
729.73	49.892
730.05	49.850
730.36	49.802
730.67	49.682
730.99	49.527
731.30	49.489
731.62	49.541
731.93	49.536
732.24	49.525
732.56	49.445
732.87	49.438
733.19	49.293
733.50	49.284
733.81	49.332
734.13	49.270
734.44	49.172
734.76	49.095
735.07	49.141
735.38	49.199
735.70	49.267
736.01	49.330
736.32	49.440
736.64	49.615
736.95	49.735
737.26	49.773
737.58	49.983
737.89	50.195
738.20	50.099
738.52	50.026
738.83	50.009
739.14	49.889
739.45	49.968
739.77	49.811
740.08	49.756
740.39	49.650
740.71	49.644
741.02	49.800
741.33	49.904
741.64	50.015
741.96	50.104
742.27	50.086
742.58	50.175
742.90	49.915
743.21	49.954
743.52	49.954
743.83	49.962
744.14	49.917
744.46	49.692
744.77	49.616
745.08	49.526
745.39	49.381
745.71	49.318
746.02	49.469
746.33	49.606
746.64	49.690
746.95	49.678
747.27	49.825
747.58	49.788
747.89	49.623
748.20	49.459
748.51	49.712
748.82	49.839
749.14	49.856
749.45	49.535
749.76	49.733
750.07	49.582
750.38	49.648
750.69	49.618
751.01	49.619
751.32	49.810
751.63	49.803
751.94	49.486
752.25	49.393
752.56	49.557
752.87	49.584
753.18	49.502
753.49	49.518
753.81	49.399
754.12	49.427
754.43	49.536
754.74	49.341
755.05	49.480
755.36	49.669
755.67	49.698
755.98	49.506
756.29	49.515
756.60	49.348
756.91	49.352
757.22	49.428
757.53	49.527
757.84	49.653
758.15	49.891
758.46	50.011
758.77	49.736
759.09	49.656
759.40	49.484
759.71	49.527
760.02	49.691
760.33	49.793
760.64	49.710
760.95	49.652
761.26	49.535
761.57	49.479
761.88	49.466
762.18	49.586
762.49	49.621
762.80	49.646
763.11	49.686
763.42	49.596
763.73	49.491
764.04	49.591
764.35	49.481
764.66	49.447
764.97	49.394
765.28	48.991
765.59	48.972
765.90	48.909
766.21	48.910
766.52	48.946
766.83	48.728
767.14	48.676
767.44	48.537
767.75	48.571
768.06	48.476
768.37	48.479
768.68	48.745
768.99	48.737
769.30	48.876
769.61	49.087
769.91	48.837
770.22	48.827
770.53	48.772
770.84	48.507
771.15	48.386
771.46	48.199
771.77	48.070
772.07	48.054
772.38	47.810
772.69	47.608
773.00	47.213
773.31	47.382
773.61	47.436
773.92	47.434
774.23	47.630
774.54	47.345
774.85	47.522
775.15	47.398
775.46	47.023
775.77	46.982
776.08	46.733
776.39	46.930
776.69	46.718
777.00	46.876
777.31	47.010
777.62	47.138
777.92	47.214
778.23	46.999
778.54	47.038
778.85	47.220
779.15	47.186
779.46	47.694
779.77	47.693
780.07	47.787
780.38	47.660
780.69	47.622
781.00	47.438
781.30	47.529
781.61	47.570
781.92	47.706
782.22	48.220
782.53	48.249
782.84	48.160
783.14	48.094
783.45	48.373
783.76	48.360
784.06	48.373
784.37	48.485
784.68	48.845
784.98	48.910
785.29	48.692
785.60	48.283
785.90	48.488
786.21	48.331
786.51	48.486
786.82	48.188
787.13	47.975
787.43	47.833
787.74	47.844
788.04	47.481
788.35	47.522
788.66	47.557
788.96	47.292
789.27	47.160
789.57	47.062
789.88	46.937
790.19	46.824
790.49	46.816
790.80	46.770
791.10	46.953
791.41	47.255
791.71	47.223
792.02	47.109
792.32	47.552
792.63	47.477
792.93	47.361
793.24	47.330
793.54	47.654
793.85	47.686
794.15	47.857
794.46	47.431
794.76	46.800
795.07	46.530
795.37	46.474
795.68	46.406
795.98	46.358
796.29	46.599
796.59	46.481
796.90	46.018
797.20	45.928
797.51	45.674
797.81	45.589
798.12	45.933
798.42	45.791
798.72	46.002
799.03	46.032
799.33	46.190
799.64	45.854
799.94	45.906
800.25	45.915
800.55	46.101
800.85	46.075
801.16	46.132
801.46	46.043
801.77	46.264
802.07	46.411
802.37	45.750
802.68	45.491
802.98	45.534
803.28	45.497
803.59	45.446
803.89	45.372
804.20	45.583
804.50	45.548
804.80	45.269
805.11	45.526
805.41	45.122
805.71	45.588
806.02	45.243
806.32	45.246
806.62	45.420
806.93	45.487
807.23	45.695
807.53	45.081
807.83	44.651
808.14	44.562
808.44	44.507
808.74	44.605
809.05	44.300
809.35	44.416
809.65	44.321
809.95	44.292
810.26	44.124
810.56	43.945
810.86	44.362
811.16	44.859
811.47	45.303
811.77	45.048
812.07	45.126
812.37	45.371
812.68	46.216
812.98	46.658
813.28	46.396
813.58	46.626
813.88	46.884
814.19	46.936
814.49	47.039
814.79	47.300
815.09	47.502
815.39	46.984
815.70	46.882
816.00	45.722
816.30	45.494
816.60	45.026
816.90	44.695
817.20	44.027
817.50	44.049
817.81	43.995
818.11	43.635
818.41	43.555
818.71	43.407
819.01	43.285
819.31	43.354
819.61	43.393
819.92	43.496
820.22	43.657
820.52	43.740
820.82	43.723
821.12	43.574
821.42	43.640
821.72	43.486
822.02	43.688
822.32	43.792
822.62	43.889
822.92	43.933
823.22	43.986
823.52	43.851
823.83	43.826
824.13	43.814
824.43	43.868
824.73	43.754
825.03	43.893
825.33	43.651
825.63	43.437
825.93	43.416
826.23	43.240
826.53	43.060
826.83	43.131
827.13	42.956
827.43	42.734
827.73	42.937
828.03	43.036
828.33	43.175
828.63	43.294
828.93	43.408
829.23	43.204
829.53	42.969
829.83	43.042
830.13	42.849
830.42	42.986
830.72	43.313
831.02	43.070
831.32	42.988
831.62	43.076
831.92	42.940
832.22	42.834
832.52	42.706
832.82	42.955
833.12	42.773
833.42	42.734
833.72	42.748
834.01	42.410
834.31	42.410
834.61	42.157
834.91	41.889
835.21	42.040
835.51	41.868
835.81	42.318
836.11	42.136
836.40	41.893
836.70	41.604
837.00	41.354
837.30	41.616
837.60	41.519
837.90	41.921
838.19	42.098
838.49	41.714
838.79	42.466
839.09	41.821
839.39	41.394
839.68	41.601
839.98	42.324
840.28	43.065
840.58	43.197
840.88	42.635
841.17	42.655
841.47	43.138
841.77	42.946
842.07	42.065
842.36	42.029
842.66	42.627
842.96	43.014
843.26	42.338
843.55	42.171
843.85	42.052
844.15	42.720
844.45	41.753
844.74	39.721
845.04	39.376
845.34	40.635
845.63	40.738
845.93	38.911
846.23	37.849
846.53	38.996
846.82	38.520
847.12	38.956
847.42	38.332
847.71	39.372
848.01	40.405
848.31	40.055
848.60	40.379
848.90	41.104
849.19	42.519
849.49	43.834
849.79	42.650
850.08	43.064
850.38	41.162
850.68	41.349
850.97	40.526
851.27	40.645
851.56	41.927
851.86	39.794
852.16	38.090
852.45	37.467
852.75	37.588
853.04	37.993
853.34	37.090
853.64	38.810
853.93	39.901
854.23	40.145
854.52	39.834
854.82	39.718
855.11	41.292
855.41	42.080
855.70	43.474
856.00	43.827
856.30	43.534
856.59	43.607
856.89	42.919
857.18	41.859
857.48	41.565
857.77	41.698
858.07	41.413
858.36	41.875
858.66	41.909
858.95	41.168
859.25	39.756
859.54	39.526
859.84	39.654
860.13	40.108
860.42	41.629
860.72	41.057
861.01	40.349
861.31	39.357
861.60	38.754
861.90	38.904
862.19	38.036
862.49	39.005
862.78	39.639
863.07	38.012
863.37	38.679
863.66	38.170
863.96	38.869
864.25	37.976
864.54	39.505
864.84	40.430
865.13	41.999
865.43	42.342
865.72	24.992
866.01	45.826
866.31	54.523
866.60	56.760
866.89	37.299
>>>>>End Spectral Data<<<<<
