OOIBase32 Version 2.0.0.6 Data File
++++++++++++++++++++++++++++++++++++
Date: 01-19-2012, 17:42:40
User: Valued Ocean Optics Customer
Spectrometer Serial Number: USB2E2917
Spectrometer Channel: Master
Integration Time (msec): 6
Spectra Averaged: 10
Boxcar Smoothing: 5
Correct for Electrical Dark: Enabled
Time Normalized: Disabled
Dual-beam Reference: Disabled
Reference Channel: Master
Temperature: Not acquired
Spectrometer Type: S2000
ADC Type: USB2000
Number of Pixels in File: 2048
Graph Title: 
>>>>>Begin Spectral Data<<<<<
180.30	0.000
180.67	0.000
181.03	46.371
181.40	-12.595
181.77	-0.050
182.14	262.150
182.51	83.174
182.88	210.862
183.25	-39.150
183.62	-68.402
183.99	-411.959
184.36	101.460
184.73	304.829
185.10	149.487
185.46	49.326
185.83	87.176
186.20	-116.840
186.57	45.292
186.94	154.384
187.31	-23.718
187.68	92.701
188.05	48.704
188.42	31.654
188.78	21.025
189.15	10.538
189.52	10.327
189.89	-13.651
190.26	-11.526
190.63	-14.340
191.00	-11.200
191.37	0.335
191.73	-4.484
192.10	-16.420
192.47	-8.317
192.84	4.313
193.21	7.540
193.58	9.135
193.94	19.084
194.31	16.875
194.68	9.245
195.05	-7.147
195.42	-20.757
195.79	-16.393
196.15	18.226
196.52	11.631
196.89	-3.891
197.26	-17.635
197.63	-24.558
198.00	-16.594
198.36	-7.767
198.73	-10.916
199.10	7.482
199.47	15.642
199.84	19.103
200.20	11.869
200.57	4.500
200.94	14.571
201.31	17.942
201.68	21.402
202.04	18.921
202.41	9.617
202.78	12.134
203.15	7.833
203.51	2.605
203.88	-1.420
204.25	5.363
204.62	4.022
204.98	-3.147
205.35	-0.894
205.72	-2.396
206.09	-25.630
206.46	-12.665
206.82	-9.482
207.19	-16.428
207.56	-43.347
207.92	-59.377
208.29	-97.074
208.66	-110.580
209.03	-95.474
209.39	-98.343
209.76	-77.985
210.13	-51.112
210.50	-28.882
210.86	-23.766
211.23	-9.094
211.60	8.882
211.96	16.082
212.33	26.550
212.70	27.455
213.07	25.166
213.43	17.813
213.80	20.621
214.17	16.460
214.53	5.087
214.90	9.513
215.27	6.839
215.63	7.027
216.00	7.296
216.37	-3.167
216.74	0.098
217.10	0.297
217.47	0.535
217.84	-1.766
218.20	2.430
218.57	0.220
218.94	-8.632
219.30	-15.850
219.67	-19.330
220.04	-26.373
220.40	-27.686
220.77	-29.091
221.13	-27.547
221.50	-25.198
221.87	-24.610
222.23	-26.547
222.60	-25.101
222.97	-20.530
223.33	-15.638
223.70	-12.867
224.07	-7.525
224.43	-3.634
224.80	-2.696
225.16	0.587
225.53	3.133
225.90	2.672
226.26	3.625
226.63	2.908
226.99	3.650
227.36	3.400
227.73	2.781
228.09	2.004
228.46	2.584
228.82	3.353
229.19	2.696
229.56	0.652
229.92	0.304
230.29	-1.112
230.65	0.767
231.02	-0.486
231.38	0.496
231.75	0.188
232.12	0.017
232.48	-0.241
232.85	0.520
233.21	-0.809
233.58	-2.574
233.94	-2.872
234.31	-1.382
234.68	-3.671
235.04	-2.005
235.41	-3.451
235.77	-3.511
236.14	-1.664
236.50	-1.198
236.87	-1.517
237.23	-0.202
237.60	1.406
237.96	2.544
238.33	2.989
238.69	3.857
239.06	3.338
239.42	3.746
239.79	3.680
240.15	3.219
240.52	2.557
240.88	2.239
241.25	1.837
241.61	1.962
241.98	1.589
242.34	0.961
242.71	0.839
243.07	0.897
243.44	1.067
243.80	1.556
244.17	1.542
244.53	1.972
244.90	1.841
245.26	2.122
245.63	2.150
245.99	2.050
246.36	2.348
246.72	2.277
247.09	2.290
247.45	2.269
247.81	1.929
248.18	1.960
248.54	1.789
248.91	2.133
249.27	1.937
249.64	1.438
250.00	1.758
250.36	1.640
250.73	1.594
251.09	1.904
251.46	1.855
251.82	2.264
252.19	2.058
252.55	1.830
252.91	1.327
253.28	1.497
253.64	2.141
254.01	2.143
254.37	1.724
254.73	1.774
255.10	1.282
255.46	1.391
255.83	1.157
256.19	1.579
256.55	1.791
256.92	2.036
257.28	1.784
257.65	1.599
258.01	1.672
258.37	1.731
258.74	1.672
259.10	1.805
259.46	1.746
259.83	1.957
260.19	1.985
260.55	2.010
260.92	1.862
261.28	1.864
261.64	2.017
262.01	2.073
262.37	2.227
262.73	2.512
263.10	2.300
263.46	2.123
263.82	1.809
264.19	1.555
264.55	1.631
264.91	1.830
265.28	2.082
265.64	2.323
266.00	1.941
266.37	1.769
266.73	1.736
267.09	1.920
267.46	1.810
267.82	2.073
268.18	2.070
268.54	1.843
268.91	1.828
269.27	1.756
269.63	1.517
270.00	1.871
270.36	2.021
270.72	2.151
271.08	2.173
271.45	2.348
271.81	2.135
272.17	2.279
272.53	2.352
272.90	2.348
273.26	2.279
273.62	2.237
273.98	2.069
274.35	2.009
274.71	1.914
275.07	1.761
275.43	1.615
275.80	1.733
276.16	1.620
276.52	1.889
276.88	1.830
277.25	2.185
277.61	2.462
277.97	2.447
278.33	2.558
278.69	2.405
279.06	2.431
279.42	2.587
279.78	2.424
280.14	2.413
280.50	2.266
280.87	2.433
281.23	2.151
281.59	1.999
281.95	2.020
282.31	1.971
282.68	1.960
283.04	1.812
283.40	1.781
283.76	2.061
284.12	2.182
284.48	2.084
284.85	1.868
285.21	1.789
285.57	1.770
285.93	1.560
286.29	1.328
286.65	1.544
287.02	1.739
287.38	1.727
287.74	1.577
288.10	1.440
288.46	1.635
288.82	1.924
289.18	2.060
289.54	2.174
289.91	2.452
290.27	2.652
290.63	2.534
290.99	2.507
291.35	2.603
291.71	2.535
292.07	2.409
292.43	2.302
292.79	2.034
293.16	1.987
293.52	1.776
293.88	1.663
294.24	1.779
294.60	1.744
294.96	1.667
295.32	1.657
295.68	1.628
296.04	1.806
296.40	1.700
296.76	1.746
297.12	1.757
297.49	1.945
297.85	2.061
298.21	2.034
298.57	1.969
298.93	1.883
299.29	1.777
299.65	1.651
300.01	1.577
300.37	1.727
300.73	1.818
301.09	1.796
301.45	1.707
301.81	1.499
302.17	1.556
302.53	1.478
302.89	1.594
303.25	1.713
303.61	1.888
303.97	1.893
304.33	1.769
304.69	1.707
305.05	1.757
305.41	1.803
305.77	1.962
306.13	1.956
306.49	1.954
306.85	1.930
307.21	1.928
307.57	1.924
307.93	1.961
308.29	1.992
308.65	1.979
309.01	2.036
309.37	2.016
309.73	1.994
310.09	1.983
310.45	2.135
310.81	2.221
311.17	2.248
311.53	2.197
311.89	2.071
312.25	1.943
312.61	2.116
312.96	2.054
313.32	2.166
313.68	2.245
314.04	2.098
314.40	2.133
314.76	2.141
315.12	2.074
315.48	2.097
315.84	2.225
316.20	2.410
316.56	2.371
316.92	2.529
317.27	2.357
317.63	2.267
317.99	2.538
318.35	2.510
318.71	2.443
319.07	2.429
319.43	2.557
319.79	2.487
320.15	2.536
320.50	2.500
320.86	2.372
321.22	2.571
321.58	2.603
321.94	2.477
322.30	2.415
322.66	2.430
323.01	2.441
323.37	2.463
323.73	2.493
324.09	2.354
324.45	2.224
324.81	2.289
325.17	2.133
325.52	2.138
325.88	2.093
326.24	2.133
326.60	2.160
326.96	2.173
327.31	2.129
327.67	2.152
328.03	2.290
328.39	2.409
328.75	2.328
329.11	2.336
329.46	2.350
329.82	2.422
330.18	2.395
330.54	2.411
330.90	2.403
331.25	2.433
331.61	2.522
331.97	2.434
332.33	2.349
332.68	2.333
333.04	2.414
333.40	2.429
333.76	2.515
334.11	2.494
334.47	2.459
334.83	2.504
335.19	2.469
335.54	2.411
335.90	2.446
336.26	2.470
336.62	2.486
336.97	2.483
337.33	2.498
337.69	2.380
338.05	2.409
338.40	2.344
338.76	2.264
339.12	2.337
339.48	2.270
339.83	2.342
340.19	2.359
340.55	2.393
340.90	2.336
341.26	2.346
341.62	2.416
341.97	2.494
342.33	2.526
342.69	2.631
343.04	2.578
343.40	2.624
343.76	2.546
344.12	2.534
344.47	2.434
344.83	2.539
345.19	2.547
345.54	2.547
345.90	2.501
346.26	2.552
346.61	2.571
346.97	2.509
347.32	2.543
347.68	2.578
348.04	2.636
348.39	2.776
348.75	2.676
349.11	2.675
349.46	2.650
349.82	2.663
350.18	2.577
350.53	2.544
350.89	2.560
351.24	2.529
351.60	2.543
351.96	2.479
352.31	2.445
352.67	2.503
353.02	2.493
353.38	2.467
353.74	2.466
354.09	2.605
354.45	2.581
354.80	2.620
355.16	2.682
355.52	2.712
355.87	2.682
356.23	2.677
356.58	2.638
356.94	2.636
357.29	2.690
357.65	2.748
358.00	2.694
358.36	2.737
358.72	2.723
359.07	2.625
359.43	2.584
359.78	2.570
360.14	2.590
360.49	2.626
360.85	2.638
361.20	2.657
361.56	2.608
361.91	2.619
362.27	2.602
362.62	2.631
362.98	2.663
363.33	2.694
363.69	2.758
364.04	2.720
364.40	2.710
364.75	2.701
365.11	2.653
365.46	2.679
365.82	2.713
366.17	2.699
366.53	2.713
366.88	2.743
367.24	2.742
367.59	2.751
367.95	2.847
368.30	2.851
368.66	2.840
369.01	2.819
369.37	2.834
369.72	2.816
370.08	2.807
370.43	2.798
370.78	2.821
371.14	2.811
371.49	2.777
371.85	2.779
372.20	2.779
372.56	2.817
372.91	2.811
373.26	2.792
373.62	2.803
373.97	2.823
374.33	2.857
374.68	2.852
375.03	2.814
375.39	2.825
375.74	2.783
376.10	2.798
376.45	2.764
376.80	2.780
377.16	2.772
377.51	2.761
377.87	2.773
378.22	2.740
378.57	2.709
378.93	2.715
379.28	2.762
379.63	2.762
379.99	2.749
380.34	2.767
380.70	2.765
381.05	2.800
381.40	2.784
381.76	2.787
382.11	2.782
382.46	2.826
382.82	2.853
383.17	2.811
383.52	2.822
383.88	2.865
384.23	2.862
384.58	2.925
384.94	2.888
385.29	2.910
385.64	2.879
385.99	2.894
386.35	2.880
386.70	2.875
387.05	2.890
387.41	2.889
387.76	2.848
388.11	2.844
388.47	2.788
388.82	2.792
389.17	2.794
389.52	2.812
389.88	2.781
390.23	2.778
390.58	2.760
390.93	2.750
391.29	2.730
391.64	2.739
391.99	2.712
392.34	2.721
392.70	2.727
393.05	2.724
393.40	2.710
393.75	2.746
394.11	2.738
394.46	2.760
394.81	2.767
395.16	2.781
395.52	2.804
395.87	2.847
396.22	2.893
396.57	2.948
396.92	2.955
397.28	3.011
397.63	3.030
397.98	3.052
398.33	3.066
398.68	3.092
399.04	3.091
399.39	3.109
399.74	3.082
400.09	3.049
400.44	3.023
400.80	3.010
401.15	2.990
401.50	2.999
401.85	2.994
402.20	2.970
402.55	2.977
402.90	2.979
403.26	2.941
403.61	2.984
403.96	3.000
404.31	3.025
404.66	3.070
405.01	3.085
405.36	3.068
405.72	3.085
406.07	3.126
406.42	3.113
406.77	3.159
407.12	3.214
407.47	3.241
407.82	3.251
408.17	3.229
408.53	3.247
408.88	3.246
409.23	3.245
409.58	3.230
409.93	3.235
410.28	3.244
410.63	3.211
410.98	3.183
411.33	3.179
411.68	3.173
412.03	3.164
412.38	3.139
412.73	3.160
413.09	3.158
413.44	3.169
413.79	3.150
414.14	3.136
414.49	3.130
414.84	3.122
415.19	3.076
415.54	3.061
415.89	3.041
416.24	3.021
416.59	2.981
416.94	2.975
417.29	2.957
417.64	2.952
417.99	2.956
418.34	2.948
418.69	2.964
419.04	2.975
419.39	2.988
419.74	3.006
420.09	3.014
420.44	3.040
420.79	3.058
421.14	3.085
421.49	3.095
421.84	3.105
422.19	3.116
422.54	3.115
422.89	3.142
423.24	3.155
423.59	3.173
423.94	3.210
424.29	3.235
424.64	3.278
424.99	3.289
425.34	3.331
425.68	3.378
426.03	3.442
426.38	3.470
426.73	3.507
427.08	3.532
427.43	3.573
427.78	3.571
428.13	3.587
428.48	3.572
428.83	3.590
429.18	3.589
429.53	3.580
429.87	3.562
430.22	3.576
430.57	3.568
430.92	3.557
431.27	3.568
431.62	3.577
431.97	3.567
432.32	3.582
432.67	3.601
433.01	3.630
433.36	3.652
433.71	3.668
434.06	3.675
434.41	3.710
434.76	3.749
435.11	3.766
435.45	3.763
435.80	3.773
436.15	3.774
436.50	3.766
436.85	3.761
437.20	3.768
437.54	3.771
437.89	3.794
438.24	3.789
438.59	3.798
438.94	3.801
439.29	3.830
439.63	3.863
439.98	3.886
440.33	3.916
440.68	3.933
441.03	3.953
441.37	3.995
441.72	3.998
442.07	4.007
442.42	4.008
442.76	3.999
443.11	4.011
443.46	4.010
443.81	4.008
444.16	4.029
444.50	4.037
444.85	4.050
445.20	4.062
445.55	4.087
445.89	4.113
446.24	4.148
446.59	4.206
446.94	4.233
447.28	4.280
447.63	4.341
447.98	4.387
448.32	4.441
448.67	4.491
449.02	4.523
449.37	4.555
449.71	4.577
450.06	4.603
450.41	4.608
450.75	4.636
451.10	4.660
451.45	4.673
451.79	4.691
452.14	4.708
452.49	4.712
452.84	4.751
453.18	4.778
453.53	4.810
453.88	4.818
454.22	4.838
454.57	4.835
454.92	4.816
455.26	4.790
455.61	4.769
455.95	4.741
456.30	4.731
456.65	4.707
456.99	4.700
457.34	4.697
457.69	4.716
458.03	4.721
458.38	4.746
458.73	4.775
459.07	4.818
459.42	4.857
459.76	4.908
460.11	4.964
460.46	5.027
460.80	5.076
461.15	5.135
461.49	5.182
461.84	5.232
462.19	5.264
462.53	5.306
462.88	5.341
463.22	5.352
463.57	5.379
463.91	5.385
464.26	5.404
464.61	5.430
464.95	5.440
465.30	5.450
465.64	5.477
465.99	5.498
466.33	5.515
466.68	5.546
467.02	5.577
467.37	5.598
467.71	5.623
468.06	5.633
468.41	5.663
468.75	5.688
469.10	5.710
469.44	5.738
469.79	5.784
470.13	5.825
470.48	5.838
470.82	5.868
471.17	5.902
471.51	5.927
471.86	5.951
472.20	5.964
472.55	5.988
472.89	6.027
473.23	6.037
473.58	6.051
473.92	6.052
474.27	6.072
474.61	6.087
474.96	6.097
475.30	6.111
475.65	6.124
475.99	6.138
476.34	6.137
476.68	6.127
477.02	6.135
477.37	6.123
477.71	6.116
478.06	6.094
478.40	6.053
478.75	6.008
479.09	5.980
479.43	6.003
479.78	6.075
480.12	6.160
480.47	6.236
480.81	6.333
481.15	6.432
481.50	6.532
481.84	6.666
482.19	6.817
482.53	6.966
482.87	7.092
483.22	7.145
483.56	7.119
483.90	7.049
484.25	6.963
484.59	6.838
484.94	6.712
485.28	6.572
485.62	6.405
485.97	6.232
486.31	6.068
486.65	5.942
487.00	5.859
487.34	5.818
487.68	5.826
488.03	5.855
488.37	5.900
488.71	5.947
489.06	5.996
489.40	6.045
489.74	6.090
490.09	6.150
490.43	6.201
490.77	6.264
491.11	6.340
491.46	6.392
491.80	6.443
492.14	6.495
492.49	6.547
492.83	6.616
493.17	6.666
493.51	6.736
493.86	6.797
494.20	6.848
494.54	6.890
494.88	6.891
495.23	6.914
495.57	6.933
495.91	6.955
496.25	6.964
496.60	6.976
496.94	7.015
497.28	7.051
497.62	7.101
497.97	7.146
498.31	7.175
498.65	7.229
498.99	7.284
499.33	7.323
499.68	7.358
500.02	7.405
500.36	7.446
500.70	7.499
501.04	7.522
501.39	7.537
501.73	7.559
502.07	7.596
502.41	7.610
502.75	7.614
503.09	7.628
503.44	7.635
503.78	7.648
504.12	7.667
504.46	7.663
504.80	7.666
505.14	7.666
505.49	7.669
505.83	7.667
506.17	7.680
506.51	7.682
506.85	7.683
507.19	7.697
507.53	7.713
507.87	7.726
508.22	7.736
508.56	7.775
508.90	7.802
509.24	7.832
509.58	7.860
509.92	7.893
510.26	7.946
510.60	7.988
510.94	8.025
511.28	8.067
511.63	8.114
511.97	8.172
512.31	8.208
512.65	8.255
512.99	8.280
513.33	8.290
513.67	8.314
514.01	8.318
514.35	8.323
514.69	8.319
515.03	8.308
515.37	8.279
515.71	8.257
516.05	8.244
516.39	8.230
516.73	8.235
517.07	8.266
517.41	8.286
517.75	8.312
518.09	8.371
518.43	8.431
518.77	8.480
519.11	8.556
519.45	8.630
519.79	8.702
520.13	8.773
520.47	8.835
520.81	8.883
521.15	8.916
521.49	8.935
521.83	8.913
522.17	8.905
522.51	8.903
522.85	8.852
523.19	8.794
523.53	8.737
523.87	8.689
524.21	8.666
524.55	8.681
524.89	8.712
525.23	8.769
525.57	8.831
525.91	8.888
526.25	8.957
526.58	9.050
526.92	9.132
527.26	9.192
527.60	9.206
527.94	9.171
528.28	9.077
528.62	8.953
528.96	8.827
529.30	8.788
529.64	8.742
529.97	8.685
530.31	8.624
530.65	8.572
530.99	8.547
531.33	8.571
531.67	8.648
532.01	8.766
532.35	8.916
532.68	9.059
533.02	9.087
533.36	9.127
533.70	9.162
534.04	9.204
534.38	9.246
534.71	9.281
535.05	9.340
535.39	9.395
535.73	9.445
536.07	9.492
536.41	9.505
536.74	9.530
537.08	9.526
537.42	9.509
537.76	9.490
538.10	9.480
538.43	9.466
538.77	9.437
539.11	9.410
539.45	9.391
539.79	9.377
540.12	9.380
540.46	9.392
540.80	9.409
541.14	9.448
541.47	9.486
541.81	9.521
542.15	9.572
542.49	9.626
542.82	9.701
543.16	9.771
543.50	9.841
543.84	9.916
544.17	9.977
544.51	10.050
544.85	10.104
545.18	10.147
545.52	10.211
545.86	10.287
546.20	10.381
546.53	10.451
546.87	10.528
547.21	10.618
547.54	10.706
547.88	10.787
548.22	10.846
548.55	10.924
548.89	11.010
549.23	11.053
549.56	11.077
549.90	11.082
550.24	11.093
550.57	11.097
550.91	11.119
551.25	11.088
551.58	11.114
551.92	11.165
552.26	11.192
552.59	11.216
552.93	11.248
553.27	11.292
553.60	11.345
553.94	11.409
554.27	11.464
554.61	11.506
554.95	11.612
555.28	11.640
555.62	11.648
555.95	11.657
556.29	11.686
556.63	11.713
556.96	11.724
557.30	11.718
557.63	11.727
557.97	11.748
558.31	11.744
558.64	11.735
558.98	11.747
559.31	11.753
559.65	11.774
559.98	11.784
560.32	11.818
560.65	11.832
560.99	11.821
561.33	11.806
561.66	11.780
562.00	11.777
562.33	11.755
562.67	11.732
563.00	11.727
563.34	11.701
563.67	11.662
564.01	11.611
564.34	11.580
564.68	11.570
565.01	11.546
565.35	11.534
565.68	11.541
566.02	11.541
566.35	11.564
566.69	11.547
567.02	11.549
567.36	11.558
567.69	11.561
568.03	11.566
568.36	11.594
568.69	11.598
569.03	11.589
569.36	11.560
569.70	11.548
570.03	11.503
570.37	11.489
570.70	11.480
571.04	11.468
571.37	11.477
571.70	11.493
572.04	11.486
572.37	11.509
572.71	11.553
573.04	11.574
573.37	11.605
573.71	11.667
574.04	11.710
574.38	11.770
574.71	11.824
575.04	11.889
575.38	11.924
575.71	11.995
576.05	12.042
576.38	12.081
576.71	12.169
577.05	12.248
577.38	12.313
577.71	12.392
578.05	12.468
578.38	12.518
578.71	12.551
579.05	12.602
579.38	12.626
579.71	12.662
580.05	12.705
580.38	12.716
580.71	12.722
581.05	12.752
581.38	12.762
581.71	12.752
582.05	12.776
582.38	12.776
582.71	12.795
583.04	12.818
583.38	12.831
583.71	12.837
584.04	12.815
584.38	12.802
584.71	12.761
585.04	12.734
585.37	12.695
585.71	12.663
586.04	12.658
586.37	12.616
586.70	12.558
587.04	12.534
587.37	12.488
587.70	12.480
588.03	12.486
588.37	12.483
588.70	12.519
589.03	12.529
589.36	12.537
589.69	12.540
590.03	12.575
590.36	12.630
590.69	12.646
591.02	12.665
591.35	12.661
591.69	12.651
592.02	12.646
592.35	12.582
592.68	12.558
593.01	12.521
593.35	12.482
593.68	12.429
594.01	12.369
594.34	12.339
594.67	12.321
595.00	12.328
595.34	12.331
595.67	12.326
596.00	12.371
596.33	12.416
596.66	12.477
596.99	12.527
597.32	12.610
597.65	12.686
597.99	12.772
598.32	12.846
598.65	12.903
598.98	12.947
599.31	12.959
599.64	12.934
599.97	12.916
600.30	12.871
600.63	12.838
600.96	12.773
601.30	12.701
601.63	12.632
601.96	12.590
602.29	12.530
602.62	12.499
602.95	12.511
603.28	12.539
603.61	12.570
603.94	12.600
604.27	12.613
604.60	12.652
604.93	12.701
605.26	12.716
605.59	12.725
605.92	12.776
606.25	12.790
606.58	12.824
606.91	12.826
607.24	12.813
607.57	12.820
607.90	12.834
608.23	12.831
608.56	12.847
608.89	12.899
609.22	12.939
609.55	12.988
609.88	13.027
610.21	13.098
610.54	13.190
610.87	13.280
611.20	13.371
611.53	13.456
611.86	13.529
612.19	13.607
612.52	13.656
612.85	13.723
613.18	13.735
613.51	13.792
613.84	13.788
614.17	13.798
614.49	13.812
614.82	13.792
615.15	13.810
615.48	13.811
615.81	13.804
616.14	13.807
616.47	13.798
616.80	13.809
617.13	13.827
617.46	13.833
617.78	13.841
618.11	13.815
618.44	13.861
618.77	13.871
619.10	13.925
619.43	13.967
619.76	14.021
620.09	14.068
620.41	14.068
620.74	14.050
621.07	14.069
621.40	14.052
621.73	14.092
622.06	14.063
622.38	14.039
622.71	14.011
623.04	13.975
623.37	13.901
623.70	13.849
624.02	13.834
624.35	13.813
624.68	13.770
625.01	13.710
625.34	13.667
625.66	13.638
625.99	13.623
626.32	13.639
626.65	13.650
626.98	13.670
627.30	13.727
627.63	13.773
627.96	13.800
628.29	13.850
628.61	13.928
628.94	13.966
629.27	14.043
629.60	14.117
629.92	14.148
630.25	14.193
630.58	14.244
630.91	14.240
631.23	14.233
631.56	14.284
631.89	14.285
632.21	14.318
632.54	14.359
632.87	14.330
633.19	14.345
633.52	14.360
633.85	14.409
634.18	14.430
634.50	14.452
634.83	14.469
635.16	14.486
635.48	14.526
635.81	14.543
636.14	14.582
636.46	14.656
636.79	14.666
637.11	14.668
637.44	14.672
637.77	14.715
638.09	14.757
638.42	14.817
638.75	14.846
639.07	14.854
639.40	14.899
639.73	14.916
640.05	14.905
640.38	14.954
640.70	14.999
641.03	15.007
641.36	15.012
641.68	15.017
642.01	15.050
642.33	15.037
642.66	15.058
642.98	15.052
643.31	15.068
643.64	15.063
643.96	15.031
644.29	15.022
644.61	15.032
644.94	15.005
645.26	14.951
645.59	14.888
645.91	14.852
646.24	14.825
646.56	14.757
646.89	14.706
647.22	14.671
647.54	14.642
647.87	14.618
648.19	14.574
648.52	14.549
648.84	14.585
649.17	14.591
649.49	14.603
649.82	14.631
650.14	14.704
650.47	14.711
650.79	14.759
651.11	14.802
651.44	14.805
651.76	14.836
652.09	14.842
652.41	14.833
652.74	14.880
653.06	14.933
653.39	14.895
653.71	14.855
654.04	14.793
654.36	14.691
654.68	14.590
655.01	14.516
655.33	14.459
655.66	14.424
655.98	14.384
656.30	14.269
656.63	14.170
656.95	14.109
657.28	14.060
657.60	14.069
657.92	14.126
658.25	14.136
658.57	14.190
658.90	14.219
659.22	14.272
659.54	14.293
659.87	14.387
660.19	14.469
660.51	14.561
660.84	14.614
661.16	14.651
661.48	14.709
661.81	14.816
662.13	14.818
662.45	14.815
662.78	14.830
663.10	14.839
663.42	14.841
663.75	14.802
664.07	14.803
664.39	14.799
664.72	14.840
665.04	14.776
665.36	14.730
665.69	14.766
666.01	14.804
666.33	14.818
666.65	14.847
666.98	14.850
667.30	14.871
667.62	14.850
667.94	14.855
668.27	14.844
668.59	14.882
668.91	14.889
669.23	14.908
669.56	14.896
669.88	14.908
670.20	14.890
670.52	14.903
670.85	14.971
671.17	15.074
671.49	15.128
671.81	15.112
672.13	15.159
672.46	15.184
672.78	15.156
673.10	15.189
673.42	15.205
673.74	15.248
674.07	15.238
674.39	15.198
674.71	15.142
675.03	15.065
675.35	15.088
675.67	15.019
676.00	14.980
676.32	14.927
676.64	14.884
676.96	14.779
677.28	14.747
677.60	14.711
677.92	14.726
678.25	14.681
678.57	14.696
678.89	14.626
679.21	14.599
679.53	14.594
679.85	14.640
680.17	14.622
680.49	14.675
680.81	14.703
681.13	14.765
681.46	14.766
681.78	14.850
682.10	14.927
682.42	15.044
682.74	15.182
683.06	15.272
683.38	15.295
683.70	15.396
684.02	15.442
684.34	15.488
684.66	15.525
684.98	15.570
685.30	15.597
685.62	15.667
685.94	15.696
686.26	15.727
686.58	15.806
686.90	15.908
687.22	15.975
687.54	16.072
687.86	16.116
688.18	16.224
688.50	16.378
688.82	16.483
689.14	16.560
689.46	16.721
689.78	16.775
690.10	16.869
690.42	16.985
690.74	17.070
691.06	17.142
691.38	17.251
691.70	17.324
692.02	17.330
692.34	17.399
692.66	17.514
692.98	17.573
693.30	17.701
693.62	17.746
693.94	17.758
694.26	17.828
694.57	17.871
694.89	17.892
695.21	17.919
695.53	17.906
695.85	17.937
696.17	17.915
696.49	17.911
696.81	17.901
697.13	17.885
697.44	17.892
697.76	17.873
698.08	17.921
698.40	18.037
698.72	18.128
699.04	18.272
699.36	18.419
699.67	18.526
699.99	18.721
700.31	18.950
700.63	19.242
700.95	19.545
701.27	19.873
701.58	20.116
701.90	20.302
702.22	20.507
702.54	20.674
702.86	20.711
703.17	20.841
703.49	20.909
703.81	20.959
704.13	21.049
704.45	21.068
704.76	21.125
705.08	21.161
705.40	21.136
705.72	21.090
706.03	21.212
706.35	21.287
706.67	21.357
706.99	21.408
707.30	21.539
707.62	21.496
707.94	21.530
708.26	21.400
708.57	21.443
708.89	21.465
709.21	21.526
709.53	21.476
709.84	21.482
710.16	21.444
710.48	21.419
710.79	21.368
711.11	21.421
711.43	21.457
711.74	21.554
712.06	21.538
712.38	21.612
712.69	21.637
713.01	21.568
713.33	21.579
713.64	21.593
713.96	21.539
714.28	21.502
714.59	21.509
714.91	21.503
715.23	21.520
715.54	21.494
715.86	21.496
716.17	21.503
716.49	21.587
716.81	21.752
717.12	21.904
717.44	22.062
717.76	22.117
718.07	22.191
718.39	22.282
718.70	22.337
719.02	22.531
719.33	22.574
719.65	22.594
719.97	22.693
720.28	22.682
720.60	22.705
720.91	22.797
721.23	22.857
721.54	22.813
721.86	22.887
722.17	22.933
722.49	22.905
722.81	23.000
723.12	23.130
723.44	23.120
723.75	23.083
724.07	23.040
724.38	23.014
724.70	23.090
725.01	23.118
725.33	23.082
725.64	23.114
725.96	23.141
726.27	23.191
726.59	23.203
726.90	23.270
727.22	23.361
727.53	23.429
727.84	23.474
728.16	23.429
728.47	23.526
728.79	23.574
729.10	23.642
729.42	23.708
729.73	23.721
730.05	23.786
730.36	23.895
730.67	23.956
730.99	24.067
731.30	24.138
731.62	24.354
731.93	24.446
732.24	24.563
732.56	24.627
732.87	24.680
733.19	24.792
733.50	24.846
733.81	25.019
734.13	25.192
734.44	25.296
734.76	25.541
735.07	25.613
735.38	25.619
735.70	25.736
736.01	25.900
736.32	25.957
736.64	26.084
736.95	26.104
737.26	26.012
737.58	26.029
737.89	26.192
738.20	26.159
738.52	26.274
738.83	26.513
739.14	26.595
739.45	26.801
739.77	26.968
740.08	27.091
740.39	27.260
740.71	27.472
741.02	27.476
741.33	27.482
741.64	27.549
741.96	27.510
742.27	27.535
742.58	27.669
742.90	27.731
743.21	27.893
743.52	27.873
743.83	27.940
744.14	27.939
744.46	28.215
744.77	28.252
745.08	28.316
745.39	28.229
745.71	28.439
746.02	28.280
746.33	28.169
746.64	28.102
746.95	27.992
747.27	28.023
747.58	27.920
747.89	27.879
748.20	27.976
748.51	27.942
748.82	28.176
749.14	28.110
749.45	28.058
749.76	28.105
750.07	28.064
750.38	28.195
750.69	28.227
751.01	28.423
751.32	28.374
751.63	28.379
751.94	28.392
752.25	28.404
752.56	28.166
752.87	28.506
753.18	28.525
753.49	28.649
753.81	28.644
754.12	28.697
754.43	28.692
754.74	28.501
755.05	28.416
755.36	28.393
755.67	28.182
755.98	28.194
756.29	27.659
756.60	27.272
756.91	26.973
757.22	26.698
757.53	26.511
757.84	26.279
758.15	26.202
758.46	25.884
758.77	25.616
759.09	25.446
759.40	25.250
759.71	25.265
760.02	25.173
760.33	25.113
760.64	25.058
760.95	24.966
761.26	24.937
761.57	24.843
761.88	24.943
762.18	24.975
762.49	24.983
762.80	25.072
763.11	25.167
763.42	25.376
763.73	25.467
764.04	25.675
764.35	25.799
764.66	25.900
764.97	26.262
765.28	26.500
765.59	26.798
765.90	27.262
766.21	27.614
766.52	28.007
766.83	28.281
767.14	28.585
767.44	29.037
767.75	29.302
768.06	29.504
768.37	29.600
768.68	29.757
768.99	29.922
769.30	29.946
769.61	30.066
769.91	30.140
770.22	30.268
770.53	30.484
770.84	30.406
771.15	30.608
771.46	30.822
771.77	31.201
772.07	31.162
772.38	31.253
772.69	31.274
773.00	31.324
773.31	31.250
773.61	31.208
773.92	31.245
774.23	31.219
774.54	31.133
774.85	31.264
775.15	30.963
775.46	30.974
775.77	31.091
776.08	31.303
776.39	31.345
776.69	31.381
777.00	31.558
777.31	31.404
777.62	31.447
777.92	31.529
778.23	31.423
778.54	31.524
778.85	31.602
779.15	31.673
779.46	31.541
779.77	31.603
780.07	31.632
780.38	31.897
780.69	32.227
781.00	32.394
781.30	32.205
781.61	32.385
781.92	32.469
782.22	32.607
782.53	32.415
782.84	32.456
783.14	32.597
783.45	32.732
783.76	32.515
784.06	32.431
784.37	32.195
784.68	32.251
784.98	31.924
785.29	31.752
785.60	31.666
785.90	31.683
786.21	31.556
786.51	31.119
786.82	30.872
787.13	30.566
787.43	30.556
787.74	30.284
788.04	30.234
788.35	30.475
788.66	30.464
788.96	30.510
789.27	30.485
789.57	30.645
789.88	30.949
790.19	31.117
790.49	30.970
790.80	30.822
791.10	31.139
791.41	31.228
791.71	31.272
792.02	31.371
792.32	31.267
792.63	31.466
792.93	31.309
793.24	31.260
793.54	31.274
793.85	31.311
794.15	31.056
794.46	31.155
794.76	31.325
795.07	30.950
795.37	30.715
795.68	30.819
795.98	30.537
796.29	30.740
796.59	30.847
796.90	30.859
797.20	30.827
797.51	31.168
797.81	30.913
798.12	30.703
798.42	30.946
798.72	31.167
799.03	31.074
799.33	31.192
799.64	31.104
799.94	30.978
800.25	30.917
800.55	31.229
800.85	31.023
801.16	31.256
801.46	31.352
801.77	31.498
802.07	31.437
802.37	31.444
802.68	31.435
802.98	31.121
803.28	31.181
803.59	31.284
803.89	31.299
804.20	31.560
804.50	31.514
804.80	31.509
805.11	31.283
805.41	31.444
805.71	31.142
806.02	31.125
806.32	31.820
806.62	31.531
806.93	31.338
807.23	31.462
807.53	31.468
807.83	31.680
808.14	31.500
808.44	31.648
808.74	31.527
809.05	31.702
809.35	31.936
809.65	31.469
809.95	31.779
810.26	32.506
810.56	32.550
810.86	32.709
811.16	32.087
811.47	32.312
811.77	32.356
812.07	32.166
812.37	32.274
812.68	31.927
812.98	31.955
813.28	32.011
813.58	31.463
813.88	31.418
814.19	31.236
814.49	31.549
814.79	31.166
815.09	30.815
815.39	30.878
815.70	31.062
816.00	31.051
816.30	30.971
816.60	30.716
816.90	30.462
817.20	30.189
817.50	29.933
817.81	29.462
818.11	29.222
818.41	28.947
818.71	28.578
819.01	27.946
819.31	27.513
819.61	27.259
819.92	27.066
820.22	26.853
820.52	26.761
820.82	26.592
821.12	26.501
821.42	26.442
821.72	26.317
822.02	26.227
822.32	26.309
822.62	26.433
822.92	26.494
823.22	26.530
823.52	26.620
823.83	26.639
824.13	26.722
824.43	26.795
824.73	26.884
825.03	27.055
825.33	27.287
825.63	27.400
825.93	27.453
826.23	27.527
826.53	27.487
826.83	27.576
827.13	27.780
827.43	27.865
827.73	28.156
828.03	28.228
828.33	28.469
828.63	28.514
828.93	28.688
829.23	28.866
829.53	28.991
829.83	29.404
830.13	29.557
830.42	29.427
830.72	29.566
831.02	29.550
831.32	29.507
831.62	29.230
831.92	28.961
832.22	28.851
832.52	28.824
832.82	28.748
833.12	28.618
833.42	28.546
833.72	28.505
834.01	28.560
834.31	28.463
834.61	28.464
834.91	28.901
835.21	29.332
835.51	29.561
835.81	29.788
836.11	29.903
836.40	30.506
836.70	31.148
837.00	31.667
837.30	32.103
837.60	32.187
837.90	32.688
838.19	32.509
838.49	32.864
838.79	33.057
839.09	33.579
839.39	33.937
839.68	33.797
839.98	34.026
840.28	33.980
840.58	34.137
840.88	34.787
841.17	35.006
841.47	35.704
841.77	35.916
842.07	36.344
842.36	36.662
842.66	37.598
842.96	38.748
843.26	39.657
843.55	40.525
843.85	41.841
844.15	41.457
844.45	42.102
844.74	42.425
845.04	42.832
845.34	43.226
845.63	42.997
845.93	42.925
846.23	42.686
846.53	40.866
846.82	41.166
847.12	40.615
847.42	42.275
847.71	42.482
848.01	41.717
848.31	41.986
848.60	41.928
848.90	41.819
849.19	41.379
849.49	40.188
849.79	41.324
850.08	41.281
850.38	40.092
850.68	40.612
850.97	41.293
851.27	40.880
851.56	41.292
851.86	43.355
852.16	44.105
852.45	44.132
852.75	44.686
853.04	44.581
853.34	45.769
853.64	46.783
853.93	46.779
854.23	45.475
854.52	45.979
854.82	45.077
855.11	43.025
855.41	42.348
855.70	43.114
856.00	44.353
856.30	45.578
856.59	43.621
856.89	41.771
857.18	39.718
857.48	41.375
857.77	41.105
858.07	41.619
858.36	42.053
858.66	41.561
858.95	42.194
859.25	41.428
859.54	40.708
859.84	41.720
860.13	42.908
860.42	43.976
860.72	42.513
861.01	43.070
861.31	42.925
861.60	43.166
861.90	43.416
862.19	42.374
862.49	42.319
862.78	42.451
863.07	42.736
863.37	42.039
863.66	41.850
863.96	41.966
864.25	39.893
864.54	41.164
864.84	40.225
865.13	41.129
865.43	42.034
865.72	20.906
866.01	55.957
866.31	39.154
866.60	49.558
866.89	51.128
>>>>>End Spectral Data<<<<<
