OOIBase32 Version 2.0.0.6 Data File
++++++++++++++++++++++++++++++++++++
Date: 01-19-2012, 17:22:59
User: Valued Ocean Optics Customer
Spectrometer Serial Number: USB2E2917
Spectrometer Channel: Master
Integration Time (msec): 6
Spectra Averaged: 10
Boxcar Smoothing: 5
Correct for Electrical Dark: Enabled
Time Normalized: Disabled
Dual-beam Reference: Disabled
Reference Channel: Master
Temperature: Not acquired
Spectrometer Type: S2000
ADC Type: USB2000
Number of Pixels in File: 2048
Graph Title: 
>>>>>Begin Spectral Data<<<<<
180.30	0.000
180.67	0.000
181.03	69.981
181.40	101.672
181.77	41.130
182.14	-167.744
182.51	-4.814
182.88	262.301
183.25	171.140
183.62	133.904
183.99	478.013
184.36	92.226
184.73	96.975
185.10	149.858
185.46	90.694
185.83	52.749
186.20	-23.087
186.57	-100.159
186.94	102.003
187.31	36.401
187.68	59.686
188.05	74.597
188.42	64.229
188.78	66.569
189.15	78.944
189.52	71.565
189.89	60.963
190.26	51.055
190.63	48.111
191.00	53.574
191.37	47.739
191.73	43.253
192.10	36.025
192.47	32.937
192.84	30.036
193.21	24.820
193.58	12.034
193.94	28.806
194.31	25.188
194.68	15.275
195.05	-9.118
195.42	-16.979
195.79	-14.686
196.15	11.638
196.52	15.864
196.89	22.497
197.26	5.813
197.63	12.043
198.00	4.338
198.36	6.309
198.73	-4.435
199.10	2.176
199.47	8.475
199.84	1.565
200.20	-10.043
200.57	-29.200
200.94	-9.173
201.31	-0.855
201.68	-3.410
202.04	-13.808
202.41	-10.692
202.78	-9.742
203.15	-3.487
203.51	8.959
203.88	19.047
204.25	23.165
204.62	32.815
204.98	14.230
205.35	12.269
205.72	12.605
206.09	27.528
206.46	32.577
206.82	33.671
207.19	29.101
207.56	4.984
207.92	14.092
208.29	-11.998
208.66	-14.499
209.03	-7.340
209.39	-9.035
209.76	5.723
210.13	0.409
210.50	5.272
210.86	9.673
211.23	12.281
211.60	14.320
211.96	10.680
212.33	16.239
212.70	15.614
213.07	14.644
213.43	18.127
213.80	8.652
214.17	18.168
214.53	16.286
214.90	16.892
215.27	17.343
215.63	20.302
216.00	11.936
216.37	14.401
216.74	15.035
217.10	14.983
217.47	11.956
217.84	18.058
218.20	17.372
218.57	10.065
218.94	0.522
219.30	-2.557
219.67	-3.273
220.04	-6.874
220.40	-4.022
220.77	-6.796
221.13	-8.935
221.50	-11.999
221.87	-11.031
222.23	-12.719
222.60	-7.302
222.97	-1.837
223.33	1.354
223.70	2.810
224.07	4.434
224.43	4.328
224.80	5.395
225.16	9.367
225.53	11.255
225.90	10.031
226.26	9.944
226.63	7.968
226.99	8.141
227.36	8.113
227.73	7.683
228.09	7.627
228.46	7.114
228.82	7.498
229.19	5.718
229.56	5.220
229.92	4.442
230.29	5.114
230.65	6.056
231.02	4.598
231.38	3.878
231.75	3.916
232.12	4.208
232.48	4.941
232.85	6.009
233.21	7.446
233.58	6.014
233.94	6.860
234.31	5.422
234.68	3.743
235.04	5.831
235.41	5.958
235.77	5.195
236.14	5.646
236.50	5.971
236.87	4.918
237.23	4.844
237.60	5.413
237.96	5.906
238.33	6.145
238.69	7.157
239.06	6.125
239.42	5.674
239.79	5.545
240.15	5.715
240.52	5.513
240.88	5.367
241.25	5.689
241.61	5.836
241.98	5.352
242.34	5.092
242.71	4.919
243.07	5.155
243.44	5.424
243.80	5.618
244.17	5.397
244.53	5.296
244.90	5.057
245.26	4.736
245.63	4.569
245.99	4.550
246.36	4.894
246.72	4.780
247.09	4.922
247.45	5.074
247.81	5.156
248.18	5.069
248.54	4.909
248.91	5.228
249.27	5.098
249.64	5.231
250.00	5.688
250.36	5.423
250.73	5.531
251.09	5.404
251.46	5.239
251.82	5.181
252.19	5.449
252.55	5.807
252.91	5.675
253.28	6.193
253.64	6.431
254.01	6.309
254.37	6.273
254.73	6.550
255.10	6.231
255.46	5.960
255.83	5.639
256.19	5.632
256.55	5.603
256.92	5.458
257.28	5.179
257.65	5.042
258.01	5.019
258.37	5.082
258.74	5.011
259.10	4.997
259.46	5.098
259.83	5.290
260.19	5.153
260.55	4.979
260.92	5.065
261.28	5.224
261.64	5.398
262.01	5.541
262.37	5.556
262.73	5.616
263.10	5.611
263.46	5.466
263.82	5.207
264.19	5.186
264.55	5.352
264.91	5.359
265.28	5.557
265.64	5.502
266.00	5.364
266.37	5.200
266.73	4.944
267.09	5.179
267.46	5.036
267.82	5.171
268.18	5.088
268.54	4.927
268.91	4.979
269.27	4.787
269.63	4.477
270.00	4.391
270.36	4.270
270.72	4.314
271.08	4.093
271.45	4.152
271.81	4.124
272.17	4.465
272.53	4.651
272.90	4.569
273.26	4.451
273.62	4.585
273.98	4.608
274.35	4.645
274.71	4.811
275.07	4.894
275.43	4.659
275.80	4.518
276.16	4.304
276.52	4.268
276.88	4.315
277.25	4.407
277.61	4.483
277.97	4.551
278.33	4.631
278.69	4.390
279.06	4.472
279.42	4.846
279.78	4.641
280.14	4.572
280.50	4.592
280.87	4.712
281.23	4.695
281.59	4.591
281.95	4.563
282.31	4.625
282.68	4.721
283.04	4.616
283.40	4.451
283.76	4.531
284.12	4.847
284.48	4.903
284.85	4.701
285.21	4.664
285.57	4.799
285.93	4.634
286.29	4.565
286.65	4.684
287.02	4.673
287.38	4.674
287.74	4.781
288.10	4.678
288.46	4.593
288.82	4.773
289.18	4.709
289.54	4.597
289.91	4.728
290.27	4.829
290.63	4.681
290.99	4.710
291.35	4.670
291.71	4.709
292.07	4.292
292.43	4.259
292.79	4.315
293.16	4.423
293.52	4.382
293.88	4.396
294.24	4.405
294.60	4.465
294.96	4.515
295.32	4.633
295.68	4.590
296.04	4.806
296.40	4.720
296.76	4.597
297.12	4.559
297.49	4.559
297.85	4.725
298.21	4.703
298.57	4.611
298.93	4.530
299.29	4.557
299.65	4.502
300.01	4.508
300.37	4.780
300.73	4.840
301.09	4.825
301.45	4.989
301.81	4.718
302.17	4.738
302.53	4.652
302.89	4.720
303.25	4.689
303.61	4.689
303.97	4.618
304.33	4.495
304.69	4.524
305.05	4.657
305.41	4.596
305.77	4.733
306.13	4.748
306.49	4.963
306.85	4.938
307.21	4.969
307.57	5.065
307.93	5.097
308.29	5.086
308.65	4.977
309.01	5.000
309.37	5.074
309.73	5.054
310.09	4.991
310.45	4.981
310.81	5.068
311.17	5.114
311.53	5.071
311.89	5.109
312.25	5.147
312.61	5.337
312.96	5.213
313.32	5.329
313.68	5.314
314.04	5.310
314.40	5.350
314.76	5.352
315.12	5.264
315.48	5.366
315.84	5.304
316.20	5.329
316.56	5.199
316.92	5.422
317.27	5.132
317.63	5.254
317.99	5.389
318.35	5.326
318.71	5.279
319.07	5.254
319.43	5.225
319.79	5.313
320.15	5.401
320.50	5.515
320.86	5.429
321.22	5.622
321.58	5.554
321.94	5.456
322.30	5.487
322.66	5.551
323.01	5.639
323.37	5.667
323.73	5.702
324.09	5.576
324.45	5.480
324.81	5.412
325.17	5.282
325.52	5.334
325.88	5.436
326.24	5.565
326.60	5.570
326.96	5.593
327.31	5.649
327.67	5.714
328.03	5.783
328.39	5.855
328.75	5.934
329.11	6.003
329.46	6.032
329.82	6.148
330.18	6.167
330.54	6.210
330.90	6.214
331.25	6.240
331.61	6.248
331.97	6.327
332.33	6.361
332.68	6.352
333.04	6.522
333.40	6.513
333.76	6.420
334.11	6.299
334.47	6.291
334.83	6.347
335.19	6.357
335.54	6.336
335.90	6.355
336.26	6.335
336.62	6.336
336.97	6.299
337.33	6.297
337.69	6.333
338.05	6.398
338.40	6.412
338.76	6.308
339.12	6.276
339.48	6.144
339.83	6.236
340.19	6.295
340.55	6.344
340.90	6.336
341.26	6.424
341.62	6.397
341.97	6.432
342.33	6.396
342.69	6.479
343.04	6.595
343.40	6.781
343.76	6.703
344.12	6.669
344.47	6.604
344.83	6.661
345.19	6.653
345.54	6.655
345.90	6.651
346.26	6.710
346.61	6.747
346.97	6.673
347.32	6.677
347.68	6.710
348.04	6.817
348.39	6.937
348.75	6.877
349.11	6.936
349.46	6.967
349.82	6.939
350.18	6.885
350.53	6.924
350.89	6.968
351.24	6.955
351.60	6.959
351.96	6.901
352.31	6.847
352.67	6.905
353.02	6.912
353.38	7.010
353.74	7.028
354.09	7.132
354.45	7.087
354.80	7.111
355.16	7.126
355.52	7.131
355.87	7.119
356.23	7.173
356.58	7.088
356.94	7.073
357.29	6.976
357.65	7.007
358.00	7.011
358.36	7.071
358.72	7.018
359.07	6.955
359.43	6.939
359.78	6.932
360.14	6.917
360.49	7.029
360.85	7.026
361.20	7.098
361.56	7.112
361.91	7.125
362.27	7.094
362.62	7.174
362.98	7.255
363.33	7.262
363.69	7.272
364.04	7.282
364.40	7.246
364.75	7.228
365.11	7.204
365.46	7.232
365.82	7.207
366.17	7.236
366.53	7.195
366.88	7.120
367.24	7.140
367.59	7.130
367.95	7.198
368.30	7.217
368.66	7.265
369.01	7.254
369.37	7.249
369.72	7.279
370.08	7.245
370.43	7.223
370.78	7.304
371.14	7.381
371.49	7.397
371.85	7.343
372.20	7.313
372.56	7.332
372.91	7.317
373.26	7.317
373.62	7.328
373.97	7.375
374.33	7.420
374.68	7.387
375.03	7.317
375.39	7.328
375.74	7.345
376.10	7.367
376.45	7.358
376.80	7.413
377.16	7.432
377.51	7.415
377.87	7.411
378.22	7.372
378.57	7.351
378.93	7.381
379.28	7.435
379.63	7.411
379.99	7.435
380.34	7.447
380.70	7.411
381.05	7.416
381.40	7.454
381.76	7.453
382.11	7.487
382.46	7.542
382.82	7.538
383.17	7.524
383.52	7.543
383.88	7.513
384.23	7.495
384.58	7.554
384.94	7.546
385.29	7.542
385.64	7.486
385.99	7.480
386.35	7.471
386.70	7.438
387.05	7.439
387.41	7.437
387.76	7.429
388.11	7.427
388.47	7.377
388.82	7.360
389.17	7.344
389.52	7.365
389.88	7.359
390.23	7.365
390.58	7.367
390.93	7.357
391.29	7.360
391.64	7.351
391.99	7.313
392.34	7.341
392.70	7.330
393.05	7.276
393.40	7.274
393.75	7.267
394.11	7.218
394.46	7.192
394.81	7.162
395.16	7.136
395.52	7.139
395.87	7.164
396.22	7.132
396.57	7.156
396.92	7.182
397.28	7.171
397.63	7.145
397.98	7.146
398.33	7.162
398.68	7.153
399.04	7.126
399.39	7.137
399.74	7.107
400.09	7.056
400.44	7.013
400.80	6.986
401.15	6.972
401.50	6.965
401.85	6.958
402.20	6.906
402.55	6.919
402.90	6.926
403.26	6.874
403.61	6.878
403.96	6.885
404.31	6.925
404.66	6.959
405.01	6.972
405.36	7.004
405.72	7.010
406.07	7.042
406.42	7.028
406.77	7.034
407.12	7.054
407.47	7.077
407.82	7.094
408.17	7.025
408.53	7.009
408.88	6.999
409.23	6.949
409.58	6.923
409.93	6.896
410.28	6.883
410.63	6.878
410.98	6.806
411.33	6.778
411.68	6.756
412.03	6.753
412.38	6.714
412.73	6.690
413.09	6.671
413.44	6.631
413.79	6.624
414.14	6.553
414.49	6.511
414.84	6.510
415.19	6.472
415.54	6.433
415.89	6.383
416.24	6.356
416.59	6.319
416.94	6.295
417.29	6.271
417.64	6.242
417.99	6.242
418.34	6.213
418.69	6.205
419.04	6.170
419.39	6.147
419.74	6.139
420.09	6.126
420.44	6.109
420.79	6.114
421.14	6.111
421.49	6.093
421.84	6.096
422.19	6.098
422.54	6.091
422.89	6.096
423.24	6.102
423.59	6.106
423.94	6.118
424.29	6.128
424.64	6.114
424.99	6.111
425.34	6.134
425.68	6.139
426.03	6.159
426.38	6.166
426.73	6.193
427.08	6.204
427.43	6.214
427.78	6.174
428.13	6.178
428.48	6.187
428.83	6.186
429.18	6.167
429.53	6.136
429.87	6.121
430.22	6.114
430.57	6.102
430.92	6.096
431.27	6.100
431.62	6.130
431.97	6.127
432.32	6.126
432.67	6.152
433.01	6.172
433.36	6.166
433.71	6.164
434.06	6.163
434.41	6.152
434.76	6.147
435.11	6.144
435.45	6.108
435.80	6.111
436.15	6.087
436.50	6.066
436.85	6.047
437.20	6.059
437.54	6.049
437.89	6.036
438.24	6.051
438.59	6.061
438.94	6.050
439.29	6.056
439.63	6.046
439.98	6.042
440.33	6.033
440.68	6.028
441.03	6.023
441.37	6.023
441.72	6.024
442.07	5.988
442.42	5.963
442.76	5.942
443.11	5.925
443.46	5.909
443.81	5.905
444.16	5.901
444.50	5.887
444.85	5.879
445.20	5.866
445.55	5.872
445.89	5.876
446.24	5.877
446.59	5.893
446.94	5.890
447.28	5.892
447.63	5.901
447.98	5.904
448.32	5.924
448.67	5.920
449.02	5.922
449.37	5.895
449.71	5.883
450.06	5.892
450.41	5.890
450.75	5.911
451.10	5.903
451.45	5.907
451.79	5.915
452.14	5.904
452.49	5.910
452.84	5.912
453.18	5.914
453.53	5.927
453.88	5.901
454.22	5.887
454.57	5.861
454.92	5.864
455.26	5.838
455.61	5.820
455.95	5.804
456.30	5.798
456.65	5.801
456.99	5.811
457.34	5.815
457.69	5.848
458.03	5.868
458.38	5.898
458.73	5.923
459.07	5.955
459.42	5.991
459.76	6.042
460.11	6.084
460.46	6.122
460.80	6.145
461.15	6.176
461.49	6.197
461.84	6.210
462.19	6.241
462.53	6.254
462.88	6.284
463.22	6.303
463.57	6.307
463.91	6.314
464.26	6.341
464.61	6.361
464.95	6.375
465.30	6.391
465.64	6.412
465.99	6.430
466.33	6.453
466.68	6.475
467.02	6.492
467.37	6.509
467.71	6.519
468.06	6.528
468.41	6.553
468.75	6.576
469.10	6.579
469.44	6.608
469.79	6.619
470.13	6.642
470.48	6.645
470.82	6.648
471.17	6.670
471.51	6.686
471.86	6.689
472.20	6.688
472.55	6.689
472.89	6.698
473.23	6.683
473.58	6.677
473.92	6.663
474.27	6.651
474.61	6.632
474.96	6.613
475.30	6.587
475.65	6.572
475.99	6.575
476.34	6.562
476.68	6.545
477.02	6.532
477.37	6.514
477.71	6.507
478.06	6.487
478.40	6.485
478.75	6.463
479.09	6.480
479.43	6.572
479.78	6.688
480.12	6.836
480.47	6.987
480.81	7.147
481.15	7.319
481.50	7.461
481.84	7.639
482.19	7.840
482.53	8.052
482.87	8.226
483.22	8.288
483.56	8.264
483.90	8.171
484.25	8.049
484.59	7.895
484.94	7.711
485.28	7.528
485.62	7.321
485.97	7.092
486.31	6.877
486.65	6.703
487.00	6.581
487.34	6.526
487.68	6.519
488.03	6.540
488.37	6.571
488.71	6.617
489.06	6.677
489.40	6.732
489.74	6.782
490.09	6.837
490.43	6.888
490.77	6.950
491.11	6.996
491.46	7.046
491.80	7.088
492.14	7.146
492.49	7.193
492.83	7.251
493.17	7.299
493.51	7.367
493.86	7.449
494.20	7.523
494.54	7.605
494.88	7.696
495.23	7.764
495.57	7.832
495.91	7.915
496.25	7.983
496.60	8.072
496.94	8.190
497.28	8.298
497.62	8.398
497.97	8.515
498.31	8.630
498.65	8.766
498.99	8.922
499.33	9.066
499.68	9.204
500.02	9.387
500.36	9.554
500.70	9.710
501.04	9.896
501.39	10.077
501.73	10.248
502.07	10.441
502.41	10.596
502.75	10.758
503.09	10.962
503.44	11.154
503.78	11.364
504.12	11.572
504.46	11.797
504.80	12.017
505.14	12.233
505.49	12.486
505.83	12.712
506.17	12.973
506.51	13.240
506.85	13.492
507.19	13.753
507.53	14.014
507.87	14.283
508.22	14.548
508.56	14.832
508.90	15.132
509.24	15.428
509.58	15.741
509.92	16.056
510.26	16.390
510.60	16.731
510.94	17.058
511.28	17.400
511.63	17.743
511.97	18.096
512.31	18.478
512.65	18.851
512.99	19.222
513.33	19.607
513.67	20.002
514.01	20.385
514.35	20.751
514.69	21.125
515.03	21.467
515.37	21.794
515.71	22.109
516.05	22.403
516.39	22.702
516.73	22.975
517.07	23.262
517.41	23.543
517.75	23.835
518.09	24.139
518.43	24.437
518.77	24.745
519.11	25.089
519.45	25.436
519.79	25.769
520.13	26.119
520.47	26.493
520.81	26.877
521.15	27.256
521.49	27.585
521.83	27.912
522.17	28.244
522.51	28.552
522.85	28.866
523.19	29.216
523.53	29.634
523.87	30.074
524.21	30.598
524.55	31.181
524.89	31.748
525.23	32.372
525.57	32.942
525.91	33.493
526.25	34.042
526.58	34.578
526.92	35.054
527.26	35.406
527.60	35.550
527.94	35.441
528.28	35.096
528.62	34.656
528.96	34.167
529.30	33.988
529.64	33.802
529.97	33.602
530.31	33.351
530.65	33.141
530.99	33.009
531.33	33.126
531.67	33.435
532.01	33.925
532.35	34.497
532.68	35.051
533.02	35.195
533.36	35.297
533.70	35.389
534.04	35.495
534.38	35.594
534.71	35.718
535.05	35.815
535.39	35.937
535.73	36.037
536.07	36.158
536.41	36.326
536.74	36.502
537.08	36.690
537.42	36.874
537.76	37.041
538.10	37.220
538.43	37.365
538.77	37.498
539.11	37.630
539.45	37.751
539.79	37.853
540.12	37.900
540.46	37.966
540.80	38.001
541.14	38.021
541.47	38.046
541.81	38.049
542.15	38.074
542.49	38.082
542.82	38.088
543.16	38.110
543.50	38.147
543.84	38.197
544.17	38.233
544.51	38.283
544.85	38.341
545.18	38.422
545.52	38.499
545.86	38.572
546.20	38.684
546.53	38.762
546.87	38.826
547.21	38.907
547.54	39.006
547.88	39.062
548.22	39.135
548.55	39.220
548.89	39.287
549.23	39.333
549.56	39.387
549.90	39.399
550.24	39.395
550.57	39.435
550.91	39.455
551.25	39.462
551.58	39.511
551.92	39.570
552.26	39.598
552.59	39.570
552.93	39.598
553.27	39.626
553.60	39.694
553.94	39.793
554.27	39.854
554.61	39.873
554.95	39.937
555.28	39.993
555.62	40.003
555.95	40.016
556.29	40.081
556.63	40.110
556.96	40.150
557.30	40.137
557.63	40.115
557.97	40.142
558.31	40.170
558.64	40.161
558.98	40.130
559.31	40.139
559.65	40.144
559.98	40.149
560.32	40.187
560.65	40.205
560.99	40.187
561.33	40.178
561.66	40.109
562.00	40.075
562.33	40.044
562.67	40.042
563.00	40.015
563.34	39.997
563.67	39.944
564.01	39.874
564.34	39.788
564.68	39.753
565.01	39.733
565.35	39.737
565.68	39.724
566.02	39.694
566.35	39.663
566.69	39.631
567.02	39.609
567.36	39.629
567.69	39.601
568.03	39.594
568.36	39.582
568.69	39.553
569.03	39.544
569.36	39.499
569.70	39.454
570.03	39.414
570.37	39.355
570.70	39.325
571.04	39.261
571.37	39.227
571.70	39.207
572.04	39.164
572.37	39.124
572.71	39.071
573.04	39.049
573.37	39.052
573.71	39.029
574.04	39.044
574.38	39.017
574.71	39.034
575.04	39.056
575.38	39.055
575.71	39.106
576.05	39.138
576.38	39.148
576.71	39.175
577.05	39.163
577.38	39.190
577.71	39.208
578.05	39.243
578.38	39.223
578.71	39.180
579.05	39.151
579.38	39.106
579.71	39.077
580.05	39.051
580.38	39.016
580.71	39.016
581.05	38.977
581.38	38.920
581.71	38.852
582.05	38.840
582.38	38.802
582.71	38.769
583.04	38.722
583.38	38.650
583.71	38.595
584.04	38.508
584.38	38.443
584.71	38.385
585.04	38.294
585.37	38.234
585.71	38.185
586.04	38.084
586.37	37.998
586.70	37.876
587.04	37.805
587.37	37.751
587.70	37.721
588.03	37.653
588.37	37.583
588.70	37.561
589.03	37.484
589.36	37.392
589.69	37.396
590.03	37.377
590.36	37.362
590.69	37.304
591.02	37.246
591.35	37.137
591.69	37.076
592.02	36.972
592.35	36.861
592.68	36.754
593.01	36.646
593.35	36.555
593.68	36.417
594.01	36.333
594.34	36.230
594.67	36.150
595.00	36.071
595.34	36.003
595.67	35.948
596.00	35.910
596.33	35.888
596.66	35.863
596.99	35.794
597.32	35.779
597.65	35.737
597.99	35.741
598.32	35.685
598.65	35.687
598.98	35.605
599.31	35.532
599.64	35.409
599.97	35.295
600.30	35.174
600.63	35.070
600.96	34.943
601.30	34.806
601.63	34.689
601.96	34.596
602.29	34.478
602.62	34.409
602.95	34.349
603.28	34.304
603.61	34.277
603.94	34.233
604.27	34.227
604.60	34.232
604.93	34.225
605.26	34.219
605.59	34.185
605.92	34.156
606.25	34.071
606.58	34.019
606.91	33.975
607.24	33.908
607.57	33.862
607.90	33.769
608.23	33.692
608.56	33.656
608.89	33.598
609.22	33.543
609.55	33.538
609.88	33.558
610.21	33.580
610.54	33.594
610.87	33.614
611.20	33.611
611.53	33.647
611.86	33.630
612.19	33.635
612.52	33.621
612.85	33.617
613.18	33.567
613.51	33.537
613.84	33.443
614.17	33.376
614.49	33.318
614.82	33.277
615.15	33.225
615.48	33.139
615.81	33.078
616.14	33.024
616.47	32.960
616.80	32.921
617.13	32.860
617.46	32.851
617.78	32.807
618.11	32.766
618.44	32.742
618.77	32.677
619.10	32.691
619.43	32.662
619.76	32.626
620.09	32.603
620.41	32.536
620.74	32.507
621.07	32.460
621.40	32.388
621.73	32.337
622.06	32.204
622.38	32.144
622.71	32.071
623.04	31.983
623.37	31.878
623.70	31.796
624.02	31.727
624.35	31.599
624.68	31.480
625.01	31.399
625.34	31.290
625.66	31.249
625.99	31.235
626.32	31.203
626.65	31.175
626.98	31.133
627.30	31.113
627.63	31.081
627.96	31.111
628.29	31.169
628.61	31.165
628.94	31.166
629.27	31.132
629.60	31.072
629.92	31.025
630.25	30.990
630.58	30.979
630.91	30.933
631.23	30.873
631.56	30.784
631.89	30.693
632.21	30.690
632.54	30.660
632.87	30.597
633.19	30.599
633.52	30.533
633.85	30.498
634.18	30.473
634.50	30.453
634.83	30.455
635.16	30.483
635.48	30.465
635.81	30.417
636.14	30.412
636.46	30.437
636.79	30.373
637.11	30.412
637.44	30.394
637.77	30.353
638.09	30.300
638.42	30.258
638.75	30.204
639.07	30.143
639.40	30.109
639.73	30.066
640.05	30.031
640.38	29.969
640.70	29.906
641.03	29.837
641.36	29.854
641.68	29.875
642.01	29.892
642.33	29.866
642.66	29.845
642.98	29.838
643.31	29.811
643.64	29.796
643.96	29.763
644.29	29.722
644.61	29.729
644.94	29.641
645.26	29.582
645.59	29.502
645.91	29.448
646.24	29.425
646.56	29.353
646.89	29.298
647.22	29.233
647.54	29.203
647.87	29.141
648.19	29.090
648.52	29.056
648.84	29.018
649.17	28.966
649.49	28.911
649.82	28.873
650.14	28.853
650.47	28.815
650.79	28.845
651.11	28.776
651.44	28.799
651.76	28.751
652.09	28.725
652.41	28.657
652.74	28.654
653.06	28.713
653.39	28.712
653.71	28.702
654.04	28.613
654.36	28.453
654.68	28.399
655.01	28.294
655.33	28.265
655.66	28.205
655.98	28.103
656.30	28.028
656.63	27.908
656.95	27.797
657.28	27.766
657.60	27.757
657.92	27.754
658.25	27.747
658.57	27.772
658.90	27.714
659.22	27.673
659.54	27.696
659.87	27.684
660.19	27.679
660.51	27.721
660.84	27.662
661.16	27.659
661.48	27.708
661.81	27.721
662.13	27.664
662.45	27.699
662.78	27.750
663.10	27.746
663.42	27.745
663.75	27.715
664.07	27.714
664.39	27.684
664.72	27.668
665.04	27.597
665.36	27.549
665.69	27.527
666.01	27.469
666.33	27.453
666.65	27.429
666.98	27.346
667.30	27.293
667.62	27.220
667.94	27.260
668.27	27.229
668.59	27.205
668.91	27.231
669.23	27.254
669.56	27.243
669.88	27.197
670.20	27.185
670.52	27.195
670.85	27.249
671.17	27.256
671.49	27.166
671.81	27.177
672.13	27.173
672.46	27.120
672.78	27.059
673.10	27.099
673.42	27.113
673.74	27.132
674.07	27.180
674.39	27.136
674.71	27.107
675.03	27.078
675.35	27.004
675.67	26.963
676.00	26.901
676.32	26.870
676.64	26.775
676.96	26.658
677.28	26.551
677.60	26.431
677.92	26.405
678.25	26.301
678.57	26.253
678.89	26.206
679.21	26.140
679.53	26.103
679.85	26.071
680.17	26.000
680.49	25.981
680.81	25.989
681.13	26.003
681.46	25.997
681.78	26.056
682.10	26.054
682.42	26.051
682.74	26.079
683.06	26.119
683.38	26.097
683.70	26.143
684.02	26.176
684.34	26.186
684.66	26.182
684.98	26.164
685.30	26.076
685.62	26.098
685.94	26.086
686.26	26.068
686.58	26.027
686.90	26.020
687.22	25.947
687.54	25.893
687.86	25.882
688.18	25.875
688.50	25.819
688.82	25.818
689.14	25.770
689.46	25.788
689.78	25.748
690.10	25.771
690.42	25.770
690.74	25.816
691.06	25.857
691.38	25.802
691.70	25.739
692.02	25.704
692.34	25.684
692.66	25.663
692.98	25.603
693.30	25.566
693.62	25.477
693.94	25.445
694.26	25.326
694.57	25.217
694.89	25.140
695.21	25.099
695.53	25.102
695.85	25.086
696.17	25.049
696.49	25.023
696.81	25.020
697.13	24.952
697.44	24.907
697.76	24.927
698.08	24.946
698.40	24.972
698.72	24.960
699.04	24.975
699.36	24.994
699.67	25.022
699.99	25.028
700.31	25.030
700.63	25.122
700.95	25.097
701.27	25.114
701.58	25.152
701.90	25.143
702.22	25.235
702.54	25.239
702.86	25.207
703.17	25.221
703.49	25.251
703.81	25.247
704.13	25.218
704.45	25.274
704.76	25.267
705.08	25.150
705.40	25.126
705.72	25.035
706.03	24.962
706.35	24.963
706.67	24.864
706.99	24.739
707.30	24.700
707.62	24.645
707.94	24.611
708.26	24.548
708.57	24.514
708.89	24.463
709.21	24.418
709.53	24.392
709.84	24.338
710.16	24.402
710.48	24.371
710.79	24.347
711.11	24.368
711.43	24.391
711.74	24.363
712.06	24.346
712.38	24.415
712.69	24.470
713.01	24.450
713.33	24.487
713.64	24.382
713.96	24.396
714.28	24.411
714.59	24.422
714.91	24.342
715.23	24.455
715.54	24.494
715.86	24.448
716.17	24.456
716.49	24.422
716.81	24.328
717.12	24.374
717.44	24.343
717.76	24.271
718.07	24.156
718.39	24.103
718.70	23.988
719.02	23.981
719.33	23.903
719.65	23.739
719.97	23.811
720.28	23.931
720.60	23.943
720.91	23.987
721.23	24.004
721.54	23.978
721.86	24.068
722.17	24.016
722.49	24.059
722.81	24.125
723.12	24.295
723.44	24.212
723.75	24.082
724.07	24.008
724.38	24.029
724.70	24.070
725.01	24.163
725.33	24.133
725.64	24.150
725.96	24.138
726.27	24.121
726.59	24.071
726.90	24.070
727.22	24.096
727.53	24.155
727.84	24.170
728.16	24.071
728.47	24.024
728.79	23.926
729.10	23.834
729.42	23.741
729.73	23.781
730.05	23.623
730.36	23.651
730.67	23.642
730.99	23.576
731.30	23.529
731.62	23.584
731.93	23.598
732.24	23.601
732.56	23.774
732.87	23.834
733.19	23.760
733.50	23.924
733.81	23.924
734.13	23.955
734.44	24.057
734.76	24.153
735.07	24.140
735.38	24.006
735.70	24.044
736.01	23.926
736.32	23.857
736.64	23.794
736.95	23.662
737.26	23.616
737.58	23.537
737.89	23.444
738.20	23.353
738.52	23.360
738.83	23.506
739.14	23.443
739.45	23.440
739.77	23.477
740.08	23.504
740.39	23.470
740.71	23.438
741.02	23.355
741.33	23.270
741.64	23.240
741.96	23.285
742.27	23.213
742.58	23.316
742.90	23.327
743.21	23.280
743.52	23.338
743.83	23.444
744.14	23.455
744.46	23.487
744.77	23.509
745.08	23.521
745.39	23.456
745.71	23.558
746.02	23.463
746.33	23.431
746.64	23.447
746.95	23.465
747.27	23.423
747.58	23.281
747.89	23.334
748.20	23.378
748.51	23.318
748.82	23.224
749.14	23.267
749.45	23.176
749.76	23.181
750.07	23.293
750.38	23.157
750.69	23.275
751.01	23.382
751.32	23.328
751.63	23.299
751.94	23.289
752.25	23.360
752.56	23.001
752.87	23.151
753.18	23.181
753.49	23.018
753.81	23.010
754.12	22.929
754.43	22.936
754.74	22.985
755.05	23.035
755.36	23.132
755.67	22.995
755.98	23.148
756.29	23.054
756.60	22.924
756.91	22.990
757.22	22.999
757.53	23.073
757.84	23.202
758.15	23.298
758.46	23.215
758.77	23.126
759.09	23.227
759.40	23.300
759.71	23.433
760.02	23.477
760.33	23.474
760.64	23.471
760.95	23.388
761.26	23.292
761.57	23.211
761.88	23.272
762.18	23.238
762.49	23.208
762.80	23.166
763.11	23.166
763.42	23.160
763.73	23.119
764.04	23.184
764.35	23.188
764.66	23.183
764.97	23.177
765.28	23.272
765.59	23.413
765.90	23.477
766.21	23.453
766.52	23.291
766.83	23.293
767.14	23.240
767.44	23.279
767.75	23.236
768.06	23.150
768.37	23.185
768.68	23.091
768.99	22.999
769.30	23.017
769.61	23.152
769.91	23.235
770.22	23.393
770.53	23.579
770.84	23.234
771.15	23.320
771.46	23.388
771.77	23.400
772.07	23.220
772.38	23.091
772.69	23.077
773.00	22.888
773.31	22.824
773.61	22.705
773.92	22.647
774.23	22.894
774.54	22.843
774.85	22.907
775.15	23.004
775.46	22.992
775.77	23.244
776.08	23.128
776.39	23.031
776.69	23.118
777.00	22.916
777.31	22.864
777.62	22.761
777.92	22.689
778.23	22.896
778.54	22.872
778.85	22.953
779.15	22.842
779.46	22.789
779.77	22.976
780.07	23.086
780.38	23.190
780.69	23.315
781.00	23.640
781.30	23.712
781.61	23.404
781.92	23.257
782.22	23.056
782.53	22.948
782.84	23.110
783.14	23.307
783.45	23.320
783.76	23.271
784.06	23.178
784.37	22.882
784.68	22.956
784.98	23.008
785.29	23.003
785.60	23.134
785.90	23.231
786.21	23.065
786.51	22.849
786.82	22.475
787.13	22.644
787.43	22.582
787.74	22.654
788.04	22.604
788.35	22.841
788.66	22.787
788.96	22.560
789.27	22.482
789.57	22.434
789.88	22.677
790.19	22.764
790.49	22.249
790.80	22.199
791.10	22.055
791.41	22.034
791.71	21.736
792.02	21.972
792.32	22.252
792.63	22.242
792.93	22.466
793.24	22.333
793.54	22.383
793.85	22.629
794.15	22.728
794.46	22.881
794.76	22.888
795.07	22.793
795.37	22.542
795.68	22.777
795.98	22.888
796.29	23.035
796.59	22.973
796.90	23.156
797.20	23.170
797.51	23.303
797.81	23.289
798.12	23.475
798.42	23.470
798.72	23.599
799.03	23.339
799.33	23.339
799.64	23.127
799.94	23.241
800.25	23.202
800.55	23.467
800.85	23.518
801.16	23.383
801.46	22.926
801.77	23.176
802.07	23.202
802.37	23.359
802.68	23.148
802.98	23.102
803.28	23.209
803.59	23.088
803.89	23.277
804.20	23.223
804.50	23.256
804.80	23.412
805.11	23.342
805.41	23.625
805.71	23.259
806.02	23.401
806.32	23.683
806.62	23.409
806.93	23.441
807.23	23.326
807.53	23.286
807.83	23.685
808.14	23.630
808.44	23.697
808.74	23.510
809.05	23.486
809.35	23.429
809.65	23.176
809.95	23.305
810.26	23.728
810.56	23.806
810.86	23.765
811.16	23.385
811.47	23.461
811.77	23.195
812.07	23.254
812.37	23.803
812.68	23.972
812.98	23.888
813.28	24.298
813.58	23.929
813.88	23.717
814.19	23.614
814.49	23.740
814.79	23.855
815.09	24.064
815.39	24.130
815.70	23.682
816.00	23.753
816.30	23.960
816.60	23.576
816.90	23.713
817.20	23.815
817.50	24.109
817.81	23.832
818.11	23.805
818.41	23.866
818.71	23.714
819.01	23.651
819.31	23.403
819.61	23.348
819.92	23.251
820.22	23.208
820.52	23.166
820.82	23.073
821.12	23.066
821.42	23.017
821.72	23.016
822.02	23.063
822.32	23.124
822.62	23.196
822.92	23.291
823.22	23.317
823.52	23.313
823.83	23.315
824.13	23.375
824.43	23.507
824.73	23.610
825.03	23.563
825.33	23.438
825.63	23.308
825.93	23.360
826.23	23.267
826.53	23.258
826.83	23.263
827.13	23.466
827.43	23.515
827.73	23.446
828.03	23.372
828.33	23.467
828.63	23.668
828.93	23.909
829.23	23.978
829.53	23.843
829.83	23.930
830.13	23.967
830.42	23.635
830.72	23.372
831.02	23.535
831.32	23.606
831.62	23.436
831.92	23.268
832.22	23.220
832.52	23.089
832.82	23.274
833.12	23.406
833.42	23.465
833.72	23.373
834.01	23.434
834.31	23.154
834.61	23.269
834.91	23.383
835.21	23.418
835.51	23.552
835.81	23.777
836.11	23.757
836.40	23.857
836.70	24.001
837.00	23.947
837.30	24.027
837.60	24.223
837.90	23.747
838.19	23.887
838.49	24.314
838.79	24.053
839.09	24.038
839.39	24.080
839.68	24.140
839.98	24.285
840.28	24.975
840.58	25.599
840.88	25.958
841.17	26.794
841.47	27.269
841.77	27.610
842.07	28.317
842.36	28.832
842.66	29.266
842.96	28.867
843.26	28.869
843.55	28.263
843.85	28.304
844.15	27.931
844.45	27.458
844.74	26.379
845.04	25.709
845.34	25.423
845.63	25.663
845.93	24.936
846.23	25.110
846.53	25.303
846.82	27.009
847.12	26.919
847.42	26.792
847.71	27.240
848.01	27.851
848.31	28.837
848.60	28.868
848.90	27.966
849.19	27.076
849.49	27.303
849.79	27.076
850.08	25.587
850.38	24.643
850.68	25.975
850.97	24.939
851.27	24.108
851.56	22.869
851.86	24.494
852.16	25.112
852.45	26.858
852.75	27.281
853.04	27.094
853.34	28.234
853.64	29.894
853.93	29.391
854.23	29.239
854.52	30.152
854.82	29.676
855.11	28.862
855.41	28.759
855.70	28.588
856.00	28.745
856.30	29.682
856.59	29.626
856.89	28.671
857.18	28.313
857.48	28.682
857.77	28.845
858.07	29.422
858.36	28.818
858.66	29.215
858.95	29.310
859.25	29.341
859.54	28.172
859.84	27.220
860.13	27.096
860.42	26.588
860.72	26.866
861.01	27.563
861.31	28.036
861.60	28.228
861.90	28.222
862.19	28.597
862.49	28.684
862.78	29.038
863.07	30.341
863.37	30.644
863.66	31.643
863.96	30.322
864.25	29.098
864.54	29.678
864.84	29.938
865.13	29.639
865.43	29.573
865.72	23.627
866.01	35.636
866.31	37.007
866.60	32.363
866.89	33.243
>>>>>End Spectral Data<<<<<
